#   1 NUMBER                 Running object number                                     
#   2 X_IMAGE                Object position along x                                    [pixel]
#   3 Y_IMAGE                Object position along y                                    [pixel]
#   4 ALPHA_J2000            Right ascension of barycenter (J2000)                      [deg]
#   5 DELTA_J2000            Declination of barycenter (J2000)                          [deg]
#   6 FLUX_APER              Flux vector within fixed circular aperture(s)              [count]
#   9 FLUXERR_APER           RMS error vector for aperture flux(es)                     [count]
#  12 FLUX_RADIUS            Fraction-of-light radii                                    [pixel]
#  13 FWHM_IMAGE             FWHM assuming a gaussian core                              [pixel]
#  14 BACKGROUND             Background at centroid position                            [count]
#  15 THRESHOLD              Detection threshold above background                       [count]
#  16 FLUX_MAX               Peak flux above background                                 [count]
#  17 ISOAREA_IMAGE          Isophotal area above Analysis threshold                    [pixel**2]
#  18 A_IMAGE                Profile RMS along major axis                               [pixel]
#  19 B_IMAGE                Profile RMS along minor axis                               [pixel]
#  20 THETA_IMAGE            Position angle (CCW/x)                                     [deg]
#  21 FLAGS                  Extraction flags                                          
         1      8.8598     88.3410 307.9360979  +6.6321080     743986.2      1707315      1893004     78.20011     156.0286     311.9951      2.285     5.74     838.8251     54.98875     61986.36       458     2.332     1.876  73.93  28
         2    185.8598     15.4207 307.8650273  +6.6681685     10164.92     16315.11     17192.17     77.82803     155.9045       311.84      1.722     3.61     831.2214     54.98875     1451.803        46     1.610     1.154  62.32   0
         3    529.9435     13.6963 307.7221263  +6.6804347     2838.304     4469.057     4568.275     78.07628     155.9666     312.1812      1.665     3.65     820.6743     54.98875     397.5779        24     1.430     0.942  65.75   0
         4    931.4412     13.0757 307.5553249  +6.6941212     3813.995     5987.264     5940.263     78.07628     156.0286     311.9951      1.640     3.73     817.7671     54.98875     503.2615        26     1.414     0.967  75.74   0
         5    468.1370     12.1596 307.7478579  +6.6789966     1724.085     2628.365     2653.844     78.20011     155.9666     311.9951      1.570     4.01     821.3954     54.98875     239.3591        19     1.392     0.907  75.60   0
         6    732.3301     11.7738 307.6381003  +6.6880053     1907.653      2859.92     2869.827     77.82803     155.9045     311.9021      1.562     3.82     820.5655     54.98875     280.6121        21     1.408     0.875  64.79   0
         7    996.3783      9.4156 307.5284654  +6.6977990     1902.507     3314.061     3203.582     77.95225     155.8424     311.9021      1.830     4.70     815.7571     54.98875     234.3502        24     1.520     1.025  71.98  16
         8    715.6108      5.9841 307.6452416  +6.6898360     7013.265     10715.84     10945.33     77.95225     155.7182     295.7229      1.615     3.50     820.4194     54.98875     974.2946        32     1.470     0.990  64.86  16
         9    635.8331      5.2090 307.6784152  +6.6874859     3545.839     5586.188     6006.004      77.7036     155.8424     287.7966      1.682     3.66     820.2399     54.98875     497.4313        26     1.423     0.962  64.66  16
        10    337.5355      4.8333 307.8023673  +6.6776374     833.2228     1477.123      1478.04     78.07628     156.0286     283.7675      1.705     5.91     830.4671     54.98875     119.6714         9     1.259     0.782  27.69  16
        11    391.3934      3.0433 307.7800507  +6.6801847     767.6487     1310.613     1293.857      77.7036     145.7025     260.5144      1.755     5.47     827.4852     54.98875       99.625         9     1.235     0.684  67.60  24
        12     37.2811      1.9013 307.9272128  +6.6687472     6692.254     8547.551     8748.936     74.26536     132.5582     243.9419      1.322     3.11     831.0901     54.98875     1158.703        28     1.401     0.925   6.17  24
        13    436.1746      2.1094 307.7614762  +6.6820732     5591.879     7082.864     7508.065     76.19465     134.7303     246.8989      1.368     3.17      823.815     54.98875     875.5019        22     1.149     0.965  17.51  24
        14    549.7014    989.6827 307.6811156  +6.2781926     7563.506     12528.78     13242.07     78.20011     156.4002     312.0572      1.770     3.63      855.679     54.98875      981.017        41     1.590     1.160  65.43   3
        15    724.1949   1022.0073 307.6075874  +6.2706864     6347.483     10397.73      11182.5     77.57897     145.1036     259.8077      1.769     3.87     854.4422     54.98875     802.6787        33     1.457     1.180  47.11  24
        16    590.9014   1023.4737 307.6628764  +6.2656223     21385.19     26942.27     28635.41     70.24799     127.0419     237.7957      1.198     3.10      857.072     54.98875     5053.553        40     1.588     0.764   1.04  24
        17    580.2675   1021.3089 307.6673638  +6.2661600     3757.484       6535.4     7097.693     78.32375     151.8805     269.6042      1.842     3.93     856.8973     54.98875     457.7269        35     1.587     1.170  66.75  24
        18    438.9710   1021.9857 307.7260007  +6.2611474     3393.525     5663.266     6311.298     77.82803     145.5697     260.2914      1.843     4.06     856.0741     54.98875      477.162        28     1.501     1.057  62.26  24
        19    220.5646   1023.6748 307.8166135  +6.2531210     1060.279     1233.643     1313.216     67.72328     123.8016     234.5178      1.147     3.23      854.788     54.98875     237.5784         8     1.093     0.454  -6.63  24
        20    522.9810    998.7635 307.6919039  +6.2735489     1019.616     1459.657     1270.295      77.7036     155.8424     311.7469      1.643     4.77     855.8193     54.98875     166.3717        12     1.414     0.707  69.22   0
        21    302.7747    996.0607 307.7834146  +6.2672810     13596.72     23131.62     26055.14     77.82803     156.0286     311.8711      1.879     3.87      855.226     54.98875     1671.285        62     1.709     1.529 -64.80   0
        22    818.4120    996.5344 307.5693247  +6.2843504     1020.302     1462.716     1681.584      77.7036     155.8424       311.84      1.684     4.54     852.0211     54.98875     165.7567        13     1.272     0.774  54.68   0
        23    426.9192    996.6539 307.7318557  +6.2712007     874.6013     1474.278     1721.303     78.20011     156.0286     312.0262      1.772     3.74     855.5032     54.98875     144.6477         9     1.132     0.597  70.07   0
        24    274.1965    993.7784 307.7953556  +6.2672637     866.9048     1575.313      1676.57     77.82803     155.7182     311.7469      1.847     5.70     854.8669     54.98875     103.7225        11     1.350     0.679  75.38   0
        25    918.4605    990.3771 307.5279927  +6.2902321     7415.219     13504.29     15110.74     77.82803     155.9666     311.8711      1.973     4.12      849.563     54.98875     803.5549        51     1.714     1.386  60.32   0
        26    891.9874    986.4811 307.5391143  +6.2909571     10633.07     19172.29     20438.64     77.82803     155.7182      311.809      1.934     3.93      850.245     54.98875     1234.477        56     1.727     1.387  55.57   0
        27   1013.7467    985.9639 307.4885789  +6.2952318     3949.088     7320.422     7596.622     78.07628     156.0286     311.9951      1.952     4.13     846.9954     54.98875     431.5062        37     1.574     1.299  63.95  16
        28    604.8640    987.1114 307.6583002  +6.2811008       1341.6     1991.126     1735.687     78.07628     156.2764     311.9951      1.540     3.79       855.49     54.98875     194.2496        13     1.144     0.806  61.93   0
        29    536.1113    985.4941 307.6868984  +6.2794666     3961.112     6728.318     7550.189     78.20011     156.4621     312.0262      1.908     3.78     855.4885     54.98875     503.7164        34     1.510     1.208  39.76   0
        30    645.8674    985.1158 307.6413437  +6.2832967     1269.466     2060.097      2176.77     78.44719     156.2764     311.9951      1.855     5.78     854.5953     54.98875     152.7987        17     1.289     1.033  55.69   0
        31    489.2731    981.9960 307.7064615  +6.2793417     2012.152     3320.715     3044.455      77.7036     155.5939      311.809      1.714     4.11     855.1818     54.98875     274.9259        21     1.468     0.899  73.24   0
        32     70.5107    983.7728 307.8802515  +6.2645484     783.6439     1304.797     1492.446     78.32375     155.7803       311.84      1.824     6.37     852.0612     54.98875     95.29742        11     1.246     0.914  41.85   0
        33    608.2916    983.8312 307.6569872  +6.2825696     1462.488     1539.017     1623.667     78.32375     155.8424     311.9641      0.684     1.03     855.3405     54.98875      763.837         5     0.559     0.362 -13.15   0
        34    923.7515    974.0803 307.5263413  +6.2971365     37750.52     67213.12      73464.4     78.20011     156.0906     311.9331      1.930     3.97     848.9102     54.98875     4521.524        87     1.834     1.431  65.19   0
        35    231.0615    972.3962 307.8139833  +6.2746419     1569.943     2622.201     2575.031     77.57897     155.7803     311.6848      1.742     3.88     853.5758     54.98875     217.5375        20     1.317     1.000  62.61   0
        36    629.9219    970.8078 307.6484439  +6.2886698     740.7528     1287.795      967.647     77.82803     155.5317     311.7469      1.712     5.97     854.3716     54.98875     88.80579        12     1.349     0.743  54.17   0
        37    119.3330    971.4937 307.8603976  +6.2712594     633.4391     1110.208      1121.98     78.07628     156.2145     311.9641      1.966     5.37     852.4949     54.98875     105.4717         5     1.109     0.734 -14.20   0
        38    769.9426    965.6833 307.5904818  +6.2954673      6140.79     10270.54     11393.61     78.20011     156.0286     312.0262      1.827     3.60     852.2463     54.98875     837.5492        43     1.617     1.282  65.04   2
        39    821.4720    967.9002 307.5690133  +6.2962736     2214.626     3776.857     4010.491     77.95225     156.2145     311.9951      1.811     3.72     851.2595     54.98875     300.8478        25     1.292     1.196  72.39   0
        40    556.5176    964.9924 307.6791148  +6.2886135     786.2955     1047.993     1278.395     77.82803      155.656       311.84      1.460     3.93     854.8342     54.98875     146.8129         9     1.158     0.647  62.62   0
        41    239.1478    964.7906 307.8108825  +6.2780532     1332.775     2321.727     2408.021     77.57897     155.9045     311.7159      1.849     5.22     853.5559     54.98875     164.2098        16     1.389     0.817  62.01   0
        42    203.6178    964.1106 307.8256558  +6.2771403      871.369     1556.408     1575.159     77.95225     155.7803     311.8711      1.903     5.50     853.0419     54.98875     114.6624        11     1.138     0.821  58.08   0
        43     64.1649    962.6892 307.8835973  +6.2730383     2565.243     3961.826      4205.58     78.32375     155.9666     311.9641      1.672     3.81     851.5446     54.98875      341.472        22     1.359     1.029  65.66   0
        44    958.1399    960.7885 307.5125081  +6.3037708     5787.472     10362.36     10554.32     77.57897     155.9045     311.6848      1.889     3.97     847.6317     54.98875     736.8042        41     1.639     1.229  63.89   0
        45    214.5043    956.7612 307.8213839  +6.2805400     631.9199     1119.629      1601.41     78.20011     155.9045     312.0882      2.090     6.44     852.9686     54.98875     84.10181        10     1.358     0.857  73.51   0
        46    640.2145    955.1016 307.6446977  +6.2954981     700.8522     1081.535     934.7966     78.07628     155.7803     311.7469      1.626     2.98     853.6259     54.98875     118.3405         6     0.747     0.554  52.64   0
        47    931.9319    952.3605 307.5236715  +6.3063759     2004.779     3546.159     3318.111     78.07628     156.0286     312.0882      1.831     4.04     848.0398     54.98875     279.9182        23     1.422     1.007  70.78   0
        48    791.3979    949.3881 307.5821199  +6.3029113     1163.776     2115.453     1784.921     77.82803     155.7182     311.7469      1.838     5.89     851.3942     54.98875     150.5355        20     1.520     0.964  86.06   0
        49    264.6694    948.6252 307.8008314  +6.2855836     4221.518     6909.009     7613.469     77.82803     155.9045     311.9021      1.799     3.74     853.7393     54.98875     541.0474        33     1.476     1.128  73.30   0
        50    652.5128    948.3971 307.6398166  +6.2986773     4257.049     6719.607     6010.487     77.57897     155.6561     311.7159      1.700     3.84     853.2755     54.98875     524.9027        28     1.445     1.046  62.04   0
        51   1002.2161    948.4482 307.4946205  +6.3103350     592.1476     1070.191     1551.536      77.7036     156.0286     311.7469      1.616     3.82     846.0815     54.98875     94.14496         5     1.047     0.399 -84.03   0
        52     33.3896    946.0594 307.8969348  +6.2788675     1904.088     3087.044      2740.18     77.57897     155.9045     311.6848      1.661     4.18      851.019     54.98875     234.3427        22     1.396     1.001  76.66   0
        53    474.8230    946.5048 307.7136535  +6.2935089      1079.23     1793.094     1923.788     78.20011     155.7803      311.809      1.710     4.13     854.2985     54.98875     165.1483        12     1.176     0.793  64.58   0
        54    884.0899    944.6099 307.5437947  +6.3079791      685.187     1306.188     845.9325     77.95225     155.7182      311.778      1.925     5.69     849.2446     54.98875     98.82025         9     1.394     0.654  44.78   0
        55   1008.6019    941.7425 307.4921933  +6.3133163     734.4683     1584.935     2137.483     77.57897     155.7182     311.7159      2.331     3.63     845.7045     54.98875     114.2941         7     1.010     0.503  45.70   0
        56    956.8530    941.3817 307.5136916  +6.3117397     564.0171     1038.076     1152.168      77.7036     156.0906     311.7469      1.827     5.22     847.0542     54.98875     80.04352         5     1.261     0.612 -29.06   0
        57    577.1114    940.9789 307.6713710  +6.2992163     1592.872     2486.043     2399.313     78.20011     155.7803       311.84      1.634     3.51     853.7315     54.98875     238.8812        15     1.228     0.758  58.41   0
        58    616.4661    937.1797 307.6551591  +6.3021020     1157.689     2029.373     2067.716     77.82803     156.0286     311.8711      1.849     4.72     853.0406     54.98875     176.6116        15     1.387     0.738  52.33   0
        59     66.0713    937.8468 307.8836442  +6.2833575     727.1705     1041.448     1097.972     78.20011     156.0286     311.9641      1.439     4.32     851.1671     54.98875     123.8293         8     0.966     0.632  59.82   0
        60     61.2953    936.6129 307.8856686  +6.2837062     572.8192     994.4308     933.5185     77.95225     155.7803      311.778      1.834     4.17     851.1307     54.98875      100.977         5     0.935     0.816   0.92   0
        61    296.1445    935.0225 307.7882221  +6.2922558     1324.771     2310.821     2790.733     77.82803     156.0286      311.778      1.879     4.26     854.0229     54.98875      176.608        18     1.246     0.983  82.91   0
        62    763.4403    931.1819 307.5943378  +6.3094931     792.9064      1289.54     1231.406     77.82803     155.8424     311.7159      1.696     4.95     851.5907     54.98875     106.7449         8     1.010     0.735  65.79   0
        63    138.9818    930.8362 307.8536115  +6.2887038     428.5939     616.4146     219.5113      77.7036     155.8424     311.7469      1.577     3.91     851.7162     54.98875     77.37878         5     0.839     0.523 -62.28   0
        64    900.7725    927.7127 307.5374337  +6.3155116     6300.913      10811.9     11132.87     78.32375     155.7803       311.84      1.830     3.89      848.237     54.98875     767.6308        38     1.576     1.178  67.59   0
        65    436.6788    924.7015 307.7302231  +6.3012312     2103.416     3319.173     3872.305     77.95225     156.3383     311.9951      1.722     4.10     853.8464     54.98875     233.5425        20     1.289     1.031  62.89   0
        66    338.2686    923.1957 307.7711315  +6.2985519     8921.167     14744.45     15782.24     77.57897     155.6561     311.7469      1.754     3.70     853.8741     54.98875     1096.863        44     1.592     1.202  75.67   0
        67    605.5637    925.2009 307.6600877  +6.3066822     694.2219     974.8285     1115.064     77.32912     155.8424      311.778      1.794     5.09     852.6321     54.98875     106.1122         7     0.999     0.734   0.36   0
        68    258.3694    922.1785 307.8043378  +6.2962896     6736.021     10937.83     11484.58      77.7036     155.8424       311.84      1.710     3.60      853.093     54.98875     830.0482        34     1.480     1.104  60.16   0
        69    770.8680    916.1646 307.5917571  +6.3159409     610.4787     832.4252     938.0906     78.07628     156.0906     312.0572      1.308     3.98     850.9995     54.98875     115.5578         6     1.120     0.405  63.26   0
        70    586.6417    916.3328 307.6682417  +6.3097098     982.9384     1714.967     1631.392     78.20011     155.9666     312.0262      1.774     4.67     852.7484     54.98875     159.7598        10     1.012     0.900  42.17   0
        71    916.5974    912.7348 307.5313644  +6.3222230     930.1891     1397.454     1962.864     77.57897     155.7803     311.7469      1.895     4.59     847.4052     54.98875     134.6868        11     1.157     0.803 -72.51   0
        72    873.8707    912.6186 307.5491087  +6.3208449     554.7839     1186.661     1280.158     77.82803     155.9045     311.9021      2.023     3.48     848.5649     54.98875     78.26794         5     0.784     0.445  17.46   0
        73    752.8916    905.8652 307.5995661  +6.3195920     1519.326     2478.661     3021.422     78.07628     156.2145     311.9641      1.758     4.51     850.9871     54.98875     226.8586        15     1.405     0.736  80.96   0
        74    576.9083    906.8954 307.6725998  +6.3132799     702.1204     1193.509     1157.907     78.20011     156.5857     311.9331      1.709     4.79     852.6928     54.98875     97.03015         9     0.984     0.859  51.16   0
        75    844.9674    905.5032 307.5613478  +6.3228174     526.9485     921.8482     974.8049     78.32375     155.9045     312.0572      2.068     4.25     849.1083     54.98875     83.79584         5     1.149     0.447  61.92   0
        76      3.6474    903.2733 307.9107269  +6.2955286     801.3738      1254.88     923.2321     78.07628     151.6254     269.1732      1.532     5.29     849.7322     54.98875     110.7551         9     1.179     0.670 -87.96  16
        77    984.4417    902.0971 307.5035504  +6.3288776     1306.218     2346.075     3388.877     78.20011     155.9045     312.1812      2.344     4.94     845.4991     54.98875     156.5227        19     1.330     1.029  65.18   0
