#   1 NUMBER                 Running object number                                     
#   2 X_IMAGE                Object position along x                                    [pixel]
#   3 Y_IMAGE                Object position along y                                    [pixel]
#   4 ALPHA_J2000            Right ascension of barycenter (J2000)                      [deg]
#   5 DELTA_J2000            Declination of barycenter (J2000)                          [deg]
#   6 FLUX_APER              Flux vector within fixed circular aperture(s)              [count]
#   9 FLUXERR_APER           RMS error vector for aperture flux(es)                     [count]
#  12 FLUX_RADIUS            Fraction-of-light radii                                    [pixel]
#  13 FWHM_IMAGE             FWHM assuming a gaussian core                              [pixel]
#  14 BACKGROUND             Background at centroid position                            [count]
#  15 THRESHOLD              Detection threshold above background                       [count]
#  16 FLUX_MAX               Peak flux above background                                 [count]
#  17 ISOAREA_IMAGE          Isophotal area above Analysis threshold                    [pixel**2]
#  18 A_IMAGE                Profile RMS along major axis                               [pixel]
#  19 B_IMAGE                Profile RMS along minor axis                               [pixel]
#  20 THETA_IMAGE            Position angle (CCW/x)                                     [deg]
#  21 FLAGS                  Extraction flags                                          
         1    187.4233     14.0471 307.8650993  +6.6682309     10955.76     16562.23     17465.49      77.9034     156.1797      312.142      1.612     3.71      829.559       55.042     1635.839        39     1.558     0.975  47.65   0
         2    531.7518     12.2039 307.7220979  +6.6805555     3060.725     4428.191     4242.332     77.65411     155.9312     311.9246      1.526     3.71     828.2539       55.042     490.4022        20     1.472     0.745  45.84   0
         3    933.1068     11.7521 307.5553477  +6.6941684     4276.499     6353.574     7034.522     78.15189     156.0555     312.3904      1.584     3.61     825.3652       55.042     647.4686        25     1.452     0.847  51.60   0
         4    733.8816     10.4173 307.6381726  +6.6880621     2094.279     3125.148     3317.119      77.9034      155.869      312.142      1.589     3.81     826.2798       55.042     353.0586        16     1.322     0.699  45.75   0
         5    469.8657     10.5690 307.7478662  +6.6791553     1941.021     2922.936     2599.147     78.02775     156.2418     312.2042      1.558     4.07     828.5134       55.042     291.3478        15     1.335     0.700  36.20   0
         6    997.8770      8.1846 307.5285541  +6.6978031     1970.589     3370.328     3346.235      77.9034      155.869     311.4269      1.700     4.38     821.1176       55.042     270.3332        22     1.494     0.997  56.20  16
         7    717.2687      4.4883 307.6452745  +6.6899547     7859.483     11204.38     11651.23      78.3996     156.4278      279.882      1.515     3.84     826.0609       55.042      1312.19        28     1.491     0.824  50.54  24
         8    637.5084      3.7720 307.6784395  +6.6875807     3922.403     5711.027     5980.118      78.3996     152.2824     270.7619      1.521     3.73     826.4321       55.042     656.1542        23     1.486     0.778  51.40  24
         9    339.3948      3.1114 307.8023269  +6.6778554     1086.859      1569.28     1376.031     77.77885     146.4407     261.8056      1.472     3.83     834.1432       55.042      159.104        11     1.246     0.670  69.16  24
        10    438.2472      1.4213 307.7613115  +6.6818720     3337.058     3765.119     4185.315     69.06401     125.5537     236.3912      1.000     1.95     828.9898       55.042     891.2296        11     0.915     0.589   3.60  24
        11    393.0025      2.0451 307.7800893  +6.6800959     958.3815     1160.755     1228.171     75.37339      133.923     245.9583      1.353     4.54     831.1677       55.042     142.1135         8     0.930     0.629  43.03  24
        12     39.1829      1.2626 307.9271207  +6.6685190      3134.92     3624.433     3785.154     66.92529     122.9792     233.6272      0.923     1.86     828.6801       55.042     993.8629         9     0.982     0.436   3.79  24
        13    598.0242    998.5872 307.6614272  +6.2754461     496.5402     663.2578     240.1467     78.02775     155.9934     312.2042      1.373     4.06     859.5832       55.042     89.94397         5     1.054     0.447  64.99   0
        14    899.3768   1023.8165 307.5354684  +6.2751004     443.1823     616.1808      264.213      65.7562     121.7113     232.5041      1.367     3.65     856.4734       55.042     105.5792         5     1.008     0.380   4.56  24
        15    760.0815   1023.1525 307.5933221  +6.2707223     772.8139     1195.651     1706.525       73.945     131.6597     243.3828      1.951     6.20     857.0242       55.042      115.196        12     1.303     0.830  11.95  24
        16    726.0125   1020.9163 307.6075414  +6.2705069     6750.219     11078.88     11573.32      77.9034     154.4946     274.7076      1.722     3.95     857.2121       55.042     834.1821        38     1.653     1.073  45.85  24
        17    592.5795   1023.1973 307.6628616  +6.2651010     47459.61     61346.83     64209.93     73.28653     130.7731     242.3049      1.341     4.20     860.1141       55.042     8998.575        53     1.553     0.889  13.79  24
        18    440.6904   1020.9369 307.7259956  +6.2609459     3651.998     5756.095     6178.593     78.27585     154.6827     274.7782      1.712     4.21     860.4515       55.042     477.0912        28     1.641     0.947  46.23  24
        19    222.5734   1023.1721 307.8164711  +6.2527025     1758.381     2205.937     2275.585     73.55062      131.291     242.8245      1.373     3.29     858.8245       55.042     319.2849        12     1.043     0.736  17.46  24
        20    524.8863    997.6422 307.6918235  +6.2733871     1215.156     1720.232     2077.943     78.27585     156.0555     312.2663      1.608     5.12     859.9688       55.042     161.8921        13     1.275     0.722  63.81   0
        21    758.8941    995.5768 307.5947391  +6.2820702     7536.779      12044.1     12483.27     78.27585     155.9934      312.142      1.703     3.75     856.9196       55.042     965.8959        40     1.611     1.099  49.33   0
        22    554.2983    995.9695 307.6796688  +6.2750630     4098.817     6910.433     7450.706     78.27585     155.9312     312.2973      1.823     4.42     859.5168       55.042     490.2789        32     1.628     1.053  53.24   3
        23    551.4550    988.3282 307.6811058  +6.2781233     8329.465     12924.85     13933.56      78.1519     156.0555     312.2352      1.697     3.83     859.3398       55.042     1098.012        34     1.540     1.004  48.96   3
        24    304.6124    994.7009 307.7833716  +6.2672147     14752.18     23529.96     26101.87     78.02775     155.9312     312.0489      1.798     3.89     858.2913       55.042      2012.19        62     1.804     1.567 -31.06   0
        25    819.7911    994.8685 307.5694797  +6.2843975     1093.002     1831.076     1701.869     77.77885     155.9312     312.1731      1.759     5.14     856.8091       55.042     159.7883        16     1.318     0.904  61.53   0
        26    428.8243    995.1122 307.7317901  +6.2712123     1170.247     1758.157     1932.328     78.27585     155.9934      312.142      1.646     4.02     859.2419       55.042     143.6127        14     1.179     0.794  48.42   0
        27      2.0622    996.4036 307.9089165  +6.2563397     588.0846     613.7045     750.7435     75.37339     134.3566     246.1947      1.324     5.28     851.1813       55.042     99.03418         5     1.215     0.647  25.44  24
        28    275.9257    992.8135 307.7953446  +6.2670309     866.8164     1445.763       1770.3     77.77885     155.9312     312.0799      1.913     4.27     858.0076       55.042     137.1497         8     1.133     0.572  47.73   0
        29    920.1208    989.0021 307.5280208  +6.2901697     7677.028     13404.33     14566.85     77.65411     155.6823     312.0489      1.846     3.99     855.2742       55.042     914.0416        43     1.744     1.161  50.63   0
        30   1015.4867    984.5739 307.4885740  +6.2951793     4096.318     7068.167     7305.511      78.3996     155.9934     312.1731      1.880     4.49     853.7728       55.042     474.2325        36     1.700     1.165  50.17  16
        31    893.7444    985.1620 307.5391004  +6.2908752     11281.94     19391.73     21187.03     78.27585     156.2418     312.2973      1.870     4.03     855.7209       55.042     1465.166        56     1.790     1.284  45.98   0
        32     50.1860    987.5430 307.8892376  +6.2616185     556.6787     735.1735     500.5676     77.65411     156.0555     311.9556      1.263     4.09     852.6093       55.042     80.16809         6     1.044     0.458  58.02   0
        33      3.4581    987.3527 307.9086426  +6.2601241     602.1855     846.2522     942.5565     78.27585     150.1023     266.9395      1.894     4.45     851.2959       55.042     90.31995         8     1.133     0.497  88.03  16
        34    606.5510    985.3922 307.6583300  +6.2811804     1348.349     2108.627     1917.719     77.77885     155.9934     311.9246      1.539     3.91     859.2734       55.042     223.3036        14     1.358     0.680  43.45   0
        35    538.0630    984.2111 307.6868040  +6.2793749      3991.64     6324.137     6953.495     77.77885     155.9934      312.142      1.759     4.17     859.3505       55.042     573.4946        33     1.720     1.053  32.39   0
        36    647.5676    983.5023 307.6413643  +6.2833336     1466.885     2096.356     1792.884     78.27585     156.0555     312.3904      1.648     3.96     858.5928       55.042     209.4064        14     1.135     0.854  59.42   0
        37     72.4401    982.7154 307.8801618  +6.2643609     844.1362     1202.046     840.4866     78.27585     156.1176     312.2352      1.550     4.78     853.1172       55.042     130.9667         8     1.199     0.540  66.43   0
        38    491.1133    980.5993 307.7064176  +6.2792935     1972.197     3121.429     2825.944     77.52916     155.6823     311.9556      1.581     4.16     859.8773       55.042      255.551        19     1.481     0.822  51.88   0
        39    399.9932    979.3294 307.7442905  +6.2767630       523.28     849.8312     832.2925     77.77885     155.7446     312.1731      1.459     4.17     858.5031       55.042     90.30634         6     1.111     0.447  72.69   0
        40    925.4822    972.7010 307.5263402  +6.2970803     39877.88     67707.64     73358.48     78.27585     156.6136     312.3594      1.856     4.00     854.9399       55.042     4803.306        79     1.852     1.298  48.83   0
        41    331.2132    973.8921 307.7730285  +6.2767006     560.7831     654.9264     533.1259     78.02775     155.9312     312.0489      1.297     3.37     858.0744       55.042     90.93793         5     0.999     0.330  46.01   0
        42    232.8877    971.1343 307.8139422  +6.2745377     1610.241     2711.986     2537.704     78.27585     156.3658     312.2973      1.743     4.08     857.1192       55.042     228.2799        17     1.320     0.912  51.58   0
        43    631.6523    968.9212 307.6484612  +6.2888224     989.0851     1405.512     1170.209     78.27585     156.1797     312.2663      1.558     4.34     858.6035       55.042     145.8033        13     1.121     0.821  50.15   0
        44    121.2016    970.2087 307.8603405  +6.2711657     525.7965     723.5578     814.3528     77.65411      155.869     312.0489      1.543     3.78     853.6816       55.042     86.90637         5     0.900     0.455  45.20   0
        45    771.6066    964.4628 307.5905038  +6.2953439      6316.17      10187.9        11352     77.65411     155.9934     312.0489      1.791     3.89     856.7385       55.042     877.2742        39     1.722     1.185  65.59   0
        46    823.6331    966.4330 307.5688369  +6.2962685     2209.531      3561.44     3276.484     77.77885     155.9312     312.0178      1.723     3.75      856.287       55.042     306.4084        23     1.412     1.015  38.26   0
        47    241.1079    963.5727 307.8107843  +6.2779363     1471.719     2225.971     2424.861      78.3996     155.9312      312.142      1.547     4.48     856.9688       55.042     200.7747        14     1.308     0.724  50.56   0
        48    558.8242    963.4902 307.6788804  +6.2886271     755.1701     1276.365     1614.537      78.3996     155.9934      312.111      1.947     4.25     858.7868       55.042     128.9271        10     1.177     0.624  47.31   0
        49    205.5524    962.6307 307.8255773  +6.2771307     762.3135     1250.623     1546.539      77.9034     156.1797     312.1731      1.783     5.20     856.0049       55.042     126.4409        10     1.388     0.627   1.98   0
        50     66.0002    961.4785 307.8835520  +6.2729137     2509.143     4245.789     4591.099     77.52916     155.5577     311.9867      1.780     4.33     852.5331       55.042     338.8781        23     1.492     0.975  43.33   0
        51    959.9135    959.5019 307.5124860  +6.3036798     6207.886     10688.03     11077.78     78.27585     156.6136     312.3283      1.848     4.17     854.1125       55.042     746.1992        37     1.641     1.154  50.73   0
        52    215.5652    955.6418 307.8216558  +6.2803532     605.5445     893.0174     753.9524     78.02775     156.1797     312.0799      1.775     4.69       856.17       55.042     77.11328         6     1.052     0.593  28.08   0
        53    933.6411    951.3055 307.5236685  +6.3061881     2045.985     3265.153     3075.466      78.3996     156.1176     312.3904      1.710     3.90       854.48       55.042     284.1874        21     1.386     0.952  58.64   0
        54    642.2590    953.5264 307.6445741  +6.2955347      771.902     1170.857     1068.266      78.3996     156.1797     312.2663      1.612     5.04     858.2382       55.042     120.8266        10     1.264     0.569  51.65   0
        55    793.2971    947.7722 307.5820573  +6.3029612      1132.73     1880.769     2219.967      78.3996     155.9312     312.2352      1.821     5.41     856.5059       55.042      155.301        16     1.431     0.827  48.51   0
        56    654.3701    947.1353 307.6397601  +6.2985792     4513.401     6861.322     7153.165     78.02775     156.3038     312.2042      1.635     3.88     858.0224       55.042      609.738        27     1.485     0.953  41.76   0
        57    266.5512    947.2828 307.8007698  +6.2855178     4726.274     7146.329     7149.833     78.27585     156.1797     312.2973      1.667     3.90     856.8482       55.042     638.7206        33     1.542     1.101  45.23   0
        58    476.6843    945.6071 307.7135841  +6.2932600     1223.705     1792.929     1602.787      77.9034      155.869      312.111      1.580     5.29     858.2049       55.042     170.5284        15     1.352     0.810  57.10   0
        59     35.2115    944.7774 307.8968976  +6.2787740     1981.376     3357.502     2849.128      77.9034     155.9934     312.1731      1.761     3.86     851.9561       55.042      277.498        21     1.297     1.005  53.90   0
        60    886.6724    943.6013 307.5434277  +6.3078021     839.0458     1297.595     986.1754     77.77885     155.7446      312.111      1.700     4.97      854.824       55.042     117.8677         9     1.077     0.730  38.43   0
        61    578.9937    939.5397 307.6713105  +6.2991929     1726.299     2816.298     3084.897     77.65411     156.0555     312.0489      1.800     4.25      858.278       55.042     225.8414        21     1.416     0.924  56.00   0
        62   1010.5073    939.2821 307.4921555  +6.3137171     739.8605     1589.458     1864.244     78.02775     156.4898     312.3594      2.256     6.36     852.5627       55.042     112.9001        11     1.159     0.980 -77.88   0
        63    957.3639    940.5212 307.5141795  +6.3114331     628.1623     1121.422     767.0945      78.1519     156.2418     312.2663      1.555     4.14     853.8246       55.042     105.6389         7     1.238     0.396  15.05   0
        64     67.6707    936.7924 307.8836915  +6.2831638     716.1208     1146.231     1735.773     77.77885     155.8068     312.1731      2.324     5.78     852.0751       55.042     107.6028        11     1.268     0.743  67.81   0
        65    618.0145    935.5031 307.6552450  +6.3021662     1140.648     1749.509     1586.335     78.15189     155.9312     312.0489      1.564     5.66     858.1282       55.042     177.1926        16     1.599     0.769  55.22   0
        66    298.1094    933.7548 307.7881232  +6.2921639     1560.175     2275.029     2279.745     78.27585     156.1176     312.3904      1.495     3.45     856.9824       55.042      245.713        14     1.236     0.699  47.89   0
        67    302.5896    940.8019 307.7860259  +6.2894043     871.0862     1291.734     1045.984      77.9034      155.869     312.0799      1.538     4.09      857.134       55.042     142.8712        10     1.056     0.740  53.66   0
        68    765.2211    930.1920 307.5943035  +6.3092829      813.035     1150.585     1106.595     77.77885     155.9934     312.0489      1.446     3.64     856.6162       55.042     127.5042         9     0.939     0.757  52.00   0
        69    902.5482    926.4232 307.5374109  +6.3154260     6800.801     11125.76     11458.71     77.77885     156.1797      312.142      1.752     3.91      854.358       55.042     822.2589        40     1.631     1.164  54.04   0
        70    438.5078    923.6498 307.7301725  +6.3010475     2102.729     3181.077     3624.515      78.1519     156.0555     312.4214      1.725     3.55     857.2744       55.042     297.6212        21     1.375     0.882  69.53   0
        71    340.0946    921.8750 307.7710918  +6.2984790     9699.865      14680.6      15410.1     78.02775     156.3658     312.2663      1.589     3.73     856.7687       55.042     1364.145        35     1.506     0.992  52.25   0
        72    260.1055    920.8320 307.8043367  +6.2962241     7116.051     11004.19     11542.13      78.3996     155.9934     312.3594      1.641     3.82     856.1818       55.042      932.748        35     1.594     1.006  48.29   0
        73    588.2193    915.2439 307.6682958  +6.3095349     1242.152     1830.368     1717.819     77.77885     156.0555     312.0489      1.485     3.87      857.598       55.042     214.5397        15     1.387     0.702  54.52   0
        74    772.6803    915.0206 307.5917148  +6.3157974     658.6533     877.0391     745.2876     78.02775      155.869     312.2352      1.584     4.11     856.2241       55.042     153.3351         5     1.104     0.506  40.40   0
        75    918.2592    911.6572 307.5313817  +6.3220481      985.778     1645.155     1662.812      78.3996     156.1176     312.2973      1.847     5.89      854.128       55.042     126.7522        13     1.320     0.796  45.86   0
        76    151.0635    911.3549 307.8499276  +6.2964731     575.2165     824.8583     860.9732     78.27585     156.1176     312.2973      1.421     4.21     853.2021       55.042     104.8924         7     1.111     0.455  50.07   0
        77    417.3984    910.4163 307.7393818  +6.3058044     556.0271     726.9724     623.8969      77.9034     155.7446     312.0489      1.393     3.72      857.054       55.042     97.88007         6     0.962     0.414  72.51   0
