#   1 NUMBER                 Running object number                                     
#   2 X_IMAGE                Object position along x                                    [pixel]
#   3 Y_IMAGE                Object position along y                                    [pixel]
#   4 ALPHA_J2000            Right ascension of barycenter (J2000)                      [deg]
#   5 DELTA_J2000            Declination of barycenter (J2000)                          [deg]
#   6 FLUX_APER              Flux vector within fixed circular aperture(s)              [count]
#   9 FLUXERR_APER           RMS error vector for aperture flux(es)                     [count]
#  12 FLUX_RADIUS            Fraction-of-light radii                                    [pixel]
#  13 FWHM_IMAGE             FWHM assuming a gaussian core                              [pixel]
#  14 BACKGROUND             Background at centroid position                            [count]
#  15 THRESHOLD              Detection threshold above background                       [count]
#  16 FLUX_MAX               Peak flux above background                                 [count]
#  17 ISOAREA_IMAGE          Isophotal area above Analysis threshold                    [pixel**2]
#  18 A_IMAGE                Profile RMS along major axis                               [pixel]
#  19 B_IMAGE                Profile RMS along minor axis                               [pixel]
#  20 THETA_IMAGE            Position angle (CCW/x)                                     [deg]
#  21 FLAGS                  Extraction flags                                          
         1    628.2842     25.9349 307.6805426  +6.6765873     3007.078     4938.323     5794.053     78.75868     157.1443     313.7589      1.733     4.74     835.7783     55.29411     409.7387        24     1.717     1.017 -62.54   2
         2    946.0501     17.8836 307.5487989  +6.6904882     1009.254     1388.083     1601.679     78.63436      156.895       313.79      1.543     5.55     833.4557     55.29411     167.1026        13     1.568     0.680 -46.17   0
         3    697.2496     17.4482 307.6521770  +6.6823892     1838.922     2731.254     3074.437     78.63436     156.7702     313.6965      1.700     4.97     835.5391     55.29411     257.4242        19     1.507     0.792 -44.28   0
         4    262.8506     12.2631 307.8328146  +6.6700232     799.1803     1390.481     1615.987     78.63436     156.8326     313.7589      1.838     5.79     840.1721     55.29411      109.285        12     1.306     0.723 -32.07   0
         5    208.7601     12.7622 307.8552679  +6.6680063     684.1687     1067.006     1126.886     78.38512      156.895     313.5717      1.597     5.44     837.6976     55.29411     95.94672         8     1.064     0.783 -42.37   0
         6    185.6416     10.2961 307.8649549  +6.6682500     10399.12     16545.55     17995.51     78.63436     156.8326     313.8524      1.744     4.43     837.5052     55.29411     1328.753        41     1.651     1.011 -41.40  16
         7    529.7660      8.4744 307.7220581  +6.6805083     2925.721     4705.864      5036.55     78.50984      156.895     313.6653      1.694     4.67      835.111     55.29411      414.685        22     1.582     0.850 -47.39  16
         8    931.3240      7.8920 307.5552519  +6.6941233     3806.446     6026.217     6461.765     78.50984      157.082     311.7254      1.676     4.50     834.3571     55.29411     547.0145        25     1.594     0.839 -42.55  16
         9    468.0122      6.8321 307.7477681  +6.6791244     1661.402     2922.863     2555.895     78.13509     156.6454     304.8386      1.762     5.01     835.4931     55.29411      231.212        18     1.531     0.856 -49.65  16
        10    996.1542      4.3489 307.5284366  +6.6977399     1924.515     3379.383     3693.456     78.75868     156.3953     279.5236      1.864     5.11     828.2843     55.29411     233.3463        23     1.639     0.885 -50.83  16
        11    732.1066      6.4194 307.6380665  +6.6881029     1969.845     3002.185     2974.579     78.50984     156.6454     301.5146      1.554     4.50     835.1663     55.29411     283.7261        15     1.379     0.690 -44.70  16
        12     87.6783      6.3790 307.9057824  +6.6665838     546.1921     832.7412     963.1493     78.26021     156.6454       301.06      1.724     4.51     836.6307     55.29411     94.30511         6     1.029     0.563 -33.82  16
        13    790.4680      3.9264 307.6139040  +6.6910753     463.5223     706.5154     891.9984     78.75868     154.4439      274.116      1.818     4.44     834.2656     55.29411     95.86176         6     1.243     0.460 -33.70  16
        14    714.8976      1.6305 307.6453769  +6.6895066     5210.178     6475.153     6809.046     72.28105     128.9669     241.1533      1.220     3.19     835.1284     55.29411     1004.676        18     1.253     0.708 -11.34  24
        15    634.9860      1.4093 307.6785833  +6.6869347     1724.891     2101.405     2113.977     69.23917     125.5846     237.1853      1.048     2.63     835.3477     55.29411     440.0728        11     1.084     0.696  -7.38  24
        16    522.8945    993.6859 307.6917672  +6.2735878     1026.856     1693.606     2205.309     78.63436     157.2687     313.7589      1.844     5.25     867.5579     55.29411     130.9191        16     1.429     0.823 -47.31   0
        17    800.9701   1023.3340 307.5753403  +6.2706111     3644.414     5030.518     5111.258     72.41628     129.7987     241.3966      1.410     4.35     864.8135     55.29411     581.5016        19     1.429     0.754  -7.24  24
        18    591.1569   1020.6833 307.6625239  +6.2647194     63709.13     114560.1     122812.4     78.63436     156.3953     279.1032      1.923     4.60     868.9847     55.29411     7437.572        99     1.908     1.389 -39.31  24
        19    552.5173    992.3148 307.6795166  +6.2751417     3825.522     6580.252     7154.803     78.38512     157.1443     313.7589      1.863     4.89     868.2605     55.29411     420.5679        33     1.736     1.045 -42.84   0
        20    302.7044    990.9669 307.7832600  +6.2673582     13573.86     23308.04     25886.49     78.75868     156.7702       313.79      1.907     4.72     866.7257     55.29411     1581.676        58     2.067     1.105 -39.01   0
        21    818.2420    991.1964 307.5692477  +6.2844521     933.4665     1585.401     1323.654     78.00977     156.5829     313.4156      1.996     5.15     864.7964     55.29411     138.8764         9     0.926     0.809 -81.75   0
        22    427.4890    990.9783 307.7314616  +6.2715219     919.3859     1714.047     1787.463     78.63436     156.7078     313.6029      1.962     5.48     866.1171     55.29411     128.6984        11     1.368     0.620 -53.00   0
        23    274.1277    988.8340 307.7951939  +6.2672833     759.0045     1234.439     1385.787     78.50984     156.8326     313.6653      1.633     5.13     866.4747     55.29411     104.0814         9     1.391     0.535 -53.84   0
        24    918.3197    985.2813 307.5279012  +6.2902205     7101.478     13605.87     14886.28     78.75869     157.1443     313.8212      2.053     4.71     864.0046     55.29411     740.8728        47     1.764     1.315 -41.93   0
        25    549.7095    984.5884 307.6809418  +6.2782375      7476.58      12922.2     14052.62     78.38512     156.5829     313.5093      1.867     4.57     868.0841     55.29411     906.0019        42     1.711     1.128 -38.80   0
        26    891.9746    981.4269 307.5389668  +6.2909362     10000.18     19304.87     21297.81     78.13509     156.7078     313.5405      2.034     4.75     864.2387     55.29411     1079.405        55     1.833     1.355 -35.24   0
        27   1013.7358    980.7189 307.4884439  +6.2952725     3812.674     7453.313     8257.383     78.88281     156.9574     313.6965      2.085     5.02     861.1792     55.29411     412.0175        41     1.823     1.273 -37.09  16
        28    604.8235    981.9198 307.6581529  +6.2811764     1143.054     2079.753     1594.938     78.26021     156.5829     313.6653      1.885     6.55     868.0119     55.29411     134.1055        19     1.628     0.836 -40.92   0
        29    535.9637    980.4009 307.6867886  +6.2795077     3618.702     6356.481     7126.356     77.75854     156.7078     313.5093      1.906     4.59     867.6994     55.29411     448.6979        32     1.646     1.099 -38.85   0
        30    645.5745    979.7797 307.6413084  +6.2834176     1235.083     2265.905     2283.357     78.26021     156.7078     313.6029      1.864     7.17     867.3711     55.29411     162.6868        18     1.735     0.829 -40.27   0
        31     71.1865    979.1138 307.8797607  +6.2645036     824.9017      1297.21     923.4603     78.26021     156.7078     313.6029      1.537     4.71     860.8781     55.29411     116.6113         9     1.047     0.755 -47.60   0
        32    489.2713    976.8146 307.7062917  +6.2794306     2006.596     3246.676      3319.01     78.13509     156.7702     313.6029      1.784     4.58     866.3405     55.29411     247.0088        19     1.427     0.854 -34.31   0
        33    923.7083    968.9732 307.5262103  +6.2971317     35398.42     67107.88     72633.45     78.75868     156.6454     313.5405      2.024     4.54     863.4203     55.29411     3898.643        85     1.878     1.424 -42.69   0
        34    231.0177    967.1736 307.8138189  +6.2747827     1544.003      2764.43     2726.267     78.26021     156.7078     313.6029      1.831     5.54     865.1326     55.29411     189.0085        21     1.643     0.832 -47.59   0
        35    629.9688    965.4602 307.6482674  +6.2888088     631.0359     1090.287     886.9857     78.38512     156.9574     313.6653      1.786     4.43     867.2571     55.29411     94.96973         6     1.149     0.486 -69.17   0
        36    118.7507    966.0123 307.8604596  +6.2715048     695.1824       1333.2     1277.604     78.00977     156.8326     313.3844      2.123     4.78     861.7119     55.29411     85.63269         8     1.022     0.634 -23.31   0
        37    821.5865    962.6468 307.5688162  +6.2963487     1955.691     3625.153     3935.297     78.00977     156.7078     313.4781      1.933     5.06      864.639     55.29411     210.3981        29     1.703     1.145 -31.10   0
        38    769.7898    960.5654 307.5903884  +6.2954850      5944.01      10502.8     11361.72     78.13509     156.6454     313.5093      1.899     4.36     865.4903     55.29411     664.4009        40     1.723     1.135 -39.79   0
        39    556.7499    960.1979 307.6788389  +6.2885406     702.2771     1133.429     1318.333     78.00977     156.5204     313.2907      1.950     5.09     867.4556     55.29411     100.2423         8     1.117     0.655 -38.09   0
        40    239.2385    959.7455 307.8106569  +6.2781240     1273.741     2172.338     1935.362     78.63436     156.9574     313.6965      1.798     6.41     865.0514     55.29411      212.647        14     1.340     0.862 -36.55   0
        41    203.6097    959.3421 307.8254600  +6.2770986     750.2161     1327.756     1416.652     78.00977     156.8326     313.4156      1.862     6.09     864.0117     55.29411     101.2745        12     1.439     0.725 -39.02   0
        42     64.2105    957.6068 307.8833826  +6.2731476     2380.422     4207.949     3990.632     78.13509     156.7078     313.6029      1.816     4.62     860.5234     55.29411     329.1764        25     1.626     0.929 -40.18   0
        43    958.0403    955.7416 307.5124008  +6.3037341      5563.72     10789.12     12205.92     78.63436      156.895     313.7589      2.090     4.65     862.2184     55.29411     615.8635        43     1.705     1.329 -46.46   0
        44    640.6411    949.7315 307.6443653  +6.2956572     607.3968     924.4637     619.1721     78.50984     156.8326       313.79      1.516     4.86      866.715     55.29411     98.29559         7     1.316     0.508 -43.23   0
        45    931.8517    947.3266 307.5235544  +6.3063381     1668.552     3074.123     3317.062     78.63436     156.9574     313.7277      1.928     4.79     862.5441     55.29411     213.5804        25     1.556     1.042 -35.24   0
        46    652.4340    943.3723 307.6396833  +6.2986752     4199.359     7194.977     7093.602     78.13509     156.6454     313.4781      1.847     4.52     866.3716     55.29411     502.8149        33     1.628     1.127 -47.52   0
        47    791.5712    943.5638 307.5819163  +6.3032280      1042.55     1573.242     1752.471     78.26021     156.6454     313.5093      1.605     5.72     864.9524     55.29411     136.1186        13     1.515     0.727 -46.36   0
        48    264.6802    943.4684 307.8006446  +6.2856938     4008.521     6638.042     6846.173     78.75869     157.1443     313.6653      1.798     4.71     865.1061     55.29411     504.4622        28     1.571     0.935 -41.80   0
        49    474.8109    941.8220 307.7134714  +6.2933929     1030.188     1802.605     1915.016     78.26021     156.6454     313.5717      2.034     5.97     866.1113     55.29411     133.0239        13     1.407     0.713 -46.45   0
        50     33.4532    940.9223 307.8967133  +6.2790040      1942.96      3254.39     3291.092     78.75868      156.895     313.6965      1.746     4.40     859.8578     55.29411      251.104        22     1.485     0.933 -36.99   0
        51    883.7894    939.6310 307.5437648  +6.3079178     785.2998     1289.061     1919.901     78.13509     156.6454     313.5717      1.938     5.13     863.4727     55.29411     98.48242         9     1.100     0.675 -44.02   0
        52    300.6430    937.0605 307.7859319  +6.2895413     822.0386     1435.856     1413.954     78.63436      156.895     313.8212      1.968     5.71     865.5766     55.29411     104.6744        11     1.478     0.622 -43.22   0
        53    212.9482    952.3068 307.8218209  +6.2803151     616.4073     995.5226     1011.473     78.50984     156.7702     313.9147      1.595     4.39     864.0769     55.29411     96.07733         6     1.242     0.441   6.65   0
        54    577.1604    935.7300 307.6711883  +6.2993214     1574.019     2605.276     1999.684     78.50984      156.895     313.7589      1.691     5.06     866.8583     55.29411     196.9918        16     1.436     0.773 -41.23   0
        55   1008.3256    935.1623 307.4922139  +6.3138991      795.012     1431.602     1981.501     78.50984     156.9574     313.7589      2.049     6.17     860.7582     55.29411     104.0408        12     1.259     0.849 -32.53   0
        56    616.5374    931.9002 307.6549703  +6.3022148     1204.835     2000.216     1588.628     78.38512      156.895     313.7277      1.779     6.23      866.645     55.29411      164.213        15     1.550     0.703 -37.59   0
        57     65.5943    932.8231 307.8836452  +6.2834243      705.077     1252.242     1299.343     78.13509     156.6454     313.5717      2.028     5.80     860.2757     55.29411     133.7356        10     1.380     0.687 -30.74   0
        58    296.2759    930.1339 307.7879782  +6.2922546      1422.01     2290.465     2585.749     78.75868     156.9574     313.6653      1.736     5.08     865.4084     55.29411     181.9286        16     1.395     0.784 -46.02   0
        59    763.6180    925.7953 307.5941166  +6.3096328     690.8116     1398.909     946.5068     78.26021     156.5204     313.5405      2.080     6.51     865.2237     55.29411     108.1762        11     1.484     0.801 -28.46   0
        60    900.8225    922.4913 307.5372677  +6.3155592     5812.924     10762.55     11601.83     78.63436     156.7078     313.5405      1.961     4.75     862.7155     55.29411     668.5375        40     1.728     1.200 -44.69   0
        61    138.6015    924.1671 307.8536318  +6.2894425     578.5157     889.8753     645.2296     77.88425     156.7078     313.4469      1.642     4.22     861.1677     55.29411     101.5727         5     1.210     0.420 -32.46   0
        62    436.5364    919.7878 307.7301013  +6.3012110     1903.863     3225.783     3624.041     78.13509     156.7078     313.5093      1.786     4.95     865.8171     55.29411     233.8319        21     1.519     0.871 -37.64   0
        63    338.2236    918.1123 307.7709699  +6.2986190     8749.491     14516.44     15195.29     78.63436     156.7078     313.5717      1.770     4.39     865.3126     55.29411      1064.74        42     1.696     1.069 -42.19   0
        64    258.3285    917.0960 307.8041702  +6.2963677     6485.043     10624.86     11059.62     78.50984     157.0197     313.6965      1.732     4.57     864.2569     55.29411     753.5541        35     1.600     1.051 -35.23   0
        65    586.2186    911.4016 307.6682453  +6.3096662      1243.09      1792.58     1201.161     78.26021     156.4579     313.4156      1.543     4.56     866.3082     55.29411     171.6061        12     1.193     0.673 -47.52   0
        66    771.1387    910.8521 307.5914956  +6.3160517     480.7531     735.8943     664.6193     78.63436     156.8326     313.6965      1.723     3.78     864.8228     55.29411     78.33112         5     1.314     0.312 -32.74   0
        67    916.7177    907.3754 307.5311751  +6.3223274     922.4046     1672.506      2113.54     78.38512     156.6454     313.6341      2.119     6.66     862.1487     55.29411     136.1202        14     1.411     0.882 -42.40   0
        68    148.3654    907.6102 307.8501375  +6.2966039     477.4447     849.3013     897.7982     78.13509     156.6454     313.5093      1.840     3.95     861.1111     55.29411     105.4072         5     1.188     0.376 -53.45   0
        69    873.2103    906.4288 307.5492690  +6.3212722     769.1263     1236.292     1078.176     78.13509     156.7078     313.5405      1.660     4.93     863.3488     55.29411     123.9686         7     1.069     0.643 -62.32   0
        70    845.0577    901.6944 307.5611152  +6.3222907     517.3809     986.5414     804.6879     78.50984      156.895     313.8835      1.871     5.55     863.7912     55.29411     84.18451         7     1.046     0.831 -23.62   0
        71    752.9386    900.8120 307.5993881  +6.3195906     1412.584     2723.746     3545.973     78.13509     156.7078     313.4156      2.257     4.84     864.7843     55.29411     205.9523        17     1.419     0.839 -48.21   0
        72    576.2800    901.3945 307.6727075  +6.3134658     596.4606     895.2031     796.7769     78.26021     156.4579     313.4781      1.672     4.07     866.0275     55.29411      94.9743         5     1.152     0.411 -14.21   0
        73      3.2354    897.9359 307.9107092  +6.2957351     828.8556     1446.219     883.2241     78.50984     148.7648     265.0797      1.754     7.04     858.8109     55.29411     99.32098        16     1.779     0.781 -50.16  24
        74    628.8576    896.9880 307.6510283  +6.3170371       542.53     773.2315     168.8842     78.00977     156.8326     313.4156      1.192     3.57     865.8873     55.29411     98.39514         5     1.725     0.213 -49.75   0
        75    983.8607    896.6240 307.5036602  +6.3289958     1098.946     1822.622     2430.156     78.26021     156.8326     313.6029      1.862     3.73     860.5173     55.29411     144.1502        10     1.020     0.749 -28.23   0
        76    617.4353    897.1199 307.6557658  +6.3166021     794.5477     788.3844     799.7883     78.50984     156.9574     313.7277      1.341     4.67     866.0743     55.29411     115.1139         7     1.010     0.612 -21.94   0
        77    537.9041    896.4746 307.6888042  +6.3142170     1074.543      1568.61     1165.073     78.38512      157.082     313.6965      1.591     5.54     865.6174     55.29411     154.1439        10     1.262     0.686 -32.41   0
