#   1 NUMBER                 Running object number                                     
#   2 X_IMAGE                Object position along x                                    [pixel]
#   3 Y_IMAGE                Object position along y                                    [pixel]
#   4 ALPHA_J2000            Right ascension of barycenter (J2000)                      [deg]
#   5 DELTA_J2000            Declination of barycenter (J2000)                          [deg]
#   6 FLUX_APER              Flux vector within fixed circular aperture(s)              [count]
#   9 FLUXERR_APER           RMS error vector for aperture flux(es)                     [count]
#  12 FLUX_RADIUS            Fraction-of-light radii                                    [pixel]
#  13 FWHM_IMAGE             FWHM assuming a gaussian core                              [pixel]
#  14 BACKGROUND             Background at centroid position                            [count]
#  15 THRESHOLD              Detection threshold above background                       [count]
#  16 FLUX_MAX               Peak flux above background                                 [count]
#  17 ISOAREA_IMAGE          Isophotal area above Analysis threshold                    [pixel**2]
#  18 A_IMAGE                Profile RMS along major axis                               [pixel]
#  19 B_IMAGE                Profile RMS along minor axis                               [pixel]
#  20 THETA_IMAGE            Position angle (CCW/x)                                     [deg]
#  21 FLAGS                  Extraction flags                                          
         1    616.5035     27.0920 307.6804805  +6.6761663     3098.302     5827.909     6738.638     78.34395     156.8118     312.5069      2.160     5.33     830.6383     55.08989     541.4782        39     2.312     1.002  63.01   0
         2    685.2764     17.6679 307.6522209  +6.6823504     1861.428     2708.001      3156.83     78.46782     156.4398     312.5069      1.535     3.58     830.7355     55.08989     349.6046        17     1.394     0.779  45.17   0
         3    196.4701     13.4571 307.8554560  +6.6677534     779.5864     1105.283     998.5394     78.46782     156.3156     312.5069      1.536     5.91      843.581     55.08989     104.0333        11     1.371     0.718  37.68   0
         4    250.6679     12.6622 307.8329649  +6.6698969     924.6283     1355.197     1979.745     78.34396     156.2534     312.5379      1.823     5.35     843.9307     55.08989      121.209        11     1.152     0.702  32.90   0
         5    173.5008     10.6322 307.8650942  +6.6681500     11448.15        16584      17081.8     78.34396     156.1913     312.6622      1.571     3.54     843.3134     55.08989     1835.851        37     1.489     0.971  40.76   0
         6    919.1367      8.1976 307.5553662  +6.6940463     4047.193     5988.186     6382.475     77.72167     156.1291     311.6978      1.545     3.43     829.7339     55.08989     574.7295        26     1.463     0.910  43.01  16
         7    517.7327      8.6928 307.7221360  +6.6804660      3154.79     4452.146     5024.916     78.21989     156.5018      312.569      1.527     3.90     831.5405     55.08989     499.1836        21     1.340     0.821  41.00  16
         8    719.7705      6.9676 307.6382466  +6.6879177     2125.279     3183.781     3521.685     77.84653     156.0669      304.543      1.603     4.07     830.0382     55.08989     350.9884        17     1.275     0.888  29.76  16
         9    455.9026      6.9644 307.7478841  +6.6791142     1967.637     2804.125     2220.269     78.34395     156.1913     304.8299      1.505     4.06     834.9169     55.08989     339.7684        16     1.331     0.714  35.00  16
        10    983.7701      4.2269 307.5286424  +6.6978341     1991.436     3161.846     3089.528     77.84653     155.3808     276.8474      1.656     3.95     828.0083     55.08989     262.3291        17     1.316     0.847  64.86  24
        11    703.6316      1.6687 307.6451298  +6.6895676     6218.973     7543.896     7730.966     72.28332     129.3194     240.5858      1.166     2.85     830.0577     55.08989     1404.312        19     1.157     0.771  21.21  24
        12    624.1552      1.4055 307.6781616  +6.6870264     2047.353     2468.146      2471.72     68.70132     125.1984      236.186      1.017     2.19     829.8385     55.08989     576.9595        10     0.894     0.613  12.11  24
        13    434.3665   1005.4849 307.7233484  +6.2661452     902.2902     1577.061     1691.657     78.34396     156.1913     312.5069      1.856     4.52     864.5611     55.08989     138.3795        12     1.388     0.703  26.90   0
        14    787.8815   1023.5824 307.5759752  +6.2704574     3373.359     4573.313     5117.832     68.98346     125.4309     236.6789      1.358     4.24     859.4667     55.08989     694.8256        17     1.515     0.579   6.78  24
        15    579.2312   1020.8796 307.6626905  +6.2646231     68131.27     113822.3     120908.3     78.21989     154.8173     275.5817      1.800     3.91     864.1203     55.08989      8231.75        88     1.714     1.378  33.11  26
        16    727.7296   1003.7083 307.6016125  +6.2766606     964.5443     1473.913     1634.285     78.21989     156.4398      312.569      1.639     3.84     861.7389     55.08989      183.947        10     1.134     0.836  44.79   0
        17    358.3038   1002.1963 307.7550367  +6.2649621     1795.164     2759.359      2637.22     78.09563     156.0046     312.2271      1.638     4.21     864.3829     55.08989     230.6858        18     1.302     0.927  41.51   0
        18    745.1403    992.0247 307.5947742  +6.2820641      7260.07     12389.34      13008.1     77.97118     156.3156     312.4136      1.817     4.12     861.1494     55.08989      868.554        42     1.645     1.182  42.71   0
        19    540.5956    992.6842 307.6796743  +6.2749755     3998.374     6735.809     7421.177     77.84653     155.9424     312.2271      1.842     3.69     864.0251     55.08989     526.2775        35     1.583     1.178  43.27   2
        20    537.7291    984.8210 307.6811277  +6.2781264     8054.701     12866.52     14158.61     77.97118     156.1913     312.5069      1.697     3.82     863.9388     55.08989     1032.412        33     1.515     1.068  40.60   2
        21    290.6464    991.4890 307.7834843  +6.2671210     14494.06     23068.88     24962.18     78.34396     156.1913     312.6622      1.767     3.80     862.7932     55.08989     1866.482        49     1.645     1.170  44.64   2
        22    295.0643    988.1274 307.7817630  +6.2686566     1087.658     1562.651     2197.601     78.34395     156.3156      312.569      1.591     4.23     862.8254     55.08989     155.2822        12     1.099     0.776  59.21   3
        23    510.7204    993.9178 307.6920363  +6.2734695     882.8854     1452.325     1353.292     78.46782     156.5639     312.6622      1.698     5.48     864.6458     55.08989     154.5561        12     1.478     0.645  19.22   0
        24    806.2830    990.9890 307.5694234  +6.2845266     957.4852     1659.484     1888.295     77.97118     156.0046     312.3825      2.020     5.35     859.0991     55.08989     114.9447        10     0.965     0.839  52.69   0
        25    415.2383    991.8490 307.7317466  +6.2711362      989.408      1625.77     1786.496     78.34395     156.3777     312.4136      1.638     3.76     863.9327     55.08989     135.4901        10     0.936     0.782 -26.92   0
        26    261.7555    988.7563 307.7955702  +6.2672830     926.5195     1538.725     1389.236     78.34396     156.3156     312.4758      1.693     4.06     862.5948     55.08989     176.6992        11     1.250     0.779  53.37   0
        27    906.4526    985.4381 307.5280195  +6.2901495     7751.511     13888.38      14462.2     78.21989     156.3777     312.5379      1.922     4.26     858.2271     55.08989     909.9966        47     1.760     1.267  42.68   0
        28    880.0338    981.6276 307.5391154  +6.2908445     10636.08      19330.7     21451.95     77.84653     156.0669     312.3203      1.957     4.19     858.3045     55.08989     1294.156        59     1.821     1.347  37.39   0
        29     36.2210    984.9562 307.8893282  +6.2612998     566.2828     857.8969     576.3698     77.84653     156.1913     312.3514      1.427     2.76     859.1948     55.08989     116.8138         5     0.796     0.470 -37.01   0
        30   1001.6825    980.9853 307.4886291  +6.2951516      3937.35      7844.48     8304.837     77.97118     156.0669     312.3825      2.061     4.72     855.2551     55.08989     437.9128        44     1.727     1.378  41.48   0
        31    592.8400    982.0731 307.6583389  +6.2810988      1295.78     2279.942     2114.951     78.21989     156.3777     312.6001      1.799     4.93     863.5173     55.08989     212.7006        16     1.342     0.898  45.19   0
        32    524.4490    980.6745 307.6867800  +6.2793952     4065.368     6761.151      7566.37     78.34396     156.3777      312.569      1.900     4.39     864.0869     55.08989     497.9851        40     1.924     1.114  26.88   0
        33    633.8879    979.9200 307.6413687  +6.2833560     1322.957     2523.976     2525.837     78.09563     156.5639     312.6622      1.928     6.56     863.0706     55.08989     161.8511        22     1.625     0.964  38.42   0
        34    477.3990    977.3208 307.7064262  +6.2792098     2018.396     3307.388     2889.697     77.59662     155.7554     312.3203      1.752     3.86     864.5566     55.08989     328.9146        23     1.585     1.003  57.77   0
        35     59.1628    979.2725 307.8799953  +6.2644153     791.7338     1393.118     1432.306     78.21989     156.3156     312.6001      1.854     5.68     859.4005     55.08989      135.024        12     1.499     0.606  27.16   0
        36    911.7679    969.1587 307.5263555  +6.2970475     37955.84     67828.75     72584.79     77.97118     156.2534     312.4136      1.914     4.11     857.9153     55.08989     4649.692        75     1.779     1.358  43.24   0
        37    219.0020    967.6082 307.8140296  +6.2745838      1740.65     2808.311     2770.263     77.72167     156.0046     312.3203      1.751     4.63     861.5918     55.08989     224.9604        18     1.480     0.835  36.04   0
        38    618.0123    965.4573 307.6484436  +6.2887981     801.3606     1157.899     900.9802     77.72167     156.1913     312.2581      1.515     5.90     863.0936     55.08989     118.2865        11     1.447     0.677  15.26   0
        39    106.8360    966.0353 307.8606489  +6.2714777     680.8038     1147.091     1053.113     78.09563     156.0669     312.2892      1.705     4.65      859.678     55.08989     84.61639         7     0.887     0.691 -32.40   0
        40    809.8231    962.8237 307.5688939  +6.2962731     2147.706     3499.028     3532.052     77.84653     156.1291     312.5069      1.725     4.14     859.2332     55.08989     268.1902        20     1.431     0.877  35.36   0
        41    757.9853    960.7117 307.5904871  +6.2954199     6293.278      10785.6     11320.93     78.09563     156.1291     312.4447      1.796     3.90     860.6113     55.08989     772.2776        40     1.603     1.191  42.17   0
        42    227.4501    959.9397 307.8107798  +6.2780325     1409.323      2314.65     2298.302     78.34395     156.2534     312.6001      1.712     4.60     861.4642     55.08989      178.063        16     1.239     0.937  26.48   0
        43    544.5705    959.8899 307.6791218  +6.2886478     1046.616     1605.986     2000.378     78.46781     156.0669     312.4758      1.683     5.46     863.4222     55.08989     142.8094        11     1.304     0.644  26.16   0
        44    192.5741    960.0204 307.8252563  +6.2768320     708.1479     1174.022     1590.433     77.97118     156.1291     312.4447      1.850     2.51     860.8118     55.08989     127.3846         6     0.780     0.494  88.62   0
        45    946.1884    955.8072 307.5125094  +6.3037038     5937.093     10930.55      11923.1     77.97118     156.1291     312.4447      1.961     4.31     856.8138     55.08989     685.6272        43     1.718     1.243  41.06   0
        46     52.1463    958.0761 307.8836210  +6.2729311     2596.984     4168.889     4457.453     78.46782     156.3156     312.5379      1.722     3.83     859.0951     55.08989     364.8077        23     1.379     1.035  32.29   0
        47    628.5231    950.2081 307.6445898  +6.2954444      723.472     1192.275     1354.286     77.97118     155.8177     312.3514      2.032     4.76     862.6987     55.08989     106.8329         8     1.284     0.499  56.61   0
        48    919.9924    947.5271 307.5236621  +6.3062520      1844.33     3183.788     3336.391     77.97118     155.8801     312.4447      1.902     4.69     857.3965     55.08989     235.9341        20     1.517     0.919  37.62   0
        49    640.5519    943.5681 307.6398176  +6.2985867     4406.059     7125.562     7153.649     78.09563     156.3156     312.4758      1.731     3.94     862.3802     55.08989     568.6439        32     1.504     1.089  42.67   0
        50    779.4534    944.1068 307.5821282  +6.3029902     1375.539     2256.081     2176.082     78.21989     156.2534     312.7243      1.777     5.05     860.0586     55.08989     154.7417        17     1.269     0.946  40.09   0
        51    252.7391    943.7131 307.8008255  +6.2855779     4342.755     6747.194     7016.362     78.46782     156.5018     312.6311      1.681     3.79     861.4057     55.08989     556.0685        28     1.466     0.993  38.26   0
        52    462.7996    941.7819 307.7136780  +6.2933952     1124.515     1939.117     1834.673     77.97118     155.8801     312.2271      1.886     4.22     863.2314     55.08989     190.6969        13     1.189     0.761  52.01   0
        53     21.4890    941.2044 307.8969161  +6.2788688     2048.204     3119.144       3207.3     77.84653     156.0046     312.2581      1.682     4.03     858.8286     55.08989     275.4963        20     1.339     0.965  43.04   0
        54    872.8279    939.9252 307.5434986  +6.3078227     894.6876     1570.121     1590.385     78.21989     156.2534     312.5069      1.806     6.71     858.1826     55.08989     120.9003        13     1.560     0.810  34.44   0
        55    288.5443    937.0810 307.7861827  +6.2895136      775.476     1348.351     1851.985     78.34395     156.3156      312.569      2.143     5.92     861.9583     55.08989     100.3595        10     1.450     0.680  18.99   0
        56    996.8995    936.1682 307.4921084  +6.3134968     687.1453     1374.029     1479.424     78.34395     156.1913     312.6933      2.257     5.88     854.5526     55.08989     116.5264         8     1.303     0.953 -39.73   0
        57    944.4890    936.6983 307.5138520  +6.3115369     680.2385     1027.879     932.6903     78.34396     156.7499     312.5379      1.939     6.13     856.4429     55.08989     110.2505         9     1.215     0.869  42.68   0
        58    565.2522    936.0908 307.6713315  +6.2991634     1663.641     2572.408     2241.067     78.21989     156.1291     312.6933      1.633     3.94      862.998     55.08989     222.2296        15     1.115     0.913  37.25   0
        59    604.6304    932.5251 307.6551013  +6.3019486     1244.466     2101.239     2407.562     78.21989     156.3777     312.5379      1.874     4.82      862.876     55.08989     176.8827        18     1.376     0.994  34.33   0
        60     54.4765    933.2856 307.8834875  +6.2832440     790.2067     1206.613     1753.981     78.34396     156.6259     312.6001      1.822     4.77      858.824     55.08989     116.6316        10     1.124     0.863  -4.91   0
        61    284.2464    930.2917 307.7881950  +6.2921729     1373.523     2156.589     2247.906     78.34396     156.2534     312.6622      1.654     4.17     861.7433     55.08989     207.9366        15     1.340     0.751  40.06   0
        62    553.3386    928.2242 307.6765413  +6.3020139     597.1741     871.0801     813.4998     77.97118     156.2534     312.4447      1.249     3.44     862.8891     55.08989     102.0973         5     0.784     0.436  73.62   0
        63    751.4138    926.2145 307.5943679  +6.3094441     794.4167     1358.356     1671.927     78.21989     156.0046     312.4758      1.758     5.47     860.6413     55.08989     122.8019        11     1.385     0.773  43.16   0
        64    888.8431    922.7554 307.5374217  +6.3154442     6415.936     11011.72     11274.11     78.34395     156.3156     312.4447      1.827     4.09     857.6675     55.08989     755.7098        37     1.628     1.134  38.85   0
        65    424.6143    920.1489 307.7302569  +6.3010516     2212.883     3435.872     3256.298     77.72167     156.3156     312.2892      1.623     4.29     862.6426     55.08989     301.9086        22     1.357     1.058  39.04   0
        66    326.3698    918.4852 307.7711024  +6.2984558     9563.709     14681.78     15852.73     78.34396     156.1291     312.4136      1.692     3.85     861.7461     55.08989     1201.565        38     1.519     1.079  45.70   0
        67    246.3885    917.4147 307.8043450  +6.2962229      7104.07     11047.09     11005.59     78.09563     156.0046     312.4758      1.692     3.68     860.6808     55.08989      982.261        35     1.549     1.051  44.41   0
        68    574.6467    911.7716 307.6682449  +6.3095173     1083.105      1715.32     1386.117     77.97118     156.3777     312.4447      1.545     4.34     862.4242     55.08989     168.6271        14     1.313     0.854  31.60   0
        69    904.3160    907.5831 307.5315033  +6.3222228      1001.94      1561.11     1958.921     77.97118     156.0046     312.4758      1.634     3.90     857.1395     55.08989     153.0831        12     1.082     0.866  25.92   0
        70    137.3803    908.3073 307.8499085  +6.2963340     647.3116     814.6628     728.6547     78.21989     156.1291     312.3825      1.273     3.06     858.6952     55.08989     120.8696         5     0.964     0.338 -20.39   0
        71    860.9395    906.5616 307.5495480  +6.3212024     706.2131     1263.091     1131.796     78.34395     156.3777      312.569      1.946     4.35     858.0315     55.08989     124.1379         6     1.098     0.490  55.52   0
        72    403.1925    906.4084 307.7396116  +6.3060090     550.4911     776.9231     853.9019     77.72167     156.1291     312.4136      1.414     3.39     862.2683     55.08989     90.89282         5     0.741     0.449  19.81   0
        73    741.0280    901.0861 307.5995197  +6.3194731     1634.713     2780.569      3100.94     78.46782     156.0046     312.3825      1.774     4.34     860.5302     55.08989     205.0089        19     1.459     0.812  44.85   0
        74    564.9599    901.4520 307.6726122  +6.3134549     774.1686     970.4152      508.633     78.21989     156.3777     312.5379      1.360     3.46     862.1357     55.08989     114.4234         8     0.807     0.697  79.47   0
        75    605.1239    897.4064 307.6560713  +6.3164645      719.375      1227.34     1377.067     77.97118     155.8177     312.3825      1.764     4.40     862.0087     55.08989      126.356         8     1.147     0.592  15.30   0
        76    526.2280    896.8241 307.6888487  +6.3140736     1121.482     1730.278     1757.324     77.84653     156.1913     312.3825      1.662     4.05     862.0214     55.08989      148.685        14     1.238     0.774  47.33   0
        77    659.3499    894.3364 307.6336589  +6.3195394     2633.789     3888.456     3944.042     78.34396     156.2534      312.569      1.648     3.53     861.3481     55.08989      365.317        20     1.252     0.964  43.13   0
