#   1 NUMBER                 Running object number                                     
#   2 X_IMAGE                Object position along x                                    [pixel]
#   3 Y_IMAGE                Object position along y                                    [pixel]
#   4 ALPHA_J2000            Right ascension of barycenter (J2000)                      [deg]
#   5 DELTA_J2000            Declination of barycenter (J2000)                          [deg]
#   6 FLUX_APER              Flux vector within fixed circular aperture(s)              [count]
#   9 FLUXERR_APER           RMS error vector for aperture flux(es)                     [count]
#  12 FLUX_RADIUS            Fraction-of-light radii                                    [pixel]
#  13 FWHM_IMAGE             FWHM assuming a gaussian core                              [pixel]
#  14 BACKGROUND             Background at centroid position                            [count]
#  15 THRESHOLD              Detection threshold above background                       [count]
#  16 FLUX_MAX               Peak flux above background                                 [count]
#  17 ISOAREA_IMAGE          Isophotal area above Analysis threshold                    [pixel**2]
#  18 A_IMAGE                Profile RMS along major axis                               [pixel]
#  19 B_IMAGE                Profile RMS along minor axis                               [pixel]
#  20 THETA_IMAGE            Position angle (CCW/x)                                     [deg]
#  21 FLAGS                  Extraction flags                                          
         1    257.3317     38.5196 307.8300980  +6.6633224     7617.728     13987.02     15267.46     78.12288     155.8756     311.1331      1.960     5.81     827.8485     54.84772     952.4458        43     1.933     1.030  36.90   0
         2    174.8968     20.5575 307.8649516  +6.6679583     8811.077     16248.98     17299.42     77.99956     155.5666     311.3496      1.945     5.38     827.5932     54.84772     1095.661        42     1.922     0.999  39.51   0
         3    920.4510     18.3536 307.5553028  +6.6939090     3441.207     5821.518      6261.59     78.12288     155.5047     311.2259      1.813     5.56     812.9745     54.84772     446.1064        24     1.708     0.824  41.43   0
         4    519.1407     18.7475 307.7220088  +6.6802916     2415.458     4327.665     4689.271     77.99956     155.5666      311.164      1.901     6.48     815.5093     54.84772     317.5474        22     1.774     0.766  38.39   0
         5    457.3325     17.0697 307.7477423  +6.6789069     1563.968     2716.644      2320.14     77.99956     155.7521      311.164      1.914     5.86     817.5116     54.84772     213.2065        19     1.756     0.786  40.38   0
         6    721.5168     17.0124 307.6379939  +6.6877999     1694.344     2979.728     3431.968     77.62843     155.3808     311.0093      1.971     5.79     813.4161     54.84772     230.9831        20     1.725     0.725  39.14   0
         7    985.1670     14.6650 307.5285410  +6.6975961     1635.159     3041.568     3286.606     77.87605     155.6284     311.1331      1.907     6.07     808.2025     54.84772      228.213        22     1.762     0.799  39.31   0
         8    704.6047     11.0203 307.6452223  +6.6897063     6203.331     10830.04     11657.94     77.62843     155.3188     310.9784      1.851     5.57     813.3571     54.84772     863.8672        35     1.849     0.880  40.63  16
         9    624.8687     10.2167 307.6783748  +6.6873631     3189.305     5526.494     5625.545     77.50432     155.5047     311.0712      1.818     5.51     814.0924     54.84772     466.5649        25     1.747     0.780  41.15  16
        10    424.9453      6.4252 307.7615575  +6.6822116      5121.01     9203.286     9993.051     77.62843     155.6903     298.9518      1.950     5.61     819.9906     54.84772     664.6461        33     1.912     0.884  40.89  16
        11    326.5446      9.1950 307.8023413  +6.6777574     679.1082      1321.76     2408.229     77.38001     155.4427     310.8855      2.860     4.32     826.0423     54.84772     113.2007         7     1.085     0.489  41.60   1
        12     25.9731      6.0271 307.9273084  +6.6689307     6907.987     12728.98     13830.73     77.50432     155.4427     295.4211      1.982     5.78     828.1014     54.84772     884.7139        41     1.911     0.988  39.73  16
        13    672.2544      5.4161 307.6588514  +6.6909346     727.1547     1096.272     1253.299     77.38001     155.6284     289.2301      1.414     4.15      813.381     54.84772     151.3306         7     1.188     0.414  41.89  16
        14    500.6003      3.3650 307.7302319  +6.6860181     618.1375     1196.779     1192.343     77.00589     148.4743     264.4001      2.101     6.75     815.4038     54.84772     91.26947        10     1.770     0.722  42.20  24
        15    322.0696      2.1591 307.8044390  +6.6805109     9882.811     14749.45     16060.57     76.12579     135.2416     247.1241      1.587     5.09     826.2701     54.84772     1335.395        32     1.573     0.947  23.47  24
        16    416.5052      1.8195 307.7652198  +6.6838289     695.8365     1092.812     1604.202     73.55323      130.754     242.1264      1.673     4.72     820.7012     54.84772     109.7332         7     1.190     0.531  50.42  24
        17     95.4931      2.1137 307.8985630  +6.6728928     2034.556     2870.028     3154.273     75.99924     135.0279     246.5001      1.622     5.01     827.7247     54.84772     292.1558        18     1.475     0.780  28.66  24
        18     87.2347      1.7848 307.9020047  +6.6727499     1118.284     1295.738     1145.553     72.63131     130.0157     241.2103      1.244     4.30     827.7277     54.84772     187.0168        10     0.956     0.728  20.76  24
        19    389.3861      1.2433 307.7765052  +6.6831544     763.7827     1012.673     1117.347     66.54456     122.1517     232.4301      1.082     2.65     822.5316     54.84772     185.7658         6     0.853     0.429   1.58  24
        20    593.6150    991.7734 307.6581760  +6.2811430     1093.308     2310.453     2341.843     77.62843     155.5047     311.1022      2.233     6.73     849.4808     54.84772     167.6179        18     1.688     0.771  34.92   0
        21    745.4854   1022.7002 307.5940898  +6.2734675     1065.642     1524.964     1504.312     77.25551     137.4305     249.4118      1.443     5.36     850.4341     54.84772      151.935        10     1.358     0.598  40.54  24
        22    525.2178    990.6885 307.6866047  +6.2792957     3446.762     6499.948     7638.631     77.75233     155.3808     311.0712      2.075     5.44     850.1166     54.84772     429.0425        35     1.963     0.979  31.76   0
        23    634.5347    989.7077 307.6412596  +6.2833681      1195.05     2176.284     1768.221     77.87605     155.8139      311.164      1.833     6.31     849.2453     54.84772     175.3612        17     1.673     0.743  41.45   0
        24     59.6457    988.8497 307.8799213  +6.2643911     746.4149     1298.492     1368.841     77.99956     155.5047      311.195      2.003     6.15     847.6744     54.84772     113.4119        10     1.662     0.640  39.80   0
        25    478.1384    987.0801 307.7062695  +6.2792044     1829.857      3246.74     3126.497     78.12288     155.6284      311.164      1.895     5.95     850.0664     54.84772     227.5954        23     1.771     0.821  40.96   0
        26    912.6315    979.2245 307.5261700  +6.2970080     34536.52     65674.41     73034.91     77.50432     155.5047     310.9784      2.053     5.16     843.8522     54.84772     4104.683        84     2.092     1.281  39.68   0
        27    220.0040    977.3701 307.8137490  +6.2745326     1480.822     2735.031     3182.765     77.50432     155.4427     311.0093      1.978     6.18     849.7275     54.84772     189.2676        21     1.787     0.812  38.69   0
        28    619.0877    976.3832 307.6481218  +6.2883503     713.2158     1088.766     878.2072     77.75233     155.3808     311.0403      1.795     5.73     849.1437     54.84772     95.44653         9     1.374     0.673  34.39   0
        29    810.5475    973.0491 307.5687557  +6.2961417     1890.791     3240.768     3801.515     78.12288     155.5047     311.1331      1.943     5.71     845.7785     54.84772     226.8526        24     1.789     0.894  37.24   0
        30    758.7926    970.8217 307.5903154  +6.2953282     5445.384     10060.89      11420.3     77.50432     155.4427     310.9784      2.047     5.21     847.2555     54.84772      698.118        41     1.863     1.142  38.27   0
        31    545.9080    970.3353 307.6787040  +6.2883916      809.547     1226.656     1420.223     77.99956     155.8139      311.195      1.679     5.88     849.7454     54.84772     125.3196        12     1.408     0.691  30.96   0
        32    227.9920    969.7540 307.8106915  +6.2779453     1093.745     2029.131     1853.709     77.50432     155.5047     310.8235      1.795     6.50     849.7508     54.84772     151.5053        15     1.598     0.742  36.26   0
        33    947.0015    965.9979 307.5123473  +6.3036171     5431.581     10515.01     11386.46     77.38001     155.1948     310.8545      2.063     5.43     842.4511     54.84772     615.2734        47     2.015     1.154  36.62   0
        34    192.3744    969.2126 307.8254944  +6.2769695     736.3571     1534.177     1746.654     77.62843     155.4427     311.1022      2.267     5.97     848.8816     54.84772     90.42175        11     1.435     0.699  13.81   0
        35     53.1251    967.8458 307.8833412  +6.2728410     2212.926     3854.664      4053.67     77.87605     155.6903      311.195      1.773     4.93     847.4263     54.84772     266.9634        25     1.683     0.910  33.89   0
        36    920.8194    957.7148 307.5234952  +6.3061609     1536.032     1854.048     2036.531     77.62843     155.3808     311.1022      1.546     6.51     843.3661     54.84772     192.9274        24     1.701     0.956  45.80   0
        37    629.6887    959.9880 307.6442748  +6.2954735     639.9134     1003.557     1066.398     77.75233     155.3188     311.0712      1.627     4.42      848.887     54.84772     114.6689         5     1.190     0.467 -15.40   0
        38    641.3636    953.4620 307.6396487  +6.2985589      3905.56     7069.143     7056.751     77.99956     155.6903      311.164      1.922     5.52     848.6541     54.84772     500.9188        34     1.866     1.012  37.33   0
        39    253.5550    953.7585 307.8006226  +6.2854084     3655.576     6451.927      6672.07     77.87605     155.6284     311.0093      1.843     5.28     849.5741     54.84772     455.9769        29     1.750     0.919  37.59   0
        40    780.1636    953.6311 307.5820235  +6.3031400      934.431      1776.79     1967.695     77.62843     155.3808     310.9474      1.994     7.16     846.0238     54.84772     125.4429        15     1.832     0.784  32.88   0
        41    463.9936    952.0847 307.7133248  +6.2931749     937.2999     1664.229     951.2751     77.62843     155.3188     310.9784      1.752     5.31     849.5861     54.84772     163.2316        11     1.472     0.540  39.20   0
        42     22.3695    951.2752 307.8966701  +6.2786435       1571.9     2959.394      3435.77     77.87605     155.6903      311.164      2.056     6.98     847.1112     54.84772     201.2977        19     1.660     0.824  38.63   0
        43    873.9078    950.5040 307.5432127  +6.3075684     813.9368     1528.524     1083.905     77.99956     156.1225     311.1331      1.909     6.11     843.9843     54.84772     102.2954        11     1.429     0.734  54.31   0
        44    289.5527    947.1512 307.7859038  +6.2893471     719.6208     1106.444     1541.593     77.99956     155.5047      311.195      2.066     5.62     849.5908     54.84772     98.93597        10     1.267     0.703  38.66   0
        45    566.1194    946.1200 307.6711322  +6.2990657     1453.977     2551.471     2123.496       78.246     155.8756     311.3187      1.890     6.71     849.2469     54.84772     197.4039        19     1.671     0.757  37.42   0
        46    998.7494    946.1840 307.4915317  +6.3135256     521.9023     1162.036     1553.937     77.50432     155.6903     310.8855      2.053     3.44     838.8279     54.84772      81.3866         5     0.980     0.349  43.18   0
        47    605.2007    942.2120 307.6550407  +6.3019900      952.938     1585.904     1795.443     77.62843     155.3188     310.9784      1.799     6.06     849.0449     54.84772     163.3595        13     1.666     0.620  39.18   0
        48     54.0633    942.7119 307.8838053  +6.2832472     582.0912     1265.903     1505.835     77.87605     155.8139      311.195      2.321     4.17     847.1384     54.84772     98.46539         6     1.635     0.303  22.46   0
        49    284.9526    940.0947 307.7880524  +6.2921051     1208.627     2011.231      2174.81     77.87605     155.5047     311.2878      1.904     6.38     849.4486     54.84772     162.5386        16     1.606     0.773  39.53   0
        50    752.3734    936.2691 307.5941456  +6.3093762     625.5697     998.7418     948.2101     77.62843     155.5047     311.0712      1.742     4.38     845.7225     54.84772     92.87592         7     1.000     0.547  30.32   0
        51    889.6945    932.8091 307.5372551  +6.3154009     5571.901     10497.79     11106.28     77.62843     155.2569     310.9474      2.003     5.39     843.5187     54.84772     680.4296        40     2.000     1.005  39.19   0
        52    425.5896    929.9690 307.7300151  +6.3010137     1657.108     2994.025     2949.498     77.50432     155.3808     311.0093      1.882     5.93     849.2842     54.84772     207.9642        22     1.750     0.796  43.51   0
        53    327.2175    928.3453 307.7709059  +6.2983768     7970.168     14438.11     15797.82     77.50432     155.5666     310.9164      1.930     5.25     849.2557     54.84772     1051.253        48     1.973     1.065  38.46   0
        54    247.2498    927.2269 307.8041392  +6.2961478     5973.593     10815.58     11768.14     77.62843     155.6903     311.1022      1.919     5.12     849.0735     54.84772     785.9908        39     1.888     1.004  38.79   0
        55    575.3079    921.7724 307.6681406  +6.3094243     1033.851     1828.838     2155.795     78.12288     155.3808     311.0403      1.796     4.95     848.7678     54.84772     158.2252        12     1.552     0.539  51.30   0
        56    905.7285    917.8752 307.5311017  +6.3221018     984.6301     1989.747     2212.294       78.246     155.8139      311.164      2.069     6.86     842.8264     54.84772     123.2911        17     1.604     0.824  36.55   0
        57    861.9816    916.8290 307.5492983  +6.3210703     656.8207     1292.627      1536.07     77.62843     155.4427     311.1022      2.215     6.41     843.8376     54.84772     87.76947        11     1.752     0.658  37.12   0
        58    138.9503    918.4578 307.8493924  +6.2961201     492.5229     721.8115     619.0858     77.99956     155.6284      311.195      1.532     4.25     847.4704     54.84772     79.83838         5     0.788     0.653 -81.98   0
        59    973.0142    913.5848 307.5033126  +6.3261225     582.0237     1140.149      1960.37     77.75233     155.3188     311.1022      2.364     5.20     839.4606     54.84772     83.47321         7     1.233     0.620  37.24   0
        60    742.0392    911.1927 307.5992816  +6.3193814     1233.245     2531.276     2445.762     77.38001     155.3808     310.8545      1.904     6.82     845.2922     54.84772     194.0696        19     1.743     0.749  41.44   0
        61    835.3582    911.4366 307.5605326  +6.3224053     548.5665     1045.476     822.9393     77.75233     155.6284     311.0403      2.007     5.17     844.1269     54.84772     92.90228         5     1.353     0.558  49.09   0
        62    565.4902    911.5305 307.6725623  +6.3133226     525.4916     1020.042      1123.03     77.99956     155.8139      311.164      2.167     4.64     848.5013     54.84772     86.74805         7     1.185     0.516  44.25   0
        63    605.6692    907.6210 307.6560147  +6.3162844     768.1664     1439.452     1246.051     77.62843     155.5666     311.0712      1.932     5.30     847.9842     54.84772     105.5187        11     1.489     0.533  39.89   0
        64    973.1069    906.5666 307.5035103  +6.3290227     945.9144     1746.283     2671.865     78.12288     155.5047     311.2259      2.134     6.25     839.2992     54.84772      143.189        14     1.635     0.704  32.20   0
        65    527.0089    906.6416 307.6887024  +6.3140491     1014.469     1872.856     2271.202     77.38001     155.4427     310.9164      1.811     4.59     848.6752     54.84772     164.2489        11     1.477     0.532  36.63   0
        66    660.3561    904.3434 307.6334227  +6.3194713     2095.393     3973.441     4481.023     77.87605     155.6284      311.164      2.057     5.52     846.9547     54.84772     264.2142        28     1.888     0.923  35.78   0
        67    939.4288    900.0000 307.5177130  +6.3306075     558.9092     1332.032     1043.375     77.25551     155.3808     310.9474      2.232     7.19     841.1304     54.84772     87.11322         9     1.444     1.003  50.94   2
        68     56.9915    900.4185 307.8840261  +6.3008034     2474.432     4647.674     5285.862     77.75233     155.3188     311.0093      2.030     5.53     846.2744     54.84772     298.4843        29     1.803     0.956  42.16   0
        69    820.9378    900.5237 307.5668870  +6.3264274     717.0641     1180.599     997.2472       78.246     155.6284      311.164      1.870     5.75       844.16     54.84772      115.205        11     1.604     0.581  39.62   0
        70    200.4774    899.2350 307.8245041  +6.3061274     1878.751     3464.781     4037.645     77.87605     155.6903      311.195      1.910     5.55     848.1115     54.84772     219.9788        24     1.670     0.921  43.83   0
        71     74.1630    899.6141 307.8769255  +6.3017144     1700.054     2853.448     2975.224     77.50432     155.4427     310.9164      1.727     5.22     846.3762     54.84772     230.6903        22     1.679     0.870  36.68   0
        72    234.6860    895.8687 307.8104177  +6.3086688     697.4083     998.0651     945.1009     78.12288     155.8756      311.195      1.588     5.33     848.5208     54.84772     99.49158         9     1.709     0.469  52.54   0
        73    654.9594    893.3359 307.6360348  +6.3238341     5635.763     10208.97     11048.18     77.99956     155.5666     311.2568      1.938     5.35     846.6208     54.84772     761.9797        38     1.847     0.999  40.43   0
        74    339.2557    895.3299 307.7670268  +6.3124098     765.0914     1139.921     1634.875     77.99956     155.5666     311.1331      1.603     4.75     848.7384     54.84772     118.1316         8     1.266     0.506  44.50   0
        75    792.5401    894.5375 307.5788781  +6.3279478     730.8406     1398.537     752.4217     77.99956     155.5666      311.195      1.768     5.23     844.4697     54.84772     124.0105         8     1.290     0.682  27.75   0
        76     15.1120    891.3572 307.9017183  +6.3031309      886.303     1834.485     2229.438     77.99956     155.5666      311.195      2.225     6.86     845.7963     54.84772     148.9136        16     1.793     0.750  35.09   0
        77    892.7955    889.6342 307.5374220  +6.3333270     2230.177     3905.813     3828.289     77.25551     155.5047     310.9474      1.822     5.97     842.4584     54.84772     264.9934        22     1.701     0.842  37.58   0
