#   1 NUMBER                 Running object number                                     
#   2 X_IMAGE                Object position along x                                    [pixel]
#   3 Y_IMAGE                Object position along y                                    [pixel]
#   4 ALPHA_J2000            Right ascension of barycenter (J2000)                      [deg]
#   5 DELTA_J2000            Declination of barycenter (J2000)                          [deg]
#   6 FLUX_APER              Flux vector within fixed circular aperture(s)              [count]
#   9 FLUXERR_APER           RMS error vector for aperture flux(es)                     [count]
#  12 FLUX_RADIUS            Fraction-of-light radii                                    [pixel]
#  13 FWHM_IMAGE             FWHM assuming a gaussian core                              [pixel]
#  14 BACKGROUND             Background at centroid position                            [count]
#  15 THRESHOLD              Detection threshold above background                       [count]
#  16 FLUX_MAX               Peak flux above background                                 [count]
#  17 ISOAREA_IMAGE          Isophotal area above Analysis threshold                    [pixel**2]
#  18 A_IMAGE                Profile RMS along major axis                               [pixel]
#  19 B_IMAGE                Profile RMS along minor axis                               [pixel]
#  20 THETA_IMAGE            Position angle (CCW/x)                                     [deg]
#  21 FLAGS                  Extraction flags                                          
         1    440.2647     24.5208 307.7616606  +6.6823632     4142.157     8787.014     9898.023     87.69551     174.4925     348.7076      2.260     5.11     1062.415      61.4715     402.0393        48     1.893     1.461 -82.54   0
         2     41.3037     24.1660 307.9275101  +6.6691536      5861.85     12166.51     13502.83     87.55751     174.2844      348.881      2.208     4.94     1082.395      61.4715     644.0603        49     1.886     1.388 -83.93   0
         3    336.8465     19.4356 307.8048214  +6.6810065     8338.011      18361.8     21001.38     87.00335     174.4231     348.6382      2.327     5.10     1073.375      61.4715     822.6594        64     2.005     1.578 -80.36   0
         4    110.7433     19.8547 307.8987925  +6.6732627     1791.255     3627.427     4497.761     87.55751     174.4924     348.7769      2.260     5.61     1078.257      61.4715     191.5161        27     1.508     1.260 -62.15   0
         5    402.9707     17.7145 307.7773926  +6.6839281     1326.151     2835.999     3503.212     87.55751     174.0762     348.5689      2.309     5.62      1065.92      61.4715     154.7766        24     1.471     1.186 -68.86   0
         6    663.7695     12.7943 307.6691453  +6.6946645     7528.275     15387.27     17603.38     86.86425      174.215     348.4995      2.184     4.74     1054.347      61.4715     794.2223        54     1.909     1.393 -85.20   3
         7    664.8123      4.4889 307.6689910  +6.6981294     2389.205     4752.602     6527.302     87.14222     174.1456     312.4204      2.550     4.80     1054.157      61.4715     294.1791        32     1.675     1.250 -78.96  19
         8    828.5421     12.3561 307.6006626  +6.7003327     1276.537     2509.109     2964.655     87.28087     174.3538     348.8463      2.171     6.88     1047.592      61.4715     179.0985        20     1.792     0.913  64.95   0
         9    541.6519     12.7720 307.7199104  +6.6906009     964.9171     2011.374     2205.847     87.00335     174.5617     348.6382      2.412     6.09     1055.446      61.4715     134.6866        11     1.098     0.949  -0.68   0
        10    898.5961      9.9757 307.5716200  +6.7036459     1343.792     2313.608     2660.504     87.00335     174.1456     348.5689      1.891     4.85     1046.189      61.4715     159.6976        19     1.342     0.982  87.41   0
        11    264.0167      9.7647 307.8354217  +6.6825639     3970.921     9230.476     10718.46     87.00335      174.215     348.4995      2.412     5.59     1078.652      61.4715     441.9316        47     1.816     1.582 -62.06  16
        12    655.4141      8.2123 307.6727727  +6.6962784     6543.782     13206.54     15635.34     87.28087     174.0762     348.0829      2.217     4.79     1054.422      61.4715     672.4337        55     1.861     1.494 -74.90  17
        13    425.4643      8.3395 307.7683583  +6.6885516     5210.658     11194.82      12179.8      87.4193     174.3538     348.4301      2.252     5.08     1064.066      61.4715     524.2297        49     1.841     1.470 -84.60  16
        14    687.2697      5.8971 307.6596080  +6.6982963     9366.711     24797.56     31950.52     87.28087      174.631      329.744      2.818     7.29     1054.039      61.4715     1018.366        82     2.637     1.629 -44.30  24
        15    740.7414      7.1447 307.6373374  +6.6995623     1248.019     2424.755      2017.47     87.55751     174.4231     341.4895      2.024     6.05     1053.614      61.4715     157.5558        19     1.516     0.983 -82.77  16
        16    204.0457      4.4812 307.8605288  +6.6827381     899.4767     1793.776     1824.933      87.4193     174.4231     312.5752      2.146     7.57     1078.095      61.4715     134.9615        12     1.667     0.961 -44.56  16
        17     71.8518      2.3832 307.9155492  +6.6791742     2045.062     3258.157     3092.074     86.44563     154.8106     280.6118      1.733     4.64      1079.13      61.4715     255.6128        21     1.270     1.138 -18.44  24
        18    162.2608      1.4837 307.8779991  +6.6825764     1258.052      1656.35     1945.867     78.22112     141.1651     265.2379      1.397     4.51     1078.043      61.4715     190.4711        10     1.140     0.608  -0.69  24
        19    123.2350    993.9530 307.8607004  +6.2713776     652.7076     887.6012      1305.48     87.00335     174.3538     348.6729      1.659     4.82     1105.431      61.4715     106.1481         7     0.978     0.674   1.88   0
        20    556.8981   1020.2837 307.6796898  +6.2749919     3758.511     6325.113     6955.495      87.4193     174.8386     315.5399      1.789     4.12     1103.638      61.4715     496.8662        30     1.594     1.035  88.92  19
        21    554.0803   1012.5114 307.6811214  +6.2781080     7621.118     12644.27     13723.58     87.14222     174.7002     348.8463      1.828     4.15     1103.528      61.4715     927.2141        38     1.657     1.082 -89.43   2
        22    527.3079   1021.7403 307.6919315  +6.2734036     923.4886     1648.395     1444.268     87.28087     165.5308     295.1451      1.870     5.68     1103.921      61.4715     148.0659        10     1.352     0.673 -74.24  24
        23    307.1195   1019.0923 307.7834769  +6.2671461     13007.72      22339.2     24784.37     87.14222     174.7002     329.9273      1.893     4.07     1105.369      61.4715     1618.036        62     1.825     1.364 -58.46  24
        24    825.9009    990.5428 307.5689508  +6.2962323     2155.052     3469.069     3650.795     87.14222     174.4231     348.9503      1.723     4.09     1098.493      61.4715     297.1361        21     1.397     0.926 -86.91   0
        25    774.2174    988.5120 307.5904875  +6.2953520     6257.646     10211.53     11471.27     87.14222     174.1456     348.6035      1.803     4.12     1099.368      61.4715     851.2765        33     1.701     0.965 -81.53   0
        26    561.1226    987.8649 307.6790244  +6.2885223     805.4185     1349.342     999.0288     87.55751     174.4231     348.7076      1.809     5.52     1103.218      61.4715     113.9373        10     1.280     0.672  75.85   0
        27    243.7998    987.2628 307.8108495  +6.2781751     1376.611      2198.56     1924.967      86.5854     174.1456     348.4301      1.754     5.19     1105.173      61.4715     188.0636        16     1.425     0.800  84.67   0
        28    208.2977    986.7068 307.8256142  +6.2772172     805.1221     1596.595     1128.787      87.4193      175.046     348.6729      2.034     6.12     1105.163      61.4715     110.6593        10     1.268     0.832 -84.17   0
        29     68.8790    985.6931 307.8835556  +6.2729685     2312.795     4045.723     4146.094     87.14222      174.631     348.8116      1.917     4.72     1105.712      61.4715     284.5826        25     1.628     0.991 -89.49   0
        30    962.3234    983.6379 307.5125135  +6.3036175     6800.687     10277.67     10297.83     87.28087     174.4924     348.7423      1.664     4.06     1095.827      61.4715     894.0492        31     1.520     0.985 -85.73   0
        31    218.8187    979.4498 307.8214889  +6.2805664     657.2535     1034.349     1351.052     86.86425     174.4924     348.5342      1.452     3.13     1105.115      61.4715     116.3193         5     0.732     0.472 -16.42   0
        32    644.3529    977.7463 307.6447923  +6.2954752     821.9519     1170.405     1504.334      87.4193     174.4231     348.7769      1.666     4.65     1101.719      61.4715     97.28699         7     1.121     0.548  27.65   0
        33    936.0548    975.1512 307.5237095  +6.3062504     2178.561     3390.191     4248.157      87.4193     174.4231     348.8116      1.810     4.82     1095.944      61.4715      349.733        20     1.561     0.834 -88.39   0
        34    269.2016    971.6074 307.8008263  +6.2854903     3816.319     6635.215     6811.612     86.72494     174.0762     348.5342      1.812     4.22     1105.096      61.4715      420.364        34     1.525     1.241 -88.04   0
        35    795.4186    971.7350 307.5822433  +6.3029866     1040.639      1705.06     1943.549     87.00335     174.4231     348.5689      1.640     4.38     1098.135      61.4715     161.6006         9     1.213     0.697  77.51   0
        36    656.8911    971.3136 307.6398001  +6.2985497     4073.416     6753.568     7201.154     87.14222     174.9077      348.881      1.739     4.14     1101.232      61.4715     476.2001        27     1.467     1.047 -87.27   0
        37   1006.5554    970.8115 307.4945689  +6.3103838     772.5886     1004.005      1146.64     86.86425     174.2844     348.4301      1.588     5.87     1094.094      61.4715     135.5096         6     1.355     0.715  86.07   0
        38     37.9506    968.7426 307.8969740  +6.2789328     1820.043     2934.326     2800.971      87.4193     174.4231     348.8116      1.652     4.79     1105.648      61.4715      251.895        18     1.579     0.708  87.02   0
        39    479.0059    969.4281 307.7137535  +6.2933981     953.0096     1554.622     1164.831     86.86425      174.215     348.5342      1.880     5.29     1103.662      61.4715     106.9143        10     1.023     0.774 -48.13   0
        40    888.7028    967.4510 307.5436372  +6.3078575     766.2043     1103.352     844.2673     87.28087     174.3538     348.9503      1.521     4.54     1096.515      61.4715     128.3088         8     1.113     0.526 -69.62   0
        41    960.3099    964.5533 307.5139887  +6.3114331     792.8911     1063.454     498.3448      87.4193     174.2844      348.881      1.665     4.44     1094.838      61.4715     135.3521         8     1.287     0.435 -82.59   0
        42    581.5945    964.1092 307.6713191  +6.2990163     1461.115     2494.739     2242.412     87.00335     174.0762     348.4648      1.900     6.22     1102.686      61.4715     165.3988        17     1.333     0.956  76.32   0
        43   1013.0510    962.8431 307.4921372  +6.3138905     890.2273      1472.75     1169.651     87.55751     174.4231     348.7769      1.678     6.07     1093.577      61.4715     149.0706        12     1.795     0.577 -78.29  16
        44    620.5193    959.9014 307.6552916  +6.3020514     1121.258     1601.095     1466.782     87.28087     174.8386     348.8116      1.619     3.99     1102.025      61.4715     144.6105        11     1.130     0.725 -66.72   0
        45    300.6222    957.7171 307.7882433  +6.2922776      1270.89      2278.09       2947.8     87.14222     174.0762     348.6035      2.129     5.98     1105.009      61.4715     186.0062        18     1.441     1.134  34.55   0
        46    767.6602    953.9282 307.5943710  +6.3094178     910.6858      1188.14     1219.378     87.55751     174.4231     348.8116      1.397     4.04     1098.351      61.4715     138.8224         8     1.006     0.805 -74.95   0
        47    905.0961    950.4349 307.5373973  +6.3154303     6889.359      10671.8     10780.86     87.55751     174.2844     348.9156      1.690     4.20     1095.202      61.4715     932.5468        31     1.542     0.980 -79.97   0
        48    440.8247    947.5410 307.7303494  +6.3011636     1727.136     2843.449      3137.17     87.00335     174.4231     348.5689      1.804     5.12     1103.445      61.4715     195.1373        21     1.495     0.944 -85.48   0
        49    342.7526    946.1270 307.7711339  +6.2984724     7966.839     14034.84     15227.88      87.4193     174.4924     348.7423      1.901     4.10     1104.799      61.4715     977.3177        42     1.649     1.209 -88.03   0
        50    262.8266    945.1357 307.8043664  +6.2962103     5917.006     10330.02     11312.71     87.00335     174.3538     348.6382      1.871     4.14     1104.942      61.4715     645.8043        39     1.648     1.186 -81.36   0
        51    590.6866    939.1387 307.6683812  +6.3096327     892.7607     1455.216     1059.326     87.55751      174.631     348.7769      1.860     3.67     1102.015      61.4715     152.9348         8     0.941     0.716  65.24   0
        52    774.7491    937.9310 307.5919628  +6.3162609     627.2712     978.7656     938.2943     87.28087     174.2844     348.7423      1.518     3.87     1097.583      61.4715     98.16516         5     0.825     0.521 -37.77   0
        53    920.7746    935.7072 307.5313776  +6.3220342     1152.462     1948.354     2247.358     87.55752     174.1456     348.5689      1.896     5.24     1094.013      61.4715     156.5051        14     1.333     1.052 -61.26   0
        54    877.2297    935.4409 307.5494754  +6.3206972     388.6734     617.3508     411.7878     87.00335     174.2844     348.6035      1.911     3.38     1095.051      61.4715     99.48938         5     1.165     0.283 -53.83   0
        55    757.0043    928.7004 307.5996436  +6.3194829     1469.704     2483.973     2223.267     87.14222     174.0762     348.3607      1.673     5.06     1097.839      61.4715     166.2318        15     1.351     0.826 -72.61   0
        56    988.3408    924.4760 307.5036858  +6.3289170     1213.204     2043.723      2436.33     87.55752     174.4925     348.7076      2.488     5.61     1092.053      61.4715     184.9369        12     1.471     0.602  85.51   0
        57    632.6897    925.0179 307.6514077  +6.3168646     578.6133     707.5619     1086.361     87.14222     174.1456     348.6382      1.577     4.22     1100.943      61.4715     92.57483         6     1.307     0.388 -78.36   0
        58    621.0898    925.8341 307.6561988  +6.3161410     643.1447     805.6696     501.4601     87.55751     174.2844     348.7423      1.484     3.73     1101.142      61.4715     107.2535         5     1.029     0.388 -56.75   0
        59      8.2137    925.5403 307.9107848  +6.2957787     838.1671     1627.038     1895.325     86.72494     174.3538     347.8396      2.164     4.09     1104.843      61.4715     141.0734         7     0.934     0.753 -50.05   0
        60    542.5396    924.4131 307.6888760  +6.3141094     1060.055     1770.476     1858.351     86.72494     174.2844     348.3954      1.775     5.92     1102.605      61.4715     143.2656        12     1.156     1.000  52.69   0
        61    675.6268    921.9183 307.6336756  +6.3195750     2122.999     3430.021     2710.756     87.28087      174.215     348.6729      1.739     4.25      1100.16      61.4715     272.6794        22     1.401     1.004  87.12   0
        62    965.8306    919.7870 307.5131938  +6.3301062     826.2986     951.8726     1336.959     86.86425      174.215     348.6729      1.256     4.42     1092.277      61.4715     169.1902         8     1.226     0.641 -73.30   0
        63     72.4243    918.2570 307.8843602  +6.3009385     2428.891     4522.412     4725.436     87.00335     174.4231     348.5342      1.919     4.65     1104.686      61.4715      312.354        26     1.672     0.941 -84.44   0
        64    953.9870    918.5189 307.5181562  +6.3302367     810.8412     1087.244     959.8103     87.00335     174.1456     348.5689      1.382     3.64     1092.499      61.4715     118.5804         6     0.785     0.608  47.33   2
        65    954.0442    916.0000 307.5182168  +6.3312790      614.705     777.4542     734.4691      86.5854     174.0067     348.2912      1.174     3.35     1092.356      61.4715     110.1663         5     0.792     0.512 -26.48   3
        66    215.9681    917.3907 307.8247655  +6.3061019     1900.995     3458.809     3734.539     86.86425     174.1456     348.5689      1.971     5.46     1104.771      61.4715     234.8783        23     1.522     1.077 -82.82   0
        67     90.0610    916.9478 307.8770788  +6.3020701     1728.036      3135.22     3853.804      87.4193     174.3538     348.7423      2.034     5.31     1104.748      61.4715     230.5265        21     1.621     0.857 -85.71   0
        68    836.3994    917.3768 307.5670420  +6.3268008      644.976     824.4606     1278.607     87.00335     174.0762     348.4995      1.220     3.32     1095.185      61.4715     116.2307         5     1.016     0.314 -22.45   0
        69    670.3149    911.1224 307.6362446  +6.3238571     5892.318     9885.032     10449.85      87.4193     174.7694     348.8463      1.817     4.19     1099.731      61.4715     687.5115        35     1.668     1.052 -85.35   0
        70    355.1062    913.6483 307.7670963  +6.3122993     905.4324     1695.958     1555.476     87.28087     174.2844      348.881      2.125     5.47     1104.453      61.4715     124.6586         9     1.037     0.814  67.99   0
        71    250.3987    913.2395 307.8106038  +6.3089681      715.671     949.9541     927.8461     86.44563     174.1456     348.3954      1.689     3.89     1104.831      61.4715     131.8291         7     1.172     0.466 -51.12   0
        72    807.2734    911.6602 307.5793328  +6.3281933     727.4014     1184.696     1255.396     87.55752     174.4231     348.7769      2.233     5.95     1095.579      61.4715     102.4891         8     1.438     0.694  71.59   0
        73     30.4441    909.2374 307.9021020  +6.3032570     1128.973     1763.722     921.3831     87.14222     174.4231     348.6035      1.660     4.74     1104.057      61.4715     165.2308        17     1.358     0.906  84.73   0
        74    908.1760    907.4174 307.5375586  +6.3333001      2682.18     4229.744     3890.823     87.14222     174.2844     348.6729      1.692     4.33     1093.176      61.4715     319.2946        25     1.539     1.008 -89.08   0
        75    783.5272    908.4667 307.5893044  +6.3287224     589.3837     1124.866      1107.16     87.55752     174.5617     348.7076      1.885     5.24     1095.921      61.4715     90.33984         7     1.562     0.497 -88.28   0
        76     43.6465    907.6629 307.8966714  +6.3043497     991.2604     1673.576     1752.351     87.28087     174.2844     348.8116      2.027     4.76     1104.135      61.4715     154.2556        11     1.159     0.815 -89.04   0
        77    353.3864    904.4133 307.7681217  +6.3160560     13554.41      24369.8     26484.98     87.28087     174.0762     348.6729      1.941     4.29     1104.422      61.4715     1405.285        56     1.779     1.328 -84.07   0
