#   1 NUMBER                 Running object number                                     
#   2 X_IMAGE                Object position along x                                    [pixel]
#   3 Y_IMAGE                Object position along y                                    [pixel]
#   4 ALPHA_J2000            Right ascension of barycenter (J2000)                      [deg]
#   5 DELTA_J2000            Declination of barycenter (J2000)                          [deg]
#   6 FLUX_APER              Flux vector within fixed circular aperture(s)              [count]
#   9 FLUXERR_APER           RMS error vector for aperture flux(es)                     [count]
#  12 FLUX_RADIUS            Fraction-of-light radii                                    [pixel]
#  13 FWHM_IMAGE             FWHM assuming a gaussian core                              [pixel]
#  14 BACKGROUND             Background at centroid position                            [count]
#  15 THRESHOLD              Detection threshold above background                       [count]
#  16 FLUX_MAX               Peak flux above background                                 [count]
#  17 ISOAREA_IMAGE          Isophotal area above Analysis threshold                    [pixel**2]
#  18 A_IMAGE                Profile RMS along major axis                               [pixel]
#  19 B_IMAGE                Profile RMS along minor axis                               [pixel]
#  20 THETA_IMAGE            Position angle (CCW/x)                                     [deg]
#  21 FLAGS                  Extraction flags                                          
         1    693.9556     18.3632 307.6451812  +6.6898961     7267.759     11153.45     11442.09     78.20113     156.5267     312.8356      1.641     3.80     829.0272     55.16431     1035.254        33     1.516     1.004 -46.09   0
         2    614.1269     17.4751 307.6783818  +6.6875903     3831.114     5822.606     5508.227     78.69765     156.7754     313.0223      1.619     3.72     829.1898     55.16431     505.7741        24     1.428     0.893 -49.15   0
         3    316.4670     17.1043 307.8020758  +6.6777587     887.3305     1449.306     2035.333     78.44978     156.6511     312.9601      1.684     5.14     839.2964     55.16431     130.6039        10     1.302     0.591 -48.15   0
         4    414.3482     13.6954 307.7615205  +6.6824530     6084.057     9575.864     9797.078     78.32555     156.4645     313.2089      1.696     3.75     836.7519     55.16431     797.0582        32     1.532     1.009 -49.21   0
         5     15.3138     13.2175 307.9273349  +6.6692304     8128.621      13261.8     14266.35     78.07651     156.2777     312.8979      1.740     3.87     838.1902     55.16431     1159.501        40     1.629     1.118 -52.48   0
         6    661.5291     12.0084 307.6588693  +6.6914347     872.7018     1138.862     1088.513     77.95168     156.0906     312.8356      1.383     4.42     828.8699     55.16431     144.4678         8     0.857     0.727  30.49   0
         7    489.9110     10.5498 307.7302293  +6.6862869     855.4948     1340.249      1424.29     78.44978       156.34     313.0846      1.688     5.87     830.0577     55.16431     124.9672        12     1.457     0.666 -73.61   0
         8    310.8429      8.6770 307.8046975  +6.6810495     12677.67     20180.69     22176.71     78.32555     156.5267     312.9912      1.715     3.95     839.4376     55.16431     1627.587        46     1.678     1.056 -49.05  16
         9     84.5350      8.7851 307.8987245  +6.6733925     2405.672     3859.071     4317.502     77.95168     156.4023     312.8668      1.766     4.05      839.517     55.16431     341.3973        22     1.400     0.931 -58.28  16
        10     75.8647      8.0595 307.9023516  +6.6734001     1415.918     2376.447     2250.683     78.57381     156.4645     311.8067      1.684     5.88     839.2588     55.16431     179.4515        18     1.545     0.873 -50.21  16
        11    405.6196      8.8227 307.7653120  +6.6841720     713.3677     1061.089     573.8655     78.20113     156.4645     312.8979      1.460     4.72     837.0822     55.16431     109.3043         9     1.135     0.556 -25.69   0
        12    780.0284      7.1788 307.6097920  +6.6973933     789.3102      1011.48     797.1608     77.82666     156.2777     306.6421      1.310     4.59     827.1417     55.16431     109.2328         8     0.917     0.740 -70.12  16
        13    377.0121      6.8193 307.7772664  +6.6840389     2105.442     3491.463      3152.25     78.20113     156.2777      304.059      1.669     4.10     837.6927     55.16431     278.1232        20     1.417     0.874 -51.55  16
        14    637.8118      2.4476 307.6690465  +6.6945885     10808.63     15260.95     16137.33     77.82666     139.6257     252.6694      1.552     4.08     828.6689     55.16431     1579.115        34     1.447     1.024 -37.56  24
        15    972.2930      3.0888 307.5300365  +6.7055039     815.4854     1238.016     1245.566     78.44978     147.2298     262.3873      1.633     5.26     821.2277     55.16431     115.9894        10     1.187     0.657 -58.32  24
        16    802.2845      2.0623 307.6007160  +6.7002501       1501.6     2357.584     2571.974     76.18269     134.9441     247.2543      1.684     4.30     826.0757     55.16431     235.8592        15     1.189     0.888 -49.17  24
        17    515.4209      2.2627 307.7199091  +6.6905641     1259.305     1854.202     2184.134     77.19851     137.5174     250.0739      1.595     5.93     829.4138     55.16431     166.3626        14     1.318     0.750 -46.33  24
        18     56.1565      2.7439 307.9107203  +6.6749311     695.7751     803.1947     852.8824     78.32555     143.1384     257.3283      1.366     5.00     838.4603     55.16431     110.1063         8     0.963     0.736 -82.12  24
        19    236.9508      1.2361 307.8356517  +6.6816383     1407.042     1614.998     1352.869     66.92866     123.0152     233.8134      1.092     2.80     839.4418     55.16431     373.1561         8     1.065     0.424   1.52  24
        20    467.4381    994.1662 307.7063934  +6.2793789     2117.607     3351.391     3447.168     78.20113       156.34     312.7422      1.717     4.14     862.5221     55.16431     263.8653        22     1.433     0.901 -44.19   0
        21    942.2615   1023.1030 307.5082771  +6.2833076       4809.3     6806.273      6592.41     74.50246     132.6148     244.6013      1.439     3.77     858.1661     55.16431     686.7962        26     1.478     0.873  -6.23  24
        22    701.7118   1022.0472 307.6081873  +6.2757092     2669.285     4387.138     4655.442     78.44978      145.433     260.3381      1.758     4.13     862.5803     55.16431     352.8965        24     1.359     1.049 -46.25  26
        23    696.9650   1023.5217 307.6101085  +6.2749417     678.5338      744.783      1172.99      70.0565     126.6811     237.9418      1.154     3.87     862.7775     55.16431      141.311         6     1.069     0.403 -17.42  27
        24    425.2309   1022.7468 307.7229537  +6.2661625     794.8126     1045.068     890.2404     77.45038     137.5174      249.957      1.309     4.00     862.7097     55.16431     124.1206         9     1.112     0.562 -45.99  24
        25    226.8665   1023.2944 307.8052901  +6.2592788     1101.312     1351.458     1039.786     72.78345     130.0942     241.5567      1.250     4.10     861.0888     55.16431     204.7344         9     1.003     0.648 -36.38  24
        26    901.8692    986.3925 307.5262797  +6.2971187      39607.8     68347.55     73521.57     77.95168     156.2153     312.8668      1.846     4.04     857.7643     55.16431     5140.566        80     1.783     1.324 -47.46   0
        27    209.3876    984.5736 307.8138549  +6.2746799     1651.574     2651.285     3095.191     78.07651       156.34     312.8979      1.774     4.72     860.7903     55.16431     212.8975        19     1.462     0.866 -52.21   0
        28    747.9551    978.2474 307.5904594  +6.2953414     6218.002     10685.42     12173.55     78.44978     156.4645      312.929      1.911     4.62     859.9524     55.16431     824.9023        41     1.882     1.069 -61.46   0
        29    608.4047    982.9681 307.6482423  +6.2887244     833.5361     1088.535     925.0029     77.82666     156.4023     312.7422      1.547     4.81     862.2983     55.16431     124.5457         8     1.107     0.593 -40.97   0
        30     97.1037    983.2014 307.8605184  +6.2714716     604.1458     897.0518      888.454     77.95168     156.2777     312.6176      1.708     5.11     859.4532     55.16431     97.57178         6     1.115     0.662  -5.48   0
        31    800.0250    980.0879 307.5687779  +6.2963214     2191.099     3606.318     3726.542     78.57381       156.34     312.8356      1.771     4.30     858.8817     55.16431     287.6173        22     1.450     0.949 -51.97   0
        32    534.7137    977.5232 307.6790218  +6.2885053     865.6096     1431.168     1649.928     78.44978     156.8375     313.0223      1.927     5.06     862.3885     55.16431     118.9324        10     1.309     0.553 -53.44   0
        33    217.5315    976.9991 307.8107296  +6.2780812     1463.995     2434.432     2788.084     77.95168     156.0906     312.7734      1.746     4.39     860.9188     55.16431     217.6328        17     1.377     0.933 -47.02   0
        34    936.2741    973.1367 307.5124391  +6.3037405     6174.969     10573.52     11308.55     78.69765     156.5267      312.929      1.864     4.02     856.4981     55.16431      753.222        42     1.635     1.278 -45.58   0
        35    182.0088    976.2109 307.8255045  +6.2772129      998.416     1686.837     2265.653     77.95168       156.34     312.8979      1.964     3.37     860.3327     55.16431      155.676        10     0.961     0.705 -52.70   0
        36     42.3768    975.0311 307.8835156  +6.2730038     2502.939     4151.176     4111.278     77.82665     156.2777     312.7111      1.685     4.11     859.4331     55.16431     367.6905        21     1.494     0.852 -46.62   0
        37    192.5306    969.3267 307.8213687  +6.2804091     630.1207     988.2776     967.8373     78.57381     156.6511     312.9601      1.767     5.41     860.4824     55.16431     89.11902        10     1.638     0.504 -46.36   0
        38    910.0173    964.8783 307.5236184  +6.3062745     1886.997     3410.197     3149.162      78.0765     156.2777     312.8979      1.895     5.14      856.829     55.16431     239.1093        23     1.538     1.003 -47.77   0
        39    242.8252    960.8826 307.8007726  +6.2855856     4146.398     6729.195     6688.317     78.20113     156.2777     312.9601      1.691     4.15     861.3386     55.16431      590.385        28     1.535     0.937 -50.75   0
        40    769.5421    961.1302 307.5820715  +6.3031310     1247.474     1996.012     1694.785     78.57381     156.5267      312.929      1.666     4.73     859.1337     55.16431      189.642        16     1.275     0.860 -68.91   0
        41    630.6500    960.7144 307.6397548  +6.2986580     4484.931     7076.549     6498.494     78.44978     156.4023     313.0223      1.699     4.14     861.6132     55.16431     611.3414        29     1.557     0.961 -48.90   0
        42    452.9291    959.1751 307.7135968  +6.2933412     1110.776     1855.669     1505.983      78.0765     156.4023     312.8979      1.706     5.24     862.3314     55.16431     159.7487        14     1.425     0.691 -41.72   0
        43     11.6390    958.1525 307.8968483  +6.2789384      2074.21     3233.894     3410.919     78.32555     156.5267     312.7734      1.655     4.18     859.3916     55.16431      277.214        20     1.373     0.874 -56.28   0
        44    862.4543    957.2899 307.5436220  +6.3078204     983.7567     1560.844      1090.42     78.44978       156.34     313.0846      1.613     4.59      857.757     55.16431     160.3809        14     1.263     0.801 -61.94   0
        45    934.3714    954.5787 307.5138517  +6.3113402     822.1271     1342.743     1417.982     77.82666     156.2777     312.8668      1.768     5.73     855.7839     55.16431     104.1266        10     1.122     0.823 -70.62   0
        46    278.8372    954.6190 307.7860323  +6.2893815     734.8979     1127.626      1497.69      78.0765       156.34     312.7422      1.543     4.01     861.8924     55.16431     162.6491         9     1.330     0.586 -59.43   0
        47    986.3613    953.3712 307.4923048  +6.3135730     814.9366     1379.341     1366.581     77.95168     156.2153     312.8356      2.019     5.53     854.4307     55.16431     146.1857         9     1.664     0.518 -43.99   0
        48    555.4891    953.2056 307.6712148  +6.2992424     1657.141     2610.245     2520.452     77.95168     156.2153     312.7111      1.625     4.29     862.0648     55.16431     243.0266        17     1.352     0.842 -45.04   0
        49     44.2930    949.8226 307.8835732  +6.2834771     775.5297     1402.931     1996.022     78.44978       156.34     312.8045      2.029     5.19     859.3918     55.16431     120.0844         9     1.328     0.574 -52.33   0
        50    594.3472    949.4388 307.6552075  +6.3020989     1072.326     1646.918     1853.661     78.32555     156.5889     312.9601      1.814     4.86     861.6791     55.16431     169.8104        14     1.455     0.770 -43.18   0
        51    274.5091    947.1684 307.7880809  +6.2923126     1409.315     2172.273     1879.818     78.57381       156.34     312.9912      1.740     4.88     861.7542     55.16431      171.717        16     1.406     0.816 -44.94   0
        52    542.3192    945.2027 307.6769525  +6.3021059     434.2606      751.364     135.7503     77.82666     156.0906     312.7111      1.715     5.46     862.0804     55.16431     111.0532         7     1.734     0.485 -42.72   0
        53    741.2578    943.1953 307.5944183  +6.3095915     852.8393     1385.877     1128.688     77.82666     156.4023       312.68      1.587     4.28     858.9641     55.16431     148.5887        11     1.230     0.738 -42.28   0
        54    878.9427    940.0626 307.5373539  +6.3154845     6495.556     10711.66     10952.12     78.57381     156.4645     312.9912      1.746     4.16     856.9063     55.16431     850.1544        33     1.553     1.054 -46.96   0
        55    117.5870    941.4050 307.8534278  +6.2894187     544.6398     593.5923     469.1665     78.07651     156.2777     312.8356      1.219     4.12     859.5054     55.16431     89.12518         5     1.001     0.485 -84.47   0
        56    414.8017    937.2695 307.7301658  +6.3011080     1955.262     3194.165     3444.406     77.95168     156.0906     312.8045      1.754     5.11     862.1434     55.16431     252.2006        24     1.680     0.949 -56.72   0
        57    584.3206    937.7829 307.6597629  +6.3065763     579.0597     1150.707     838.6244     78.07651     156.2153     312.8979      1.779     5.85     861.5789     55.16431      94.8114         6     1.279     0.752 -82.25   0
        58     14.0077    938.5767 307.8965276  +6.2871011     470.2757     630.9506     286.4293     77.95168       156.34     312.8045      1.439     4.20     859.3539     55.16431     78.93219         5     0.796     0.632 -88.92   0
        59    316.4139    935.4489 307.7710779  +6.2985587     9406.163     14869.73     15957.99     77.82666     156.4645       312.68      1.739     4.11     861.9576     55.16431     1368.987        39     1.603     1.040 -50.86   0
        60    236.5840    934.3166 307.8042612  +6.2963455     6827.092     10821.91     11324.65     78.07651     156.2153     312.8668      1.707     4.07      861.176     55.16431     1000.329        37     1.585     1.015 -50.40   0
        61    749.4142    928.2043 307.5915354  +6.3160544     702.5983     1149.162     1184.103      78.0765     156.2777     312.8356      1.501     5.45     858.4672     55.16431     113.5825         8     1.433     0.584 -53.47   0
        62    565.0515    928.6474 307.6680713  +6.3097033     1006.698      1534.85     1210.457     78.57381     156.4023     312.9912      1.615     6.16     861.6666     55.16431     125.9503        12     1.270     0.848 -62.47   0
        63    894.5377    925.1183 307.5313801  +6.3221760     1078.767     1508.053     2078.956     78.57381     156.5267     312.9601      1.537     4.09     855.8853     55.16431     132.2199        13     1.127     0.828 -41.61   0
        64    850.9056    924.0538 307.5495331  +6.3211589     805.9276     1394.267     1161.694     78.32555     156.4645     313.1779      1.935     5.02     857.2698     55.16431     111.0116        11     1.171     0.876  10.87   0
        65    199.1975    924.6851 307.8201093  +6.2990663      589.204     965.1534     758.2387     77.82666      156.153       312.68      1.802     4.62     860.4278     55.16431     86.17426         7     1.083     0.559  23.13   0
        66    393.7577    923.2041 307.7393777  +6.3062101     584.1748     930.2772     790.3373     77.82666     156.2153       312.68      1.576     3.73     861.9559     55.16431     96.33038         5     0.974     0.410 -44.22   0
        67    731.2502    918.0487 307.5994189  +6.3196407     1695.459     2708.485     2948.524     78.44978     156.4023     312.8979      1.713     4.29     858.3683     55.16431     219.8648        19     1.369     0.907 -57.25   0
        68    554.3890    918.9413 307.6728254  +6.3133541     648.4324     923.8551     856.4649     77.82665     156.4023       312.68      1.795     4.82     861.5668     55.16431     107.9077         7     1.104     0.714  75.32   0
        69    962.1597    913.9761 307.5036751  +6.3290334      1146.15     1748.832     2470.567      78.0765       156.34     312.7422      1.631     4.35     854.0396     55.16431     165.9733        13     1.223     0.781 -51.70   0
        70    594.8857    914.8075 307.6561496  +6.3164171     829.0128     1119.389     1077.766      78.0765     156.2153     312.8045      1.408     4.06      860.843     55.16431     119.4252         9     0.954     0.643 -71.24   0
        71    516.1949    914.2738 307.6888414  +6.3140021     1029.491     1418.768     1462.281      78.0765     156.0906     312.8668      1.596     4.61     861.6936     55.16431     154.3585         9     0.974     0.620 -60.05   0
        72    649.6404    911.5106 307.6335251  +6.3196110     2435.695     3700.095     3675.737     78.44978     156.5267     312.9912      1.676     4.37     859.8969     55.16431     318.5913        21     1.523     0.773 -51.03   0
        73     46.1130    907.4027 307.8842532  +6.3010538     2752.822     4627.264     4500.801     77.82666      156.153       312.68      1.776     4.23     858.7622     55.16431      358.829        25     1.553     0.944 -55.14   0
        74    927.5852    906.7226 307.5182749  +6.3308751     610.6658      1182.98     1511.445     78.07651     156.2153     312.8045      2.016     5.35     854.1831     55.16431     90.77972         7     1.454     0.556 -69.78   0
        75    811.1242    907.6851 307.5666012  +6.3265894     796.3874     1293.541     1210.986     78.57381     156.8375     313.0223      1.763     4.26     857.3937     55.16431     123.2747        10     1.095     0.745 -29.61   0
        76    189.6377    906.4941 307.8246932  +6.3062563     2174.354     3247.484     3484.456     78.57381     156.4023     313.0846      1.645     4.09     860.1385     55.16431     290.4879        20     1.390     0.897 -47.29   0
        77     63.5536    906.9407 307.8770277  +6.3018316     1788.138     2965.426     3058.977     78.44978     156.5267     313.0846      1.753     3.67     858.8342     55.16431     263.3413        20     1.381     0.878 -41.72   0
