#   1 NUMBER                 Running object number                                     
#   2 X_IMAGE                Object position along x                                    [pixel]
#   3 Y_IMAGE                Object position along y                                    [pixel]
#   4 ALPHA_J2000            Right ascension of barycenter (J2000)                      [deg]
#   5 DELTA_J2000            Declination of barycenter (J2000)                          [deg]
#   6 FLUX_APER              Flux vector within fixed circular aperture(s)              [count]
#   9 FLUXERR_APER           RMS error vector for aperture flux(es)                     [count]
#  12 FLUX_RADIUS            Fraction-of-light radii                                    [pixel]
#  13 FWHM_IMAGE             FWHM assuming a gaussian core                              [pixel]
#  14 BACKGROUND             Background at centroid position                            [count]
#  15 THRESHOLD              Detection threshold above background                       [count]
#  16 FLUX_MAX               Peak flux above background                                 [count]
#  17 ISOAREA_IMAGE          Isophotal area above Analysis threshold                    [pixel**2]
#  18 A_IMAGE                Profile RMS along major axis                               [pixel]
#  19 B_IMAGE                Profile RMS along minor axis                               [pixel]
#  20 THETA_IMAGE            Position angle (CCW/x)                                     [deg]
#  21 FLAGS                  Extraction flags                                          
         1    648.6101     15.3873 307.6691965  +6.6945995     12602.63     17142.77     18093.44     80.80437       161.48     323.3139      1.443     3.03     882.8111     57.00068     2199.806        32     1.284     1.009 -22.25   0
         2    526.2155     15.0267 307.7200582  +6.6906468     1520.967     2146.873     1927.766     80.67559     161.5444     323.2818      1.479     3.36     884.8546     57.00068     244.4883        14     1.147     0.829 -29.28   0
         3    813.2139     14.7600 307.6008306  +6.7003662     1808.447     2630.081      2704.01     80.54662     161.5444     323.1209      1.436     2.96     879.1652     57.00068     337.8315        15     1.086     0.836 -15.57   0
         4    249.0356     12.1523 307.8353081  +6.6825257     7077.598      10779.1     11359.87     80.67559     161.7374     323.2818      1.622     3.54     904.9813     57.00068     1082.596        37     1.761     0.989 -23.91   0
         5    640.2378     10.8114 307.6728288  +6.6962083     10158.29     14098.87     15010.84     80.54662     161.5444     323.0566      1.437     3.08     882.6487     57.00068      1803.05        36     1.311     1.052 -17.89   0
         6    410.1528     10.8190 307.7684183  +6.6884899     9093.885     12782.93     13222.14     80.54662     161.7374     323.1853      1.459     3.12     892.0136     57.00068     1466.739        31     1.277     1.042 -22.33   0
         7    725.6013      9.6629 307.6374020  +6.6995403     2179.852     3031.961     3381.709     80.41743     161.5444     323.1209      1.536     3.31     879.9934     57.00068     343.7656        19     1.177     0.934 -21.90   0
         8    672.2042      8.3989 307.6596291  +6.6982748     12140.22     28709.32      33037.4     80.41743     161.2867     323.0887      2.358     8.93      882.877     57.00068     2590.502        58     2.423     1.039 -33.80  16
         9    153.2088      9.5180 307.8752067  +6.6803892     559.1937     827.4559      881.735     80.67559     161.3512     323.2174      1.204     2.43     904.8052     57.00068     120.4459         5     0.707     0.447 -23.98   0
        10    189.0197      7.5031 307.8603978  +6.6824263     1270.226     2273.805     2373.946     80.93293     161.5444     318.9105      1.910     3.72     904.3696     57.00068      196.946        15     1.223     0.885  -2.84  18
        11    649.6447      6.7150 307.6690584  +6.6982146      3280.83     4713.661     5740.822     81.06129      161.673     313.3524      1.517     3.11     882.6464     57.00068     583.7589        20     1.282     0.846 -13.48  16
        12     56.4723      3.8055 307.9155868  +6.6794896     3581.451     5226.456     5358.479     80.67559     157.9649     281.1006      1.554     3.14     908.4514     57.00068      571.037        25     1.282     1.053 -30.14  24
        13    938.7397      3.4940 307.5490562  +6.7092114     858.2165     1180.366     1084.438     80.93293      155.711     276.8144      1.580     5.08     875.2387     57.00068     134.1177         9     1.140     0.640 -28.40  16
        14    147.0901      1.7646 307.8780107  +6.6833841     4991.393     6517.444     6863.596     75.89442     135.1193     250.4296      1.369     3.83     904.6816     57.00068     966.2097        20     1.437     0.710 -13.38  24
        15     79.0800      1.5125 307.9062725  +6.6811979     642.4528     916.3224     657.5551      72.6753     131.6901     246.4539      1.280     2.83     907.7089     57.00068     152.8773         6     0.791     0.621 -34.29  24
        16    108.2580    996.7194 307.8605239  +6.2713092     794.2156     1064.023     964.9811     81.06129     161.7374     323.3461      1.196     2.88     929.5697     57.00068       163.43         7     0.831     0.612 -71.20   0
        17    746.0193   1022.2812 307.5949186  +6.2821440     8421.273     12113.84     12267.55     80.67559     147.2693     265.4641      1.520     3.11     919.5189     57.00068     1314.345        32     1.304     1.125 -23.34  24
        18    541.5422   1022.8529 307.6797828  +6.2750650       4635.1     6339.062     6610.955     79.24529     140.4763     256.5816      1.449     3.21     924.7241     57.00068     876.1474        22     1.272     0.890 -12.35  24
        19    512.0840   1023.6674 307.6919841  +6.2737418       971.04     1238.061     1129.176     70.79108     128.7357     243.2266      1.186     3.61     924.5878     57.00068     257.2881        10     1.304     0.464  -3.93  24
        20    416.1517   1022.2841 307.7318535  +6.2710969     1093.561     1471.195     1201.328     81.06129     147.6923     265.4641      1.378     3.86       924.83     57.00068     197.5802        13     1.169     0.804 -27.44  24
        21    291.7522   1021.6059 307.7835156  +6.2672020      16138.4     23151.87     24751.05     80.54662      154.639      275.119      1.544     3.32     929.5795     57.00068     2642.279        47     1.747     1.026 -29.58  24
        22    618.8536    995.8486 307.6485964  +6.2888032     944.8649     1370.088     1308.712     81.06129     161.7374     323.4104      1.527     3.65      921.235     57.00068     193.2161         9     0.983     0.881  -8.18   0
        23    810.6133    993.4644 307.5690698  +6.2962005     2443.061     3998.888     4437.367     80.54662     161.5444     323.2496      1.824     3.40     916.0312     57.00068     402.5205        27     1.394     1.119 -15.64   0
        24    758.8392    991.1997 307.5906393  +6.2954053     7269.153     10774.26     11697.52     80.02863     161.5444     323.0887      1.567     3.14     918.0964     57.00068     1239.658        34     1.344     1.217 -38.13   0
        25    545.7371    990.6747 307.6791232  +6.2884909     956.7007      1010.48     1121.291     81.31741     161.7374     323.3782      1.271     5.08     924.3506     57.00068     152.0889        10     1.116     0.679 -29.55   0
        26    192.9676    989.9520 307.8255890  +6.2769517     1061.194     1456.159     1672.141     80.80437     161.7374     323.3139      1.537     3.82     929.5701     57.00068     166.8097        11     0.904     0.888  37.01   0
        27    228.4307    990.1071 307.8108627  +6.2780795     1736.585     2400.158     2567.137     81.18945     161.5444     323.3782      1.424     3.58     929.5513     57.00068     308.9081        13     1.156     0.746 -26.61   0
        28    947.0503    986.4026 307.5126652  +6.3036717     6907.449     10477.02     10939.94     80.41743     161.3512       322.96      1.623     3.23     912.8707     57.00068     996.6783        35     1.412     1.140 -26.28   0
        29     53.2369    988.2449 307.8836493  +6.2729564     3036.167     4408.364     4657.864     80.80437     161.7374     323.2818      1.533     3.39     929.4778     57.00068     466.1757        21     1.240     0.948 -41.95   0
        30    203.7287    982.2406 307.8213821  +6.2804971      629.873     1113.115     1204.196     80.93293     161.7374     323.4425      2.391     4.65     929.5153     57.00068     106.0566         7     1.225     0.502 -35.77   0
        31    629.7310    980.7471 307.6445881  +6.2954022     819.6558     1135.656     653.8265     80.93293      161.673     323.2818      1.390     3.05     920.9179     57.00068     126.6847         8     0.889     0.612  -4.53   0
        32    920.9315    977.9839 307.5237904  +6.3062759     2118.932     3242.378     3601.456     80.54662      161.673     323.2818      1.603     3.57     914.0147     57.00068     301.5126        18     1.164     1.008 -31.74   0
        33    253.6665    974.1740 307.8009242  +6.2855055     4954.046     6926.113     6895.498     80.67559     161.6087     323.2818      1.481     3.03     929.4776     57.00068     907.8796        26     1.368     0.905 -26.23   0
        34    780.2939    974.5953 307.5822895  +6.3029779     1422.683     2021.563     2138.786     80.80437     161.4156     323.1209      1.483     4.14     916.8101     57.00068     260.4891        15     1.278     0.883 -23.69   0
        35    641.4666    973.9639 307.6399440  +6.2985956     5071.212     6847.845     7395.755     80.93293     161.7374     323.4425      1.461     3.17     920.6406     57.00068     936.5359        25     1.293     0.950 -18.03   0
        36    991.2324    973.9533 307.4947396  +6.3102856      701.723     863.7546     1244.465     80.80437     161.7374     323.2818      1.448     4.66     909.2197     57.00068     88.58563         8     0.987     0.624 -23.83   0
        37    463.9699    972.2258 307.7136877  +6.2933676     1252.301     1782.789     1908.887     80.54662     161.5444     323.2174      1.417     3.21     924.7644     57.00068     249.8779        11     1.106     0.730 -55.72   0
        38    873.7123    970.5299 307.5436433  +6.3077772     975.5761     1547.337     1519.414     81.18945     161.9943     323.3782      1.880     4.61     914.8549     57.00068     151.6892        10     1.180     0.717 -89.21   0
        39     22.3856    971.4701 307.8970225  +6.2788434     2527.111     3782.501     3764.055     80.54662      161.673     323.2818      1.605     3.48     929.4829     57.00068     367.0312        18     1.242     0.890 -33.73   0
        40    965.3616    968.2621 307.5056706  +6.3117724     681.7029     911.7255     430.7204     81.06129     161.7374     323.4104      1.359     4.89     910.8682     57.00068     92.95111         8     1.221     0.554 -66.34   0
        41    998.0991    965.9878 307.4921555  +6.3138034     852.6634     1935.281     2051.059     80.80437       161.48     323.1531      2.327     7.62     908.7031     57.00068     151.4151        14     1.828     0.914 -68.81   0
        42    945.4670    967.5851 307.5139526  +6.3113882     662.2765     1046.711     825.9847     80.54662     161.6087     323.2818      1.521     3.66     912.1768     57.00068     130.1963         5     0.934     0.491  -3.22   0
        43    566.1656    966.4495 307.6714569  +6.2991770     1998.506     2716.411       2349.7     80.93293     161.7374     323.3139      1.379     3.24     923.1631     57.00068     332.8269        16     1.207     0.785 -27.04   0
        44    290.2207    967.6252 307.7859706  +6.2894370     782.5328     952.8396     549.4109     80.67559     161.5444     323.3139      1.381     4.40     929.4285     57.00068     153.6558         8     1.287     0.427 -10.80   0
        45    605.5021    962.7632 307.6552506  +6.3020161     1569.231     2038.627     1075.137     81.06129     161.6087      323.539      1.320     2.67     921.2958     57.00068     266.9362        12     0.959     0.770 -48.27   0
        46     55.4057    962.9655 307.8836030  +6.2834661     850.5583     1375.291     2265.194     80.28804     161.5444     323.1531      1.763     3.95     929.3318     57.00068     159.3595         9     0.945     0.764 -69.25   0
        47    285.4449    960.5920 307.7881902  +6.2921803     1774.843     2474.748     2446.563     80.54662     161.6087     323.0887      1.414     3.05     929.4177     57.00068     295.6135        15     1.111     0.810 -24.51   0
        48    553.5148    958.5781 307.6769734  +6.3020031     625.6974      495.896     10.78354     80.93293     161.4156     323.3139      1.036     3.73     923.6467     57.00068       116.55         6     0.956     0.419 -17.72   0
        49    752.4506    956.9291 307.5944413  +6.3093411     934.8262     1355.216     785.4267     81.06129     161.7374     323.4104      1.497     3.07     917.6136     57.00068     143.4424         9     0.886     0.674 -25.34   0
        50    889.6824    953.1597 307.5375952  +6.3154822     7609.246     11047.13     11722.12     81.06129     161.8016     323.3139      1.558     3.10     913.7033     57.00068     1264.614        30     1.355     1.048 -13.31   0
        51    127.5819    954.5145 307.8539273  +6.2893837     787.9976     1106.341     766.1053      80.6756       161.48     323.3139      1.450     5.15     929.1613     57.00068     102.8559         9     1.364     0.550 -14.87   0
        52    425.5945    950.4421 307.7303517  +6.3010745     2538.856     3320.385     3116.046     80.41743     161.4156     323.0887      1.391     3.13     925.8295     57.00068     451.9729        17     1.157     0.831 -21.34   0
        53    594.2020    950.2296 307.6603630  +6.3068126     544.4878     678.8812     794.9516     80.54662     161.5444     323.1853      1.420     4.38     921.7486     57.00068     78.08789         5     0.764     0.714 -35.64   0
        54    327.2433    948.7591 307.7712373  +6.2984692      10626.9     14799.69     15405.14     80.80437     161.7374     323.2496      1.438     3.04     928.7943     57.00068     1813.956        35     1.348     1.021 -25.57   0
        55    247.3758    947.5778 307.8044324  +6.2962747     7962.467     11171.36     11771.98     80.67559     161.5444     323.3461      1.456     3.22     929.3577     57.00068     1285.727        29     1.299     0.987 -24.34   0
        56    166.2708    946.1497 307.8381492  +6.2941382     655.7823     864.4465     1048.964     81.06129      161.673     323.4104      1.419     2.76     929.2054     57.00068     118.3146         6     0.731     0.616 -16.66   0
        57    575.1165    942.1476 307.6685579  +6.3095103     1397.875     2067.374     2632.614     81.06129     161.7374     323.4747      1.662     4.20     922.5368     57.00068     291.7396        11     1.244     0.633 -11.34   0
        58    905.7520    938.3109 307.5314212  +6.3221493     1153.787     1747.369     2214.396     81.06129     161.6087      323.539      1.868     3.89     912.3973     57.00068     158.9987        13     1.106     0.832 -62.95   0
        59    138.0771    937.8962 307.8501315  +6.2965976     620.7736     856.1453     810.6304     80.80437     161.9301     323.4425      1.494     5.63     929.0253     57.00068     99.09045         9     1.149     0.776 -55.00   0
        60    862.0461    937.0626 307.5496081  +6.3212055     758.2404     1150.372     1341.711     80.93293     161.6087     323.4425      1.448     3.06     914.2172     57.00068     129.0173         5     0.662     0.547  -1.20   0
        61    404.8245    936.1583 307.7394550  +6.3062752     755.9285     1098.932     1338.056     80.67559      161.673     323.1531      1.665     3.22     926.7394     57.00068     126.5653         8     0.919     0.707  75.91   0
        62    209.7493    937.4506 307.8203937  +6.2991913     471.1355      608.647     353.9525     81.06129     161.6087     323.3139      1.285     3.40     929.2614     57.00068     88.10834         5     0.767     0.437 -22.17   0
        63    972.4740    933.9600 307.5038662  +6.3261723     803.9802     1308.775     2077.546     80.93293     161.7374     323.4104      1.833     4.78     909.5674     57.00068      108.408         7     1.167     0.554  -1.14   0
        64    834.8694    932.0146 307.5610601  +6.3223820     670.7375     929.0531     523.5729     80.54662     161.6087     323.2818      1.505     5.23     914.6556     57.00068     100.6431         8     1.209     0.667 -20.41   0
        65    741.8876    931.4597 307.5996812  +6.3195036     1840.473     2588.058     2497.977     81.06129     161.8659     323.4747      1.488     3.82     917.3172     57.00068     308.3263        16     1.306     0.785 -27.40   0
        66    565.7777    931.8248 307.6727818  +6.3134594     701.4454     811.4922      465.759     80.54662     161.5444     323.3461      1.110     2.12     922.8457     57.00068     237.8744         5     0.830     0.376  -4.10   0
        67    334.3449    929.7474 307.7689297  +6.3065568      534.346      627.053     848.1202     81.31741     161.7374     323.3461      1.238     4.28     928.8928     57.00068     114.9244         5     1.116     0.467 -84.97   0
        68    973.0955    927.1827 307.5038351  +6.3289912     1301.016     2124.246     2534.097     80.93293     161.5444     323.2174      1.634     4.10     909.3354     57.00068     207.8595        13     1.186     0.818  -4.57   0
        69    605.9238    927.9216 307.6562463  +6.3164153     906.6561     1295.353     936.1781     81.31741     161.9943     323.4747      1.512     3.95     921.0275     57.00068     184.7853         8     1.155     0.587 -18.93   0
        70    618.3276    927.3148 307.6511172  +6.3170811      531.549      605.092     673.1259     81.18945     162.0584     323.4104      1.191     3.21     920.6208     57.00068     114.4966         5     0.744     0.450  77.00   0
        71    526.9710    927.0840 307.6890518  +6.3141168     1278.101     1699.194     1237.151     81.06129       161.48     323.2496      1.379     3.79     923.9006     57.00068     203.1478        12     1.136     0.682 -12.18   0
        72    660.2990    924.7985 307.6337770  +6.3195248     2811.622     3679.084     3881.232     80.54662       161.48     323.0887      1.367     3.50     919.4451     57.00068     470.9457        16     1.219     0.771 -26.67   0
        73    951.0381    922.2706 307.5131571  +6.3302834     660.7757     917.7532     949.1927     80.93293     161.7374     323.4425      1.318     3.78     909.9387     57.00068     115.3082         6     1.009     0.512  81.46   0
        74    821.7102    920.8692 307.5668970  +6.3265440     985.1529      1470.49     1553.747     81.18945     161.9301     323.3782      1.718     6.37     914.6533     57.00068       136.92        11     1.134     1.006 -46.23   0
        75     56.8938    920.8011 307.8844097  +6.3009238     3076.187     4692.183     5066.845     80.54662     161.2867     323.0566      1.609     3.16     929.0706     57.00068     490.2603        24     1.305     0.982 -16.89   0
        76    200.5590    919.7263 307.8248068  +6.3062001     2428.155     3603.285     3681.581     80.93293     161.8016     323.4104      1.549     3.43      929.179     57.00068     437.2993        24     1.379     1.117  -0.75   0
        77     74.4346    920.0463 307.8771536  +6.3018259     2116.843     3103.847     2655.481     80.67559      161.673     323.2818      1.582     3.69     928.9299     57.00068     366.2946        19     1.321     0.919 -41.70   0
