#   1 NUMBER                 Running object number                                     
#   2 X_IMAGE                Object position along x                                    [pixel]
#   3 Y_IMAGE                Object position along y                                    [pixel]
#   4 ALPHA_J2000            Right ascension of barycenter (J2000)                      [deg]
#   5 DELTA_J2000            Declination of barycenter (J2000)                          [deg]
#   6 FLUX_APER              Flux vector within fixed circular aperture(s)              [count]
#   9 FLUXERR_APER           RMS error vector for aperture flux(es)                     [count]
#  12 FLUX_RADIUS            Fraction-of-light radii                                    [pixel]
#  13 FWHM_IMAGE             FWHM assuming a gaussian core                              [pixel]
#  14 BACKGROUND             Background at centroid position                            [count]
#  15 THRESHOLD              Detection threshold above background                       [count]
#  16 FLUX_MAX               Peak flux above background                                 [count]
#  17 ISOAREA_IMAGE          Isophotal area above Analysis threshold                    [pixel**2]
#  18 A_IMAGE                Profile RMS along major axis                               [pixel]
#  19 B_IMAGE                Profile RMS along minor axis                               [pixel]
#  20 THETA_IMAGE            Position angle (CCW/x)                                     [deg]
#  21 FLAGS                  Extraction flags                                          
         1    437.2124     33.4969 307.7561531  +6.6694476     9737.167     27103.81     35316.42     91.63873     182.8406     365.8633      2.852     6.49     1167.855     64.54072      969.175        97     2.369     2.007  48.48   0
         2    175.3088     16.0544 307.8656938  +6.6678741     4760.046     13000.77     16469.87     91.63873     182.9863     366.3003      2.804     6.47      1186.41     64.54072     501.3708        72     2.243     1.880  58.92   0
         3    519.4875     14.5311 307.7225744  +6.6800295     1230.754     3310.887     4287.498     91.78407     183.4229     366.1911      2.916     9.32     1161.431     64.54072     128.9248        28     2.095     1.158  53.61   0
         4    920.8305     13.3396 307.5556554  +6.6939102     2278.697     5062.396     5847.824     91.49316     183.1319     366.1183      2.273     6.72     1150.808     64.54072     227.8439        34     1.780     1.368  42.37   0
         5    721.9117     11.5878 307.6384667  +6.6880046     889.1366     2203.835     2488.272     91.34735     182.8406      366.009      2.524     7.99     1156.531     64.54072     115.0684        13     1.597     1.119  19.01   0
         6    984.9944      9.3629 307.5290973  +6.6976874     1281.206      2616.59     2890.906     90.76178     182.8406     365.8997      2.081     6.82     1145.441     64.54072     162.3726        18     1.506     1.053  36.63  16
         7    704.9674      6.2746 307.6456963  +6.6896330     3560.029      9095.28     10715.16     91.63873     183.1319     350.3794      2.559     6.10     1156.948     64.54072     355.1312        54     2.020     1.631  47.09  16
         8    624.9299      5.5586 307.6790164  +6.6872570     1689.427     4562.757     5320.766     91.63873     183.1319     342.1802      2.780     7.58     1157.855     64.54072     195.5605        37     1.887     1.512  38.92  16
         9    425.6212      2.6949 307.7620254  +6.6817767     2801.203     6036.815     6560.034     91.63873       166.83      300.047      2.240     6.46     1170.463     64.54072     275.3248        38     1.961     1.372  10.31  24
        10     26.8712      2.6865 307.9278959  +6.6684091     3777.012     7939.041     8732.384     91.92918       166.83     300.0914      2.236     5.77     1187.183     64.54072     461.5895        44     2.018     1.343   2.40  24
        11    322.8495      1.4405 307.8048198  +6.6788537     815.7962     1438.303      2161.49     81.80138     147.6728     277.6181      2.325     4.40     1180.604     64.54072     165.3566        10     1.230     0.615   2.44  24
        12    512.2820    998.3979 307.6920686  +6.2735750     838.7012     1617.857     1988.032     91.05504     182.6947     365.8633      2.196     6.01     1220.762     64.54072     104.4183        10     1.163     0.873  36.46   0
        13    713.7928   1021.9330 307.6075077  +6.2705825     4910.334     9653.341     11121.67     91.20131     171.4792     306.2469      2.105     5.08      1219.09     64.54072     569.5419        36     1.695     1.299  38.28  24
        14    580.4279   1023.2964 307.6628961  +6.2655706     20094.29     27772.06      30167.6     85.15462     151.6803     282.4259      1.467     3.97     1221.395     64.54072     3719.259        39     1.684     0.898  -1.07  27
        15    570.0977   1021.1796 307.6672619  +6.2660997     2703.719     5932.683     7365.596     91.63873     179.3071     318.4939      2.462     6.18     1221.136     64.54072     292.0371        39     1.932     1.402  37.38  26
        16    428.5753   1021.9999 307.7260585  +6.2610330     2497.109     4844.812     5818.394     91.20131     170.4657     305.2878      2.168     6.25     1222.824     64.54072     281.2313        32     1.815     1.224  30.13  24
        17    210.0087   1023.5302 307.8168522  +6.2530865     797.4771     1352.662     1258.881     81.47483     147.6728     277.8581      1.510     5.34     1228.142     64.54072     131.6921         9     1.277     0.631   0.82  24
        18    416.9608    995.5962 307.7317853  +6.2715461      756.569     1422.797     1682.993     90.76178     182.8406     365.8269      1.765     3.69     1223.179     64.54072     118.8932         6     1.157     0.338 -50.01   0
        19    907.9876    990.2607 307.5278601  +6.2901274     6396.843     12762.48     13887.18     91.05504     182.9135     365.7905      2.115     4.59     1213.132     64.54072      803.108        48     1.871     1.332  47.19   0
        20    881.6509    986.4340 307.5389376  +6.2908309     9031.782     18493.77     21396.16     91.63873     183.2047     366.0454      2.198     4.84     1213.739     64.54072     1082.508        61     1.937     1.501  43.28   0
        21   1003.2633    985.8212 307.4884056  +6.2951292     3830.244      7439.09      7645.78     91.34735     183.1319      366.009      2.012     4.83     1210.464     64.54072     461.3214        33     1.709     1.142  47.13   0
        22    525.7452    985.5605 307.6869092  +6.2793250      2698.22     5676.439      7282.24     91.78407     183.2047     366.1547      2.501     5.48     1220.719     64.54072     271.6967        36     1.750     1.341  15.32   0
        23    595.4467    986.8425 307.6578928  +6.2811229     637.4003     1390.828     1824.605     91.78407     183.1319     366.0819      2.186     3.93     1220.342     64.54072      112.131         5     1.338     0.330  40.49   0
        24    635.2523    984.5447 307.6414248  +6.2834000     901.0242     1437.313     1019.341     91.78407     183.1319     366.1183      1.840     4.51     1219.548     64.54072     116.7557         8     1.021     0.672  39.60   0
        25     60.8730    983.8549 307.8801935  +6.2644669     602.2272     1298.844     1264.108     91.63873     182.9863     366.0819      1.733     3.91      1225.22     64.54072     117.9991         5     0.812     0.540 -52.25   0
        26    478.8611    981.9666 307.7065197  +6.2792425     1347.291     2917.024     3410.475     91.49316     183.2047     366.0819      2.375     7.35     1221.216     64.54072     139.6642        18     1.437     1.069  35.54   0
        27    913.4104    974.0004 307.5261571  +6.2970215     31439.78     63281.06     71005.34     91.34735     182.7676     365.9362      2.145     4.82     1212.302     64.54072     3434.652        87     2.026     1.497  46.28   0
        28    220.9051    972.2981 307.8140714  +6.2746037      1215.43     2175.357     2125.469     91.78407     183.7859     365.9726      1.923     6.07     1227.049     64.54072     141.6044        12     1.348     0.768  38.66   0
        29    811.3010    967.8846 307.5688103  +6.2961474     1550.729     3119.512     2716.577     91.78407     183.6407     366.2639      2.098     6.24     1215.273     64.54072      198.324        24     1.597     1.097  37.54   0
        30    759.5350    965.6583 307.5904043  +6.2953420      4582.58     9556.178     11132.53     91.92919     183.0591     366.1911      2.248     5.17     1216.087     64.54072     491.5114        41     1.773     1.380  42.71   0
        31    229.4607    965.4586 307.8107486  +6.2777141     783.1435     1575.419     1299.401     91.78407     183.0591     366.1911      1.934     4.92     1226.943     64.54072     139.8278         7     1.380     0.496 -87.86   0
        32     54.1403    962.9519 307.8837063  +6.2728711     1605.219     3677.326     4350.319     91.78407     183.1319     366.2275      2.301     6.78     1225.061     64.54072     187.8187        29     1.841     1.249  45.70   0
        33    947.7579    960.7394 307.5123284  +6.3036394     4839.931      9553.63     10565.44     91.78407     183.1319     366.2639      2.088     4.54     1210.726     64.54072     613.2544        41     1.719     1.333  37.48   0
        34    921.4467    952.7701 307.5235360  +6.3060546     1561.271     3149.494     3430.889     91.20131     183.2047     366.0454      2.114     6.17     1211.152     64.54072     203.3611        25     1.705     1.177  42.13   0
        35    642.2511    948.4834 307.6397410  +6.2985225     2912.945     5996.214     6745.952     91.78407     183.0591     366.2639      2.228     5.30     1217.714     64.54072     323.0686        36     1.753     1.293  42.15   0
        36    254.6845    948.7896 307.8008328  +6.2854410     2579.491     5776.313     6399.751     91.34735     182.8406     365.9726      2.316     5.88     1226.501     64.54072      295.458        33     1.756     1.292  36.35   0
        37    780.5833    948.5624 307.5822350  +6.3031020     954.4713     1601.596     1186.709     91.34735     182.9863     365.8633      1.850     5.50     1214.708     64.54072     126.8116         9     1.203     0.708  35.76   0
        38    464.6914    947.9658 307.7135671  +6.2928071     696.8931     1421.215      1892.31     91.92918     182.9863     366.1547      2.700     5.66     1221.944     64.54072     101.5797         6     1.226     0.736  80.04   0
        39    990.8909    948.1340 307.4948251  +6.3102785     703.9631     1290.948     1247.471     91.78407     183.3502     366.1547      1.719     5.22     1208.912     64.54072     101.7168         6     1.116     0.689  10.47   0
        40     23.2959    946.2888 307.8970963  +6.2787155      1424.27     2776.419     3282.182     91.78407     183.5681     366.1911      2.324     5.82     1225.158     64.54072       189.52        19     1.567     0.976  12.24   0
        41    566.6016    940.8608 307.6714466  +6.2991449     974.8887     2137.644     2067.439     91.05504     182.9135     365.8269      2.102     6.67     1219.639     64.54072     117.1078        13     1.692     0.739  -0.34   0
        42    605.8277    937.5515 307.6552534  +6.3018207     749.2713     1708.421     1871.059     91.34735     183.1319     366.0819      2.354     8.21     1218.022     64.54072     134.1708        10     1.805     1.043  49.05   0
        43    286.1517    935.0638 307.7882210  +6.2921617     883.8967     1976.321     2167.911     91.63873     182.9863     366.1911      2.329     7.80     1226.117     64.54072      98.5354        15     1.495     1.137  25.61   0
        44    890.3338    927.6599 307.5373208  +6.3153870     4935.142     9783.966     11065.17     91.92919     183.0591     366.1547      2.109     4.93     1211.091     64.54072     586.9464        44     1.847     1.317  43.23   0
        45    426.5734    925.2206 307.7301865  +6.3009238     1203.435     2860.298     3245.823     91.34735     182.9135     366.0819      2.388     8.49       1222.6     64.54072     160.1697        22     1.575     1.279  19.65   0
        46    328.0246    923.4148 307.7712128  +6.2983729     5524.365     12504.46     14712.02     91.49316     182.9135     366.0819      2.411     5.30      1225.52     64.54072     595.7427        56     1.957     1.585  48.53   0
        47    248.1783    922.2697 307.8044419  +6.2961724     4057.469     9679.002     11026.43     91.34735     183.0591     366.1183      2.426     5.50     1225.918     64.54072      415.933        49     1.940     1.518  43.45   0
        48    861.8232    911.2612 307.5497289  +6.3212087     646.5842     1195.184     787.1252     91.34735     183.0591     366.0454      1.821     4.96     1211.087     64.54072     108.6967         6     1.213     0.574  27.84   0
        49    972.0164    908.2003 307.5040241  +6.3261391     651.7669     1077.895     1594.726     91.34735     182.6217     365.7905      1.718     3.83     1207.282     64.54072     87.00586         5     0.829     0.508 -50.50   0
        50    742.4279    905.8988 307.5995445  +6.3194456     1034.599     2186.409     2889.723     91.92918     182.8406     366.1183      2.403     6.90     1212.996     64.54072     127.9442        12     1.432     0.932   2.11   0
        51    526.6985    900.7667 307.6893979  +6.3143664     780.2115     1492.452     1815.953     91.78407     182.9863     366.3003      2.448     6.41     1219.704     64.54072     119.1749         9     1.254     0.921 -44.10   0
        52    973.1470    901.3274 307.5037869  +6.3290144     866.1475     1690.957     2593.252     91.63873     183.1319     366.1547      1.882     3.82     1206.823     64.54072     142.1423         6     1.043     0.402 -14.60   0
        53    661.1989    898.9916 307.6335464  +6.3195889      1363.52      3517.62     3918.989     91.05504     182.7676     365.8997      2.461     9.00     1214.954     64.54072     163.4344        30     1.831     1.272  26.91   0
        54     58.0194    895.6138 307.8843956  +6.3008027     1830.199      4138.95     5093.153     91.49316     182.8406     366.0454      2.519     6.31     1223.835     64.54072     213.5341        34     1.789     1.413  40.09   0
        55    201.2125    894.7523 307.8249035  +6.3059601     1204.631     2749.512     3058.079     91.05504     182.9863     365.7905      2.381     6.61     1225.135     64.54072     167.3683        18     1.635     1.044  34.42   0
        56     75.1321    894.3488 307.8773256  +6.3018991     933.7389     2171.526     2686.783     91.63873     182.9863     366.0819      2.536     7.50     1223.762     64.54072      151.079        12     1.858     0.960  33.01   0
        57    655.5662    888.3081 307.6362510  +6.3238120     4143.987     9089.017     10388.94     91.92919     182.9863     366.2275      2.333     5.55     1214.533     64.54072     398.0557        46     1.879     1.485  42.75   0
        58    338.8087    881.7487 307.7681504  +6.3159366     9001.176     21486.15     25903.43     91.20131     182.9863     365.7905      2.495     5.41     1225.397     64.54072     1012.852        75     2.173     1.690  55.29   0
        59    893.4413    884.4825 307.5374929  +6.3333178      1963.53     3889.094     4002.891     91.78407     183.1319     366.0819      2.047     5.51     1208.665     64.54072     217.8191        27     1.618     1.188  32.34   0
        60     15.6351    886.6100 307.9023212  +6.3030974     739.7174     1495.615      1607.39     91.20131     182.8406     365.8997      1.596     3.47     1223.518     64.54072     92.19006         5     1.080     0.323 -20.79   0
        61     30.3662    885.1213 307.8962489  +6.3042065     638.4871     1431.554     1184.356     91.63873     183.1319     366.1183      1.968     3.26     1223.459     64.54072     109.4847         5     0.865     0.482 -89.75   0
        62    210.1032    881.2866 307.8216674  +6.3118175     840.6288     1629.191      2384.72     91.78407     183.5681     366.1911      2.484     6.01     1225.217     64.54072     121.5658         9     1.231     0.826 -65.79   0
        63     73.8947    882.1564 307.8782567  +6.3068914     650.9959     1331.508     1362.473     91.78407     183.0591     366.3003      1.872     5.52     1223.466     64.54072     91.59753         5     1.500     0.572  20.77   0
        64    102.1156    872.4785 307.8668567  +6.3118338     926.2245     2157.131     2373.117     91.78407     183.4955     366.3003      2.291     7.16     1223.372     64.54072     142.8771        10     1.456     0.986 -72.28   0
        65    883.3456    865.6898 307.5423271  +6.3407410     1368.272     2454.744     2585.739     91.78407     182.9135     366.3003      2.012     5.40     1208.094     64.54072      165.194        14     1.065     1.009   0.60   2
        66     85.6029    865.8558 307.8739469  +6.3140141     1430.721     3316.291     3497.738     91.05504     182.9135     365.7905      2.335     6.89     1223.161     64.54072     165.5349        22     1.557     1.271  56.31   0
        67    854.2292    865.6533 307.5544328  +6.3397868     1395.642     2627.241     2492.429     91.49316     183.2047     366.0819      1.984     4.75     1208.805     64.54072      178.889        18     1.291     1.013  32.82   0
        68    817.7422    865.0343 307.5696222  +6.3388273     1953.472     4204.197      4572.54     91.63873     183.1319     366.1183      2.242     6.08     1208.834     64.54072     205.5657        29     1.571     1.380  17.30   0
        69    553.8612    856.7775 307.6796029  +6.3334358     186530.3     440293.4     523318.6     91.34735     183.0591     366.0454      2.468     5.33      1216.61     64.54072      19543.2       193     2.301     1.878  50.24   0
        70    397.9854    859.5008 307.7443090  +6.3271019      4318.04     10153.89     11832.72     91.78407     182.8406     365.8633      2.411     5.42         1223     64.54072     431.2675        50     1.858     1.605  53.21   0
        71    341.3071    857.9303 307.7679238  +6.3258541     6918.434     16189.85     19297.24     91.78407     183.2775     366.1547      2.459     5.29     1225.039     64.54072     759.5454        64     2.033     1.670  56.54   0
        72    659.6103    854.0334 307.6357346  +6.3380983      2147.95     4932.304     5653.519     91.20131     182.9135     365.9726      2.372     6.03     1212.487     64.54072     245.3225        38     1.768     1.477  53.21   0
        73    891.9938    852.9880 307.5391625  +6.3462733     3476.664      7385.31     8681.446     91.34735     182.9135     366.0454      2.275     5.29     1207.075     64.54072     399.1895        41     1.852     1.365  34.01   0
        74    313.8650    854.1821 307.7794593  +6.3264832     5136.258     5305.074     5088.208     91.34735     183.1319     365.9726      0.863     2.64     1225.381     64.54072     1528.452         8     0.842     0.448  14.88   0
        75    634.2186    848.3129 307.6464849  +6.3396131     1718.317     4135.986     6142.202     91.49316     182.8406     365.9726      2.970     6.76     1212.866     64.54072     195.6748        34     1.758     1.456  72.11   0
        76   1023.7739    846.5097 307.4845966  +6.3533312     1622.768     2143.389     2094.423     78.47472     143.4605     273.5552      1.172     3.83     1201.662     64.54072      355.418         9     1.214     0.415 -87.50  24
        77    822.5443    847.0056 307.5682376  +6.3464311      946.053     1878.602     1830.465     91.20131     182.9863     365.8269      1.934     6.61     1207.742     64.54072      125.808        10     1.695     0.724  23.92   0
