#   1 NUMBER                 Running object number                                     
#   2 X_IMAGE                Object position along x                                    [pixel]
#   3 Y_IMAGE                Object position along y                                    [pixel]
#   4 ALPHA_J2000            Right ascension of barycenter (J2000)                      [deg]
#   5 DELTA_J2000            Declination of barycenter (J2000)                          [deg]
#   6 FLUX_APER              Flux vector within fixed circular aperture(s)              [count]
#   9 FLUXERR_APER           RMS error vector for aperture flux(es)                     [count]
#  12 FLUX_RADIUS            Fraction-of-light radii                                    [pixel]
#  13 FWHM_IMAGE             FWHM assuming a gaussian core                              [pixel]
#  14 BACKGROUND             Background at centroid position                            [count]
#  15 THRESHOLD              Detection threshold above background                       [count]
#  16 FLUX_MAX               Peak flux above background                                 [count]
#  17 ISOAREA_IMAGE          Isophotal area above Analysis threshold                    [pixel**2]
#  18 A_IMAGE                Profile RMS along major axis                               [pixel]
#  19 B_IMAGE                Profile RMS along minor axis                               [pixel]
#  20 THETA_IMAGE            Position angle (CCW/x)                                     [deg]
#  21 FLAGS                  Extraction flags                                          
         1      1.7546     60.4672 307.9348061  +6.6324505     163600.5     207826.6     229845.1     73.01402     130.1654     241.7194      1.293     2.45     850.8143     55.03638     53026.51       186     2.375     1.465  89.43  28
         2     89.2025     21.8474 307.8997755  +6.6513124     9413.708      14362.8     14963.82     77.64618     155.8531     311.8305      1.581     4.05     845.3689     55.03638     1350.422        35     1.585     0.910 -31.75   0
         3    632.0343     13.5578 307.6745331  +6.6727833      19250.4     28338.15     29432.76     78.01978     156.1637      312.048      1.545     4.02     833.3231     55.03638     3143.192        39     1.513     0.911 -33.48   0
         4    661.8856     14.8002 307.6620893  +6.6732598     495.4323     668.9523     754.5074     77.52124     155.6664     311.8927      1.504     5.98     833.0541     55.03638     66.64734         6     1.279     0.787 -46.65   0
         5    531.7076      9.6805 307.7163451  +6.6710561     5438.039     7955.175     7914.589     78.01978     156.4118     312.2964      1.531     3.95     834.5554     55.03638     835.8297        24     1.470     0.776 -31.19  16
         6    249.9560     10.1695 307.8333841  +6.6614893     2010.911     2801.163     3367.152     77.89544     156.1637     312.1102      1.518     4.02     843.6782     55.03638     324.2421        15     1.361     0.670 -33.58   1
         7    257.8791      5.8552 307.8302371  +6.6635343     9452.666     14087.77     14943.13     78.39159     156.1637     294.8964      1.542     3.95      843.666     55.03638      1511.12        35     1.557     0.901 -34.37  16
         8    688.6214      7.8598 307.6512130  +6.6770114     577.4733     778.0027     1219.197     77.89544     156.1017     310.0537      1.420     4.22     832.6716     55.03638     89.29163         6     0.764     0.665 -18.79   0
         9    619.4399      7.7308 307.6799603  +6.6747716     899.5052      1798.14     2398.472     78.14391     156.1637     309.4905      2.012     5.46      833.369     55.03638     159.0214        12     1.457     0.577 -37.33  18
        10    618.2861      3.3354 307.6805865  +6.6765481     3200.339     4734.867     5272.007      78.3916     149.1151     265.0537      1.528     3.91     833.3145     55.03638     551.6893        18     1.393     0.803 -29.86  26
        11    503.0593      7.2356 307.7283292  +6.6711146     499.4745     667.6874     912.8158     78.26785     156.1637     306.4375      1.604     5.09     834.8107     55.03638     126.9255         6     1.547     0.474 -39.81  16
        12    437.3297      5.3491 307.7557005  +6.6697105     24035.75     35176.95     36205.35     78.14391     156.1017     289.6232      1.547     4.02     837.8269     55.03638     4046.598        42     1.555     0.906 -32.80  24
        13    317.9232      6.2189 307.8052795  +6.6653820     1097.273     1580.163     2272.148     77.77091     155.8531     298.3926      1.649     5.12     842.8553     55.03638     188.9812        12     1.408     0.679 -40.14  16
        14    915.2167      5.0735 307.5571601  +6.6856611     1972.297     3133.736      3914.27     77.77091     155.9774     286.5277      1.718     3.71      831.359     55.03638     320.7845        18     1.384     0.790 -25.43  16
        15    522.6270      5.2950 307.7202644  +6.6725654      681.692     907.1714     1514.414      78.3916     155.9153     288.9531      1.582     4.95     834.6281     55.03638     118.7897         9     1.277     0.543 -38.69  16
        16     23.3162      5.4838 307.9276963  +6.6558708     2231.915     3023.283     2204.523     78.01978     156.4118     291.1919      1.448     4.03     848.9167     55.03638     330.1144        14     1.249     0.673 -31.65  16
        17    550.6540      4.9650 307.7086311  +6.6736318     902.7217     1014.648     548.5609     78.14391     156.1637     285.4431      1.424     4.91     834.3356     55.03638     131.0607         9     1.113     0.614 -37.07  16
        18    245.8900      2.4338 307.8353326  +6.6645478     3094.213     4468.492     4531.875     78.39159     139.2323     252.3909      1.512     3.92      843.561     55.03638     495.2164        21     1.467     0.789 -26.48  24
        19    298.2626      1.1390 307.8136178  +6.6668253     687.1187     879.4973     835.4528     65.45397       121.06     231.6868      1.139     3.29     843.4907     55.03638     190.8506         5     1.082     0.301  -9.48  24
        20    238.6303    984.0945 307.8054626  +6.2589957      1168.35     1903.684     2525.608     78.39159     155.9153     312.2033      2.142     4.68     863.1367     55.03638     156.0386        16     1.307     0.936 -30.56   0
        21    702.1185   1023.7513 307.6117301  +6.2580011     1724.865     2128.805     2397.572     66.91845     122.8877     233.6448      1.257     3.58     865.6709     55.03638     396.2839        10     1.259     0.425  -3.68  24
        22    611.2684   1023.2656 307.6494613  +6.2551926     1279.993     1820.403     1692.931     72.74802     130.0909     241.3984      1.511     5.83     869.0291     55.03638     175.6645        14     1.423     0.673 -10.82  24
        23    231.5554   1022.7100 307.8071069  +6.2428166     1327.047      1852.25     1825.317     77.39611     137.4103     250.1535      1.588     4.11     863.9792     55.03638      181.903        14     1.115     0.867 -29.62  24
        24      3.0137   1023.4355 307.9019506  +6.2349076     6510.313     8291.561     8497.111     70.30885     118.0604     198.4731      1.273     3.83     859.9393     55.03638     1235.295        17     1.267     0.698  -4.57  24
        25    437.1568    983.0929 307.7230818  +6.2660054     927.7027     1571.763     1651.914     78.26785     156.1637     312.3585      1.771     6.46     867.3095     55.03638     118.1978        14     1.320     0.887 -29.81   0
        26    730.1390    981.0435 307.6015203  +6.2765626     954.7525     1435.272      1260.49     78.26785     156.1637     312.3585      1.589     6.25     865.2769     55.03638      118.562        12     1.136     0.965 -39.92   0
        27    360.6284    979.6140 307.7549677  +6.2649006     1838.793     2857.175     2113.841     77.89545     155.9774     312.1412      1.644     3.94     865.5391     55.03638     264.4343        18     1.316     0.846 -36.96   0
        28    747.2864    969.0987 307.5947993  +6.2820621     6952.353     11996.18     12539.47     78.26785     156.5976     312.2964      1.851     4.36     864.9544     55.03638     808.0713        40     1.632     1.194 -29.47   0
        29    542.8907    969.7057 307.6796343  +6.2750407     4014.406     6854.803       7245.1     78.26785     156.6595     312.2343      1.775     4.34     867.2111     55.03638     518.0161        31     1.589     1.058 -35.90   0
        30    513.4517    970.7070 307.6918224  +6.2736510     1029.576     1545.625      1634.99     78.14391     156.0396     312.4516      1.875     5.92     867.0985     55.03638     115.5438        13     1.313     0.752 -24.76   0
        31    293.0800    968.5771 307.7833783  +6.2672130     13927.54     23060.78     25517.26     77.89544     155.8531     312.2033      1.819     4.28     864.4841     55.03638     1807.431        53     1.957     1.064 -32.38   0
        32    808.8651    968.0892 307.5692681  +6.2845161     976.5541     1501.018     1137.137     78.26785     156.2878     312.2654      1.591     4.02     863.7637     55.03638     131.6037        13     1.067     0.891 -48.83   0
        33    417.3815    968.8549 307.7317671  +6.2712276     850.3456     1440.982     1711.827     77.77091     156.1637      312.017      1.646     5.00      866.665     55.03638       129.52        10     1.268     0.557 -27.62   0
        34    264.5887    966.1746 307.7952863  +6.2672577     883.3458     1429.794     1632.438     77.89544     155.9774     312.1412      2.018     4.08     863.5503     55.03638     154.3921        11     1.093     0.985  10.21   0
        35    908.5790    962.3914 307.5280601  +6.2901648     7170.663     13408.69      14273.1     77.89545     155.9774      312.017      1.972     4.67     861.4631     55.03638      794.118        44     1.784     1.260 -22.43   0
        36    539.9786    961.9653 307.6811016  +6.2781401     7759.729     12688.86     13722.71     77.77091     155.9774     311.9859      1.723     4.37     866.9355     55.03638     940.6205        34     1.646     0.995 -33.57   0
        37   1004.0113    958.0338 307.4885845  +6.2951157      3598.58     7487.257     8219.553     77.77091     155.9774     312.0791      2.128     4.99     859.0264     55.03638     448.3085        41     1.724     1.383 -27.15   0
        38    882.2717    958.6030 307.5391080  +6.2908598     10340.65     19111.99     20875.42     77.77091     155.7909     312.0791      1.994     4.47     862.0154     55.03638     1137.575        55     1.862     1.309 -22.61   0
        39    594.8661    959.3666 307.6584017  +6.2810327     1101.721     1947.481     1950.268     78.14391     156.2258     312.2033      1.842     6.21     866.6805     55.03638      137.179        14     1.480     0.907 -41.22   0
        40    526.6508    957.7654 307.6867749  +6.2794322     3925.909     6640.695     7891.634     78.14391     156.1637     312.1412      1.944     4.15     866.7267     55.03638     498.5736        36     1.723     1.183 -12.85   0
        41    635.9442    956.8743 307.6414311  +6.2834229     1364.382     2342.099     2402.038     78.14391     156.0396     312.1723      1.721     5.88     866.1223     55.03638     166.4103        18     1.547     0.869 -39.50   0
        42     61.5958    956.5721 307.8798755  +6.2644662     931.0168     1558.358     1755.273     77.77091     155.9774     312.0791      1.821     5.11     859.9431     55.03638     127.6984        10     1.199     0.624 -11.40   0
        43    479.5880    954.3115 307.7064282  +6.2792971     2115.302     3340.894     3350.179     78.01978     155.8531     312.1102      1.720     4.89     866.2927     55.03638     267.7791        21     1.531     0.852 -25.50   0
        44    914.0130    946.0984 307.5263458  +6.2970718     36079.03     67277.55     72666.68     78.01978     155.9153      312.017      1.983     4.44     861.1587     55.03638     4120.112        74     1.822     1.382 -30.40   0
        45    221.5015    944.6815 307.8138927  +6.2746990     1640.175      2446.62     2714.598     78.26785     156.5976     312.3275      1.656     5.69      861.559     55.03638     197.4283        14     1.346     0.731 -26.87   0
        46    620.0818    942.7111 307.6484888  +6.2887453     767.5722     943.3824     895.4487     78.01978     156.3498     312.2964      1.414     5.46     865.9142     55.03638     111.3075         8     1.236     0.681 -43.71   0
        47    110.3258    942.9226 307.8601042  +6.2717249     563.8035     925.2128     1839.145     78.51514     156.4118     312.2654      1.680     3.45     860.3594     55.03638     107.9077         5     0.812     0.424 -73.21   0
        48    811.9915    939.9551 307.5689065  +6.2962361     2054.488     3520.728     3661.471     77.77091     156.0396     311.9548      1.818     4.54     863.0164     55.03638     252.3186        25     1.488     1.089 -23.06   0
        49    760.1972    937.8766 307.5904791  +6.2953809     5851.161     10227.66        11338     77.77091     155.6664     312.1102      1.858     4.39     864.2595     55.03638     685.5134        43     1.737     1.213 -32.14   0
        50    547.1588    936.9492 307.6789557  +6.2887072     756.0295     1181.555     1256.014     78.26785     156.1637     312.2343      1.623     4.90     866.1481     55.03638     134.6079        10     1.499     0.624 -33.09   0
        51    229.7671    937.0449 307.8107170  +6.2781269     1413.247     2168.793     2126.436     77.89544     156.1637     312.1102      1.556     4.38     861.5474     55.03638     212.4876        14     1.224     0.767 -25.99   0
        52    193.8561    936.7681 307.8256343  +6.2770465     970.0728     1786.896      2104.25     78.14391     156.1637     312.2033      1.898     6.24     861.1594     55.03638     154.5533        14     1.383     0.852 -26.12   0
        53     54.6212    935.3782 307.8834816  +6.2729843     2647.854     4044.787     4389.468     78.01978     155.9774     312.2343      1.723     4.23     859.5836     55.03638     370.6472        23     1.501     0.918 -26.38   0
        54    948.3629    932.8384 307.5125255  +6.3036815     5538.678     10476.89     11353.56     78.01978     156.0396     312.1102      2.000     4.66      860.247     55.03638     655.5218        39     1.722     1.233 -26.37   0
        55    630.6614    927.5668 307.6446016  +6.2953489     701.0627     1106.076     437.9177     78.01978     156.2258     312.1723      1.402     3.34     865.4399     55.03638     118.9929         5     1.052     0.307 -22.75   0
        56    922.3321    924.4940 307.5236103  +6.3062671     1811.882      3382.26     3698.322     78.14391     156.3498     312.2654      1.934     4.85      860.759     55.03638     202.7979        26     1.549     1.107 -28.72   0
        57    642.8824    920.6647 307.6397580  +6.2986036     4417.019     7309.769     7270.245     78.39159     156.2878     312.2654      1.734     4.25     865.3362     55.03638     598.5581        29     1.551     1.013 -34.21   0
        58    254.9178    921.0997 307.8008097  +6.2855469     4236.796     6735.422     6961.998     78.26785     156.6595     312.3275      1.699     4.39     862.1215     55.03638     525.8112        35     1.723     1.013 -30.19   0
        59    991.8470    919.8127 307.4949046  +6.3104958     604.4902     1270.094      1088.48     77.64618     155.9774     311.9859      1.899     8.12     859.0647     55.03638     92.11871        11     1.622     1.137 -25.92   0
        60    465.2681    919.3148 307.7135420  +6.2932718     1143.542     1860.776      1837.22      78.3916     156.4118     312.2654      1.792     4.82      865.034     55.03638       167.14        14     1.400     0.738 -35.74   0
        61     23.8365    918.4451 307.8968292  +6.2789497     1977.258     3419.878     3844.623     78.01978     156.1637     312.1412      1.869     4.68     858.7363     55.03638     284.9835        23     1.627     0.919 -18.48   0
        62    874.9030    917.1210 307.5435471  +6.3077443     820.6238     1356.672      1047.33     78.01978     156.4118     312.3275      1.635     4.16     861.5675     55.03638     123.5922         9     1.099     0.721 -22.10   0
        63    946.4243    913.7094 307.5139662  +6.3115160     777.0192     1342.532     1134.595      78.3916     155.9774     312.0791      1.976     6.78     860.1443     55.03638     94.85822        14     1.699     0.759 -28.95   0
        64    567.5160    913.2165 307.6712961  +6.2991813     1683.085     2594.089     2414.712     77.89545     155.8531     312.1412      1.640     4.23     865.4213     55.03638     269.7764        17     1.477     0.780 -38.02   0
        65    291.3087    914.3788 307.7859271  +6.2895318      959.335      1686.73     2488.906     78.14391     155.9774     312.0791      1.957     5.41     863.0549     55.03638     146.7508        11     1.332     0.621 -32.45   0
        66    782.0574    920.9848 307.5819659  +6.3030788     944.1016     1608.137     1870.739     77.64618     156.1017     311.9548      1.927     5.46     863.3911     55.03638     138.6071        12     1.332     0.633 -19.30   0
        67     56.1720    910.5295 307.8836712  +6.2832955     643.1727     1257.775     2016.892     78.01978     156.1637     312.1723      2.336     6.17     858.9019     55.03638     87.70258         8     1.595     0.670 -42.08   0
        68    606.4933    909.6212 307.6552339  +6.3019577     1045.413     1905.677     1463.488     78.14391     155.9774      312.048      1.922     6.56     865.2683     55.03638     138.3442        15     1.536     0.787 -28.85   0
        69    286.7833    907.4678 307.7880371  +6.2922349     1478.278      2409.57     3029.631     77.77091     156.1017     312.1412      1.808     3.95      862.696     55.03638     210.6823        18     1.254     0.944 -49.02   0
        70    554.2441    905.5615 307.6770616  +6.3019019     601.2599     978.3158     921.9776     78.01978     156.1017     312.1102      1.722     5.28     865.3019     55.03638     99.66748         8     1.366     0.577 -16.18   0
        71    753.5828    903.2725 307.5943777  +6.3094501     870.2934     1619.586     1850.516     77.77091     156.1017     312.1412      1.903     6.17     863.7211     55.03638     135.5792        12     1.342     0.797  -9.34   0
        72    129.6541    901.9638 307.8534531  +6.2892797     557.9224      1010.08     796.1738     78.14391     156.1637     312.2654      1.960     6.27     860.0095     55.03638     119.3569         9     1.733     0.637 -37.86   0
        73    891.0898    899.7909 307.5374031  +6.3154349     6068.674     10939.27     11274.46     78.01978     155.8531      312.017      1.909     4.31     861.0758     55.03638     737.5841        41     1.698     1.210 -30.82   0
        74    100.8436    898.9689 307.8655139  +6.2895568     508.6654     1047.374     1571.948     77.89544     156.1637     312.1102      1.867     3.97     859.1788     55.03638     77.90857         5     1.323     0.340 -26.50   0
        75    426.9338    897.1279 307.7301982  +6.3011602     2120.856      3398.36     3296.739     78.26785     156.2258     312.2964      1.593     4.16     864.4418     55.03638     322.5887        20     1.463     0.798 -27.12   0
        76    328.5537    895.6089 307.7710926  +6.2985197     9312.624     14624.02     15901.36     77.77091     156.0396     311.8927      1.723     4.12     863.0317     55.03638     1287.706        37     1.624     0.970 -29.16   0
        77    596.2234    896.8451 307.6599239  +6.3068926     612.4443      805.485     482.7243     77.77091     156.1637     312.1102      1.404     3.01     865.1206     55.03638     110.9915         6     0.746     0.613   8.91   0
