#   1 NUMBER                 Running object number                                     
#   2 X_IMAGE                Object position along x                                    [pixel]
#   3 Y_IMAGE                Object position along y                                    [pixel]
#   4 ALPHA_J2000            Right ascension of barycenter (J2000)                      [deg]
#   5 DELTA_J2000            Declination of barycenter (J2000)                          [deg]
#   6 FLUX_APER              Flux vector within fixed circular aperture(s)              [count]
#   9 FLUXERR_APER           RMS error vector for aperture flux(es)                     [count]
#  12 FLUX_RADIUS            Fraction-of-light radii                                    [pixel]
#  13 FWHM_IMAGE             FWHM assuming a gaussian core                              [pixel]
#  14 BACKGROUND             Background at centroid position                            [count]
#  15 THRESHOLD              Detection threshold above background                       [count]
#  16 FLUX_MAX               Peak flux above background                                 [count]
#  17 ISOAREA_IMAGE          Isophotal area above Analysis threshold                    [pixel**2]
#  18 A_IMAGE                Profile RMS along major axis                               [pixel]
#  19 B_IMAGE                Profile RMS along minor axis                               [pixel]
#  20 THETA_IMAGE            Position angle (CCW/x)                                     [deg]
#  21 FLAGS                  Extraction flags                                          
         1     14.8420     58.8518 307.9362420  +6.6319842     756895.8      1816508      1976097     86.05376     171.6985     343.2947      2.287     5.71     1051.379     60.51128     61754.27       414     2.100     1.935  29.05   4
         2    105.6224     19.7075 307.8998408  +6.6512015      8251.38     14690.83     15295.01     86.05376     171.4937      343.124      1.911     4.00     1044.217     60.51128     900.7671        44     1.589     1.339  38.93   0
         3    648.3899     11.6799 307.6745360  +6.6727280     16757.75     27526.21     29614.85      85.6443      171.357     343.1581      1.783     3.75     1016.957     60.51128     1896.351        51     1.603     1.250  26.00   0
         4    272.3871     13.6582 307.8307396  +6.6593055     1290.402     2125.354     2580.785     85.37024     171.6303     342.9874      1.804     5.08     1042.251     60.51128     149.8877        17     1.246     1.027  20.73   0
         5    548.2142      7.6754 307.7163057  +6.6710277     4485.517     7530.749     7520.999     85.50738     171.4254     339.7265      1.774     3.86     1019.786     60.51128     504.3411        30     1.436     1.167  32.48  16
         6    266.4492      8.2271 307.8333908  +6.6613484     1643.865     2899.362      3802.28      85.6443     171.6985     342.6456      1.977     4.85     1042.401     60.51128     165.0417        22     1.314     1.153  -6.37  17
         7     16.0289      6.3588 307.9375259  +6.6536966     1043.175     1562.953     805.5327      85.6443      171.562     329.1813      1.650     5.69     1049.813     60.51128     120.6755        13     1.039     0.987  -9.42  16
         8    634.7103      2.3537 307.6805354  +6.6761209     2716.021     4425.195     5552.218     85.50738     151.9303     275.9739      1.987     6.03     1016.553     60.51128     328.9434        24     1.642     1.188  55.46  24
         9    274.3432      3.7690 307.8302606  +6.6634542     7695.769     13731.53     14504.76     85.91749     167.6938     297.7056      1.903     4.08     1042.089     60.51128     835.6198        44     1.615     1.322  21.53  24
        10    453.7792      3.3807 307.7556989  +6.6696363     19344.08     33730.52     35325.68     85.78101     164.0916     292.0633      1.872     4.05     1022.333     60.51128     1944.969        46     1.613     1.281  15.09  24
        11    931.4361      3.2783 307.5571760  +6.6856538     2024.357     2860.385     2912.856     85.91749     163.2325     290.6558      1.568     4.38      1009.37     60.51128     255.5841        16     1.225     0.852  28.46  24
        12    334.3163      4.2854 307.8053182  +6.6652549     848.9297     1366.816     1171.676     85.78101     171.2202     305.1689      1.745     5.00     1035.088     60.51128     115.7448         9     1.050     0.673  11.04  16
        13     39.7055      3.4220 307.9277858  +6.6557064     2156.811     3359.131      2937.33     86.05376     164.5907     292.8646      1.701     4.11     1047.907     60.51128      237.181        20     1.225     1.074   9.65  24
        14    262.5882      1.5518 307.8352209  +6.6639748     1662.018     2341.591     2877.192     76.84694     139.8007      261.946      1.473     4.35     1042.457     60.51128     268.5199        13     1.330     0.655   2.15  24
        15    977.2305   1002.2312 307.5046669  +6.2747143     864.4469     1391.393     1305.063     85.50738     171.4254     343.0215      1.601     3.91     1052.773     60.51128     137.0355         6     0.783     0.559  45.15   0
        16    911.9076   1022.8621 307.5311046  +6.2640180     852.1251     1155.542     1361.464     83.98651     149.1281      272.298      1.388     3.07     1056.115     60.51128     135.9281         8     0.814     0.671 -43.13  24
        17    716.9921   1023.0115 307.6120465  +6.2574501     4524.722      6035.85     5971.969     82.15283     146.5123     269.5735      1.412     3.42     1062.711     60.51128     700.3085        20     1.322     0.853   6.60  24
        18     18.0151   1022.2155 307.9023358  +6.2343451     13356.46        18870     19475.77     85.78101     157.2362     282.8098      1.481     3.24     1068.272     60.51128     1874.507        33     1.413     0.977  21.15  24
        19    806.4216    999.8160 307.5756853  +6.2700142     7836.001     10625.15     11651.23     85.78101     171.4254     343.2264      1.458     3.02     1058.433     60.51128     1366.293        27     1.302     0.927  30.73   0
        20    904.7185    997.0176 307.5349562  +6.2744495     1917.462     2472.671     1479.873      85.6443      171.357     343.2264      1.377     3.13     1055.474     60.51128     290.1433        13     1.107     0.722  26.35   0
        21    763.2698    994.5100 307.5937842  +6.2707641     875.5147     1527.317     2152.443     85.91749     171.9713     343.2947      2.156     4.75     1060.026     60.51128     163.8206        10     1.297     0.581  87.08   1
        22    226.8652    995.2285 307.8165208  +6.2525060     2222.408     3059.542     2515.146     85.78101     171.6985     343.2264      1.462     3.22     1068.522     60.51128     326.9971        19     1.237     0.903  18.63   0
        23    730.2319    992.2957 307.6075791  +6.2705749      8184.39     11222.53        11391     86.18981     171.4937     343.3971      1.481     3.24     1061.084     60.51128       1101.5        27     1.329     0.916  27.29   0
        24    444.9516    992.4727 307.7260476  +6.2609578     4400.172     6604.419     7048.218     86.05376     171.7668     343.3288      1.637     3.39     1066.292     60.51128     563.4032        26     1.446     0.996  37.84   0
        25    944.5833    992.3267 307.5185572  +6.2777156     567.0201     920.9202     399.5569     85.50738      171.562     343.1923      1.303     4.17      1053.69     60.51128     95.57776         5     1.165     0.427 -52.36   0
        26    586.3718    991.3751 307.6673544  +6.2661455     4319.824     6483.498     7004.364     85.50738     171.4937     343.1581      1.638     3.46     1064.687     60.51128      567.057        25     1.343     0.981  30.92   0
        27    722.6901    991.6071 307.6107343  +6.2706072      1272.17     1807.614     1992.393      85.6443      171.357     343.0557      1.582     3.88     1061.198     60.51128     206.8837        12     1.150     0.836  18.39   0
        28    762.5012    987.8552 307.5943267  +6.2734862      1470.92     2102.504      2427.75     85.91749     171.6985     343.5677      1.499     3.86      1059.75     60.51128     196.1825        15     1.122     0.880  50.30   0
        29    137.0405    984.7969 307.8541740  +6.2537961      3486.12     3462.736     3420.869     85.23287      171.357     343.0215      0.508     2.52     1067.685     60.51128     2366.462         8     0.500     0.379 -67.13   0
        30    969.7232    981.8030 307.5084688  +6.2828989      7889.34     10829.34     11287.84     85.50738     171.1517     343.1581      1.456     3.21     1052.368     60.51128     1303.128        27     1.309     0.932  32.67   0
        31    724.2895    982.6978 307.6103692  +6.2743393     1075.437     1604.582     2283.711     86.05376     172.1756     343.2947      1.599     4.31     1060.753     60.51128     201.2159        10     1.043     0.886  65.15   0
        32    254.3883    981.9507 307.8055390  +6.2589120     1356.834     1979.214     1789.995     85.37024     171.6303     342.9532      1.516     3.86      1068.34     60.51128     213.2081        13     1.210     0.722   8.59   0
        33    729.4668    979.9147 307.6083124  +6.2756614     3194.959      4608.53     4957.842     86.18981     171.9713     343.3288      1.547     3.41     1060.512     60.51128     498.2465        19     1.295     0.835  16.75   0
        34    452.5837    980.7359 307.7232731  +6.2660594      934.234     1273.166     1522.606     85.50738     171.6303     343.1581      1.435     5.01     1065.866     60.51128     148.6274        10     1.251     0.736  21.99   0
        35    745.3065    979.1610 307.6017595  +6.2765017     949.7564     1209.251     1242.226     86.18981     171.6303     343.3971      1.382     3.08     1060.023     60.51128     153.1267         9     0.946     0.682  -4.50   0
        36    376.2003    977.4358 307.7551052  +6.2648623     1925.826     2551.774     2420.704     85.09529     171.4937     343.0898      1.386     3.56     1067.203     60.51128     267.0342        17     1.244     0.835  23.50   0
        37    986.5580    974.7493 307.5017133  +6.2863725     759.1044     1203.837     956.2308     86.18981     171.6985     343.2947      1.730     5.37     1051.457     60.51128     86.57581         8     0.954     0.854 -55.67   0
        38    714.6591    973.8907 307.6146644  +6.2776539     684.1149     845.8308     641.7753     85.91749     171.6985     343.4312      1.316     4.37     1060.517     60.51128     100.8661         5     1.123     0.483  34.70   0
        39    558.5516    967.5955 307.6797075  +6.2750330      4625.51     6822.168     6899.737     85.37024     171.4937     342.9532      1.603     3.37     1064.063     60.51128     659.7086        29     1.327     1.142  41.51   0
        40    528.6340    969.0078 307.6920847  +6.2734485     1152.204     1485.189     1155.325     85.50738     171.4937     343.0557      1.429     5.30     1064.457     60.51128     174.3016        13     1.197     0.831  12.17   0
        41    762.9451    966.9930 307.5948424  +6.2821150     8768.848     12759.16     13233.71     85.50738     171.4937     342.9874      1.497     3.14      1058.92     60.51128     1349.462        34     1.398     1.010  25.48   0
        42    308.8629    966.2634 307.7834458  +6.2672170     15902.39     23644.24     25343.72     86.05376     171.6985     343.3288      1.611     3.22     1067.914     60.51128     2230.448        51     1.621     1.245 -12.88   0
        43      5.3688    967.7319 307.9094290  +6.2564145     809.6363      1117.53     1010.448     85.91749     171.6985     318.6549      1.562     4.72     1069.321     60.51128     101.8447         8     1.026     0.617  16.43  16
        44    824.2468    966.5751 307.5693972  +6.2843343     1353.031     1677.536     1770.939      85.6443     171.6985     343.1581      1.368     3.38     1057.093     60.51128     203.4863        13     1.067     0.817  22.91   0
        45    433.0488    966.9332 307.7318504  +6.2711039     1173.845     1466.031      1602.48     85.91749     171.6303     343.3288      1.358     3.81     1066.029     60.51128      190.559         9     0.940     0.683  22.82   0
        46    280.0469    963.7476 307.7954974  +6.2672889     1018.798     1497.284      1485.82     86.18981     171.6303     343.3288      1.531     4.81     1068.106     60.51128     120.0281         9     1.039     0.631  53.82   0
        47    924.3296    960.3854 307.5280388  +6.2902289     10273.04     14064.06     14980.28     85.50738     171.6303     343.1923      1.473     3.05     1053.437     60.51128     1453.965        29     1.306     0.945  27.48   0
        48    555.6642    959.7628 307.6811700  +6.2781704     8804.124     12984.08      14136.6     85.91749     171.6985      343.363      1.579     3.32      1063.85     60.51128     1283.598        33     1.415     1.026  25.39   0
        49    897.9154    956.6134 307.5391355  +6.2909055     14036.36     19917.85     20613.53      85.6443      171.562      343.124      1.499     3.24     1054.248     60.51128     2234.455        36     1.420     0.971  22.04   0
        50   1019.6649    955.9762 307.4885918  +6.2952270     5791.245     7753.174      7591.74      85.6443     171.6985     318.2502      1.420     3.10     1049.487     60.51128     1030.642        24     1.308     0.871  28.73  16
        51    610.8743    957.0709 307.6583316  +6.2811291     1431.721     1821.865     1624.078     86.32565      171.835     343.3288      1.400     3.47     1062.834     60.51128     197.3141        12     1.091     0.709  11.67   0
        52    541.9891    955.5514 307.6869909  +6.2794516     4435.898     6547.991     7641.448     85.50738      171.562     342.9532      1.640     3.45     1063.953     60.51128     592.9324        24     1.338     0.940  24.20   0
        53    807.8740    954.2394 307.5766108  +6.2888811     631.5587     847.5054     685.8937     85.91749     171.6985     343.3629      1.550     4.68     1057.265     60.51128     95.51965         6     0.965     0.645  63.02   0
        54    652.1270    954.8750 307.6412729  +6.2834153     1454.218     2043.081     1971.287     86.32565     171.9713     343.3629      1.426     4.09     1061.444     60.51128     264.2871        14     1.282     0.750   4.86   0
        55     76.8111    954.1061 307.8802220  +6.2644431     865.6245     1255.196     1095.509     85.78101      171.357     343.0557      1.546     4.71     1068.102     60.51128     114.2198         9     1.342     0.469  26.10   0
        56    495.1849    952.1157 307.7065443  +6.2793033     2296.159     3343.586     2578.459      85.6443     171.4254     343.1923      1.550     3.55     1064.612     60.51128     309.3232        16     1.207     0.828  31.10   0
        57    929.7178    944.1188 307.5263460  +6.2971251     50766.72      70281.7     72420.93     86.05376     171.9713     343.3971      1.466     3.15     1052.688     60.51128     8007.413        58     1.408     1.068  24.37   0
        58      2.7677    944.0723 307.9113091  +6.2660954     3358.385     4457.124     4238.804     85.91749     157.3852      282.644      1.435     3.41     1069.789     60.51128     481.1825        19     1.247     0.892  35.62  24
        59    237.0459    942.4271 307.8140741  +6.2746485     1765.918      2468.66     2214.996     85.50738     171.7668     343.1923      1.404     3.24     1067.767     60.51128     264.4956        13     1.132     0.719  43.26   0
        60    635.9558    940.6196 307.6484679  +6.2887606     976.4893     1091.506      879.987     85.50738      171.562      343.124      1.222     3.38     1061.349     60.51128     153.9396         7     0.831     0.615 -27.76   0
        61    827.6048    937.9024 307.5689641  +6.2962853     2727.941     3754.054     3681.686     85.78101      171.357     342.9532      1.466     3.38     1056.072     60.51128     410.7745        17     1.119     0.931  30.99   0
        62    775.8741    935.8718 307.5905171  +6.2953967     7329.188     10308.32     11239.73     86.32565      171.835     343.3288      1.508     3.35     1057.495     60.51128     1130.481        27     1.350     0.962  24.07   0
        63    245.1095    934.8883 307.8109797  +6.2780319     1544.628     2337.649     2048.946     85.91749     172.2436     343.3971      1.581     4.49     1067.677     60.51128     226.6515        17     1.335     0.994  23.47   0
        64    562.8926    935.0604 307.6789986  +6.2886117     820.7607     1275.553     549.6879     85.91749     171.6985     343.3971      1.636     3.76     1062.903     60.51128     147.3667         7     1.013     0.700  14.34   0
        65    209.8375    934.6960 307.8256342  +6.2769270     962.9032     1369.141     1509.103     86.05376      171.562     343.4312      1.514     4.71     1067.637     60.51128     129.7549         8     0.926     0.678  13.43   0
        66    964.0648    930.8637 307.5125248  +6.3037432     8054.725     11001.86     11380.88     86.05376     171.6985     343.3288      1.428     3.16     1050.881     60.51128     1217.775        26     1.295     0.915  24.90   0
        67     70.3439    933.0367 307.8836195  +6.2729247     2757.841     4134.636     4068.597     85.91749     171.6985     343.3288      1.541     3.15     1068.353     60.51128     471.8982        20     1.213     0.948  23.70   0
        68    646.5151    925.5597 307.6445885  +6.2953318     864.1958     1050.095     202.8926     86.05376     171.6303     343.2606      1.356     3.58     1060.463     60.51128      145.014         7     0.878     0.647 -22.06   0
        69    937.8741    922.5594 307.5236807  +6.3062989     2717.562     3649.513     3649.946     85.91749     171.6985     343.3288      1.407     3.23     1051.645     60.51128     412.5228        18     1.215     0.838  20.32   0
        70    797.3558    919.1406 307.5821566  +6.3030222     1493.168     1914.141     2144.056     85.91749     171.6303     343.3971      1.351     3.79     1056.475     60.51128     268.0548        11     1.170     0.658  26.27   0
        71    658.4908    918.5566 307.6398500  +6.2986237     5102.816     7034.143     6594.768     86.05376     171.6303     343.3971      1.528     3.32     1059.933     60.51128     685.3621        23     1.284     0.967  13.66   0
        72    270.8295    918.7267 307.8008434  +6.2855680      4762.29     6891.651     7286.588     85.91749     171.6985     343.2606      1.597     3.55     1067.542     60.51128     588.7914        24     1.270     0.993  28.01   0
        73   1008.2278    917.9138 307.4946161  +6.3105620     852.9445     1330.684      1494.96     86.18981      171.357      343.124      1.587     4.07     1048.641     60.51128     143.6643         9     1.067     0.961  80.46   0
        74    480.7522    916.9337 307.7137221  +6.2933462     1158.388     1844.497     1478.269     85.91749     171.6303     343.2947      1.576     3.97     1064.311     60.51128     176.7804        10     1.163     0.590  15.28   0
        75     39.4575    916.3951 307.8970083  +6.2787569     2389.483     3466.336       3235.1     85.37024      171.562     342.9874      1.611     3.50     1069.139     60.51128     363.4618        19     1.254     0.923  11.84   0
        76    890.1159    915.1146 307.5437657  +6.3077802     913.8055     1094.447     837.0244     85.78101      171.835     343.3629      1.291     3.88     1052.968     60.51128     188.3931         9     0.987     0.786  52.72   0
        77    982.3129    912.6153 307.5055569  +6.3118862     730.3809      1049.58     1224.503      85.6443     171.4254     343.1923      1.471     4.04     1049.508     60.51128     138.9822         7     1.016     0.459  10.32   0
