#   1 NUMBER                 Running object number                                     
#   2 X_IMAGE                Object position along x                                    [pixel]
#   3 Y_IMAGE                Object position along y                                    [pixel]
#   4 ALPHA_J2000            Right ascension of barycenter (J2000)                      [deg]
#   5 DELTA_J2000            Declination of barycenter (J2000)                          [deg]
#   6 FLUX_APER              Flux vector within fixed circular aperture(s)              [count]
#   9 FLUXERR_APER           RMS error vector for aperture flux(es)                     [count]
#  12 FLUX_RADIUS            Fraction-of-light radii                                    [pixel]
#  13 FWHM_IMAGE             FWHM assuming a gaussian core                              [pixel]
#  14 BACKGROUND             Background at centroid position                            [count]
#  15 THRESHOLD              Detection threshold above background                       [count]
#  16 FLUX_MAX               Peak flux above background                                 [count]
#  17 ISOAREA_IMAGE          Isophotal area above Analysis threshold                    [pixel**2]
#  18 A_IMAGE                Profile RMS along major axis                               [pixel]
#  19 B_IMAGE                Profile RMS along minor axis                               [pixel]
#  20 THETA_IMAGE            Position angle (CCW/x)                                     [deg]
#  21 FLAGS                  Extraction flags                                          
         1      2.2126     53.3415 307.9345322  +6.6325477     10439.99     21369.11     30342.21     90.55453     161.5204     293.8219      2.938     7.36     1235.604     65.02776     1897.442       100     3.474     1.551 -89.22  24
         2     86.3378     15.2259 307.9007822  +6.6511251     3369.767     11980.25     14426.23     92.03669     184.4406     368.8078      2.864     7.66     1229.531     65.02776     565.7272        63     2.196     1.927 -66.93   0
         3    415.8413     14.0787 307.7635234  +6.6626481     795.8752     2935.444     3220.344     92.33027     184.5139     368.9178      2.741    10.32     1214.015     65.02776     122.5271        16     2.038     1.456  42.96   0
         4    627.9966      8.2130 307.6753179  +6.6721661     7094.537     16394.29     20170.78     92.03669     184.1469     368.1468      2.405    10.40     1200.632     65.02776      728.606        50     2.422     1.309  73.14  19
         5    631.0000      7.0022 307.6741075  +6.6727668     5845.394     10165.26     11853.67     91.59456     183.9263     359.8192      1.893     6.69     1200.628     65.02776     847.4153        26     2.015     0.931  80.95  19
         6    528.7031      3.5207 307.7168533  +6.6707870     1820.866     5908.671      6983.07      92.1836     178.2473     316.1821      2.722     9.34      1202.46     65.02776     277.3905        48     2.191     1.646 -22.97  24
         7    253.6462      1.7595 307.8315278  +6.6623049     2614.027     4616.861     6597.045     86.11209     153.7958     285.5541      2.369     7.63      1226.23     65.02776     372.8463        26     2.310     0.801  -8.27  24
         8    433.6905      1.5774 307.7565111  +6.6684117     5321.492     7734.222     8121.904     84.04446     150.8644     281.9777      1.530     4.94     1212.807     65.02776     827.2509        21     1.666     0.698  -1.22  24
         9     20.4137      1.6888 307.9287130  +6.6545040     565.9958     464.0796    -58.51994     85.16404     152.8249     284.1289      1.088     3.50     1233.784     65.02776     106.2173         5     0.762     0.463 -73.94  24
        10     63.9111   1007.7991 307.8762640  +6.2402004     5313.362     11127.32     11982.48     91.59456     183.9263     368.6243      2.136     4.80     1254.702     65.02776     708.5996        46     1.675     1.523 -79.84   0
        11    576.4667    997.8407 307.6631981  +6.2614749     108595.4     229426.3     253626.8     92.47671     184.4406     369.0278      2.191     5.00      1257.88     65.02776     11333.79       101     1.922     1.614 -51.66   3
        12    578.1537    990.7076 307.6627376  +6.2644790     49446.16       104968     114189.8     92.47671     184.4406     369.0645      2.163     5.37     1257.413     65.02776     5039.421        79     1.855     1.536 -31.24   3
        13    210.5889   1000.8718 307.8154318  +6.2479823     2381.233     5157.281     5698.418     91.88955     184.0734     368.7344      2.198     5.44      1258.06     65.02776     285.3182        30     1.511     1.349 -43.17   0
        14    957.4707    996.6017 307.5045982  +6.2746862     748.6135     1211.217     980.8998     91.88955     183.9999     368.6977      1.677     3.75      1253.26     65.02776     97.80042         6     1.016     0.397 -71.14   0
        15    787.3897    994.7618 307.5754792  +6.2697835     5318.289     9983.099        11175     91.74217     184.2938     368.5876      2.031     4.26     1254.775     65.02776     614.5261        41     1.595     1.489 -23.71   0
        16    885.2787    990.6862 307.5348578  +6.2747283     1319.495     2187.309     2177.656     92.33027     184.8802     369.0278      1.777     5.74     1254.023     65.02776     155.7085        15     1.226     0.955 -48.00   0
        17    208.6748    989.5789 307.8166132  +6.2525849     1577.224     3006.648     3465.232      92.0367     184.3672     368.8445      2.073     6.43     1257.605     65.02776      197.509        18     1.479     1.040  74.35   2
        18    711.1625    987.2042 307.6074746  +6.2703655     5250.957     10719.62     12110.87     91.44671     184.2204     368.6977      2.105     4.81     1255.871     65.02776     579.0701        40     1.668     1.360 -62.58   0
        19    425.8969    987.3374 307.7262470  +6.2607836     2355.033     5859.905     7141.748      92.1836     184.6605     368.9912      2.402     6.75     1257.813     65.02776     274.1199        40     1.788     1.569 -31.61   0
        20    703.1449    985.6448 307.6108658  +6.2707426     1077.445     1803.566     2893.555     92.47671     184.5139     368.9178      1.939     6.03     1255.936     65.02776     154.9299         9     1.157     0.885 -12.12   0
        21    743.3860    982.2992 307.5942235  +6.2734671     950.9547     1550.414     2128.133     92.33027     184.2204     368.6243      1.880     7.51     1255.105     65.02776      131.663        12     1.384     1.142 -11.87   0
        22    950.6528    976.5051 307.5081162  +6.2827646     6245.891     10344.65     10710.99     92.33028     184.4406     369.2112      1.781     3.90     1252.315     65.02776     722.3956        37     1.562     1.173 -50.47   0
        23    234.5714    977.3787 307.8062463  +6.2584944      528.877     1475.036     1633.242     91.74217     184.2204     368.8078      1.613     3.71     1257.769     65.02776     82.17261         5     1.420     0.279  44.86   0
        24    710.2385    974.4848 307.6082902  +6.2755912     2030.374     4210.785     5373.213     92.47672     184.4406     368.8811      2.513     5.59     1255.157     65.02776     229.1216        29     1.711     1.163 -36.83   0
        25    567.4611    986.2668 307.6673403  +6.2659571     2879.737     6505.643     7333.046     92.47672     184.4406     368.9178      2.355     5.74     1257.357     65.02776     332.4702        37     1.671     1.485 -39.19   0
        26    357.3641    972.6412 307.7552811  +6.2645640     1070.232     2755.306     3186.335      92.1836     184.5139     368.7344      2.484     8.83      1257.72     65.02776     123.6462        21     1.834     1.188 -65.15   0
        27    726.4538    973.3782 307.6015759  +6.2765892     863.4922     1757.436     1925.031     91.88955     184.5139     368.6977      2.069     6.70     1254.914     65.02776     128.2529        11     1.307     0.962  -1.21   0
        28    743.8952    961.7966 307.5947057  +6.2819569     5626.368     11409.25     12176.11      92.1836     184.1469     368.6243      2.086     4.91      1254.12     65.02776     576.4718        42     1.698     1.378 -48.46   0
        29    539.5370    962.4065 307.6797768  +6.2748848     2644.353     5835.556     7027.316     91.74217     184.2204      368.661      2.390     5.99     1256.491     65.02776     279.8735        38     1.733     1.545 -81.75   3
        30    536.6419    954.7401 307.6812424  +6.2779563     5169.465     12058.63     14390.16     92.47672     184.5139     368.9912      2.407     5.82     1256.134     65.02776     535.0171        48     1.779     1.567 -51.80   3
        31    289.8162    961.4099 307.7837877  +6.2669440     9014.969     21246.68     24461.15      92.1836     184.2204     368.7711      2.355     5.70     1258.033     65.02776     990.5833        64     2.015     1.615 -38.28   0
        32    804.9905    960.6052 307.5693065  +6.2844856     948.0461     1892.355     2244.406     91.74217     184.2204     368.7344      2.098     6.41      1253.06     65.02776     122.8801         9     1.413     0.824 -47.90   0
        33    905.2977    955.0403 307.5277274  +6.2901259     7568.416     12917.76     13363.28     92.47671     184.3672     369.1745      1.835     4.11     1251.986     65.02776     880.5055        39     1.547     1.243 -55.58   0
        34    878.7842    951.3878 307.5388910  +6.2907526       9975.3     18707.72     20402.99     92.33027     184.1469     368.8445      2.008     4.53     1252.346     65.02776     1180.679        52     1.704     1.433 -45.64   0
        35   1000.4816    950.6495 307.4882411  +6.2951073     4708.454     7801.123     7864.236     92.47672     184.5139     368.9545      1.784     3.80     1250.242     65.02776     622.0048        32     1.493     1.163 -70.26   0
        36    523.0151    950.5049 307.6870600  +6.2792512     2534.477     6309.746     7181.026      92.1836     184.2204     368.6977      2.392     6.68     1256.131     65.02776      295.578        43     1.863     1.600 -24.27   0
        37    591.9678    951.7449 307.6583071  +6.2810419     955.9557     1875.165     1517.192     92.33027     184.5139     368.8445      1.964     6.58     1254.723     65.02776     151.2852        11     1.381     0.878 -13.18   0
        38    632.7082    949.3087 307.6414259  +6.2834087     910.9669     1924.658     2451.484     92.47672     185.0997     368.9912      2.441     7.05     1254.068     65.02776     144.3036        12     1.368     1.019 -25.11   0
        39    476.7773    946.6949 307.7064420  +6.2792804     1128.825     2544.177     2454.795     92.47672     184.2938     368.7344      2.234     8.31     1256.681     65.02776     145.4421        17     1.626     1.186  77.49   0
        40    910.5779    938.8381 307.5260764  +6.2969974     35769.35     65372.39      69978.2     92.03669     184.2204     368.6977      1.956     4.28     1251.065     65.02776     4223.481        71     1.740     1.400 -51.44   0
        41    218.3915    937.1664 307.8143517  +6.2745697     1039.699     2235.963     2449.013     91.88955     184.2938     368.7344      2.178     5.68     1255.932     65.02776     170.2173        16     1.478     1.129  25.43   0
        42    756.7780    930.6348 307.5903966  +6.2952644     4504.407     9553.052      11008.8     91.88955     184.2204     368.6243      2.222     5.06      1252.44     65.02776     493.9095        46     1.865     1.411 -59.43   0
        43    808.8273    932.4409 307.5686621  +6.2962527     1716.534     3309.546     3730.245     92.03669     184.2938     368.7344      2.062     5.82     1251.857     65.02776     208.0419        23     1.597     1.043 -33.44   0
        44     51.2717    928.3642 307.8842346  +6.2726019     1822.725     4255.975     4972.856     92.33027     184.5139     368.9178      2.300     6.92     1253.845     65.02776      241.786        28     1.581     1.309 -45.56   0
        45    542.5812    929.2778 307.6796333  +6.2886771     726.1006     1321.136     1129.142     91.88955     184.1469     368.8811      1.866     3.36     1254.532     65.02776     106.1473         5     0.740     0.442 -68.33   0
        46    227.0506    928.8608 307.8110290  +6.2782922     786.9095     1436.858     1868.669     92.47671     184.4406     368.9178      2.033     4.95     1255.718     65.02776     110.8684         8     1.091     0.634  52.38   0
        47    944.8716    925.5902 307.5122441  +6.3036135     5811.952     10478.07     10602.22     91.88955     184.0734     368.6977      1.902     4.37     1249.763     65.02776     680.9506        36     1.616     1.175 -57.24   0
        48    918.7250    917.5114 307.5234049  +6.3060821      1624.15     3095.207     2941.484     92.47672     184.8802     369.0278      1.944     6.53     1249.875     65.02776     251.3787        21     1.572     1.066 -52.39   0
        49    251.8814    913.8760 307.8012001  +6.2853166     2394.072     6045.716     6703.078      92.7689      184.807     369.0278      2.350     6.58     1256.342     65.02776     297.6666        40     1.758     1.598 -50.74   0
        50    639.4781    913.3648 307.6398255  +6.2984888     2731.229     6382.108     7265.696     92.33028     184.5872     368.9545      2.375     5.61     1252.539     65.02776     329.0676        41     1.742     1.553 -51.95   0
        51    778.1829    913.1409 307.5820758  +6.3032074     1029.347     1871.082     1530.637     92.03669     184.3672     368.6243      1.858     5.79     1251.448     65.02776     139.6602        14     1.336     0.988 -52.11   0
        52     20.7742    911.6530 307.8975026  +6.2784837     1296.518      3015.71     3365.344     92.03669     184.6605     368.8078      2.343     7.55     1253.887     65.02776     177.8458        23     1.490     1.456 -56.85   0
        53    942.3300    907.3824 307.5139179  +6.3110536     709.5683     1036.589      445.069     91.88955     184.3672     368.8445      1.611     3.96     1249.004     65.02776     111.8885         5     0.955     0.481   5.03   0
        54    564.0551    905.6398 307.6714937  +6.2991630     1003.352     2236.407     2220.079     92.47671     184.5872     368.8811      2.115     7.59      1253.44     65.02776     126.9182        16     1.518     1.061 -48.54   0
        55    994.9922    904.5687 307.4920835  +6.3139683     684.2483     1392.953     1191.943     91.88955     184.2938      368.661      2.996     6.74     1248.065     65.02776     114.5968         7     1.810     0.703 -56.31   0
        56     54.1525    903.1273 307.8838957  +6.2831275     528.7216     1212.315     1531.342     92.47671     184.5872     368.9178      2.312     4.88      1253.74     65.02776      86.5343         5     1.297     0.520  61.44   0
        57    604.7462    902.4283 307.6546588  +6.3018490     637.1097     1247.455      1187.85      92.1836     184.5872     368.8078      1.794     3.92      1252.65     65.02776     105.2743         5     1.050     0.420  83.21   0
        58    283.4576    899.0679 307.7885561  +6.2924938     782.7325     1786.004     2068.988     92.62292     184.4406     368.8811      2.805     4.26     1256.923     65.02776     102.0632         6     0.988     0.524 -13.09   0
        59    887.5789    892.4963 307.5372204  +6.3153831      5426.45     9918.267     10185.01     92.33028     184.2938     368.6977      1.956     4.58     1249.104     65.02776      649.187        35     1.669     1.208 -45.96   0
        60    425.6909    889.6887 307.7296501  +6.3011302     780.6027     1554.806      1566.08     92.47672     185.0997     369.0278      1.952     7.37     1255.319     65.02776     121.2108        10     2.061     0.739 -66.54   2
        61    422.5676    888.9673 307.7309751  +6.3013239     885.1249     1322.166     669.6429     91.88955     184.2204     368.6243      1.426     4.93     1255.303     65.02776     148.1058         8     1.104     0.659  79.47   3
        62    325.3346    888.5491 307.7714768  +6.2982430     5012.449     13229.39     14774.08     92.33027     184.4406     368.9178      2.434     6.36     1256.665     65.02776     591.2169        51     1.841     1.689 -70.95   0
        63    245.4516    887.5718 307.8047725  +6.2959714     3783.102     10249.46     11661.58      92.0367     184.6605     368.8078      2.475     6.59     1255.878     65.02776     491.8737        51     1.887     1.683 -61.45   0
        64    572.1602    881.5833 307.6689348  +6.3093752     661.6216     1580.302     1410.433     92.03669     184.3672      368.661      2.205     6.19     1252.754     65.02776     121.1986         6     1.679     0.641 -58.97   0
        65    902.4867    877.9853 307.5315032  +6.3218763     745.4479     1453.453     1767.091     92.03669     184.2204     368.7711      1.774     4.34     1248.226     65.02776     101.9965         8     1.197     0.448 -78.49   0
        66    739.7820    871.0197 307.5994928  +6.3193343     1189.547     2588.932      2624.65      92.1836     184.2938     368.8445      2.177     7.43     1250.522     65.02776     139.2157        19     1.538     1.195 -55.97   0
        67    970.6810    866.3297 307.5034992  +6.3289625     1005.219     1680.095     1746.035      92.7689     184.8802     368.9545      1.731     5.95     1246.691     65.02776     135.5992        11     1.162     0.857 -51.53   0
        68    658.2389    864.0262 307.6336859  +6.3195045      1409.29     3195.658     3447.675     92.03669     184.2938     368.7344      2.243     7.75      1251.52     65.02776     206.6135        25     1.640     1.311 -43.22   0
        69    525.0322    865.5662 307.6891030  +6.3144200     686.9319     1210.462     1431.463     91.88955     184.2204     368.6243      1.672     4.14     1253.113     65.02776     123.2531         5     1.074     0.457  64.20   0
        70    199.5686    859.7276 307.8248257  +6.3059402     1188.983     2881.506     2847.794     92.33027     184.5139     368.9178      2.508     8.87     1254.683     65.02776     170.9854        18     1.943     1.131 -66.31   2
        71     54.9145    860.6323 307.8850274  +6.3007138      1766.99     4210.853     4557.363     92.47671     184.2938     368.8445      2.349     6.94      1253.38     65.02776      212.465        31     1.631     1.473 -47.98   0
        72     72.8683    860.0994 307.8775699  +6.3015366     1169.872     2561.655     2775.156     92.47671     184.6605     368.8811      2.174     8.36     1253.122     65.02776     148.9912        20     1.607     1.215 -32.70   0
        73    655.0000    852.9430 307.6354103  +6.3239766     2470.379     3728.714     4490.086     91.59456     184.0734     368.5141      1.577     4.87     1250.682     65.02776     414.5587        14     1.591     0.590 -75.27   3
        74    651.9736    852.5850 307.6366827  +6.3240236     3533.714     6434.566     7303.794     92.03669     184.3672     368.8445      2.021     6.50     1250.723     65.02776     425.0841        29     1.914     1.054 -81.19   3
        75    789.5157    853.4390 307.5793778  +6.3282576     662.2579      1193.91     1116.657     92.47672     184.4406     368.8445      2.025     5.22     1248.419     65.02776     96.38171         5     1.105     0.696 -23.75   0
        76     14.4739    852.0504 307.9021590  +6.3029023     643.7345     1171.955     1633.709     92.47671     184.5872     368.9545      1.905     3.79     1253.373     65.02776     87.09229         6     1.354     0.305 -72.55   0
        77     26.0110    851.0944 307.8973877  +6.3036848     605.8847     1454.457     1149.424     92.03669     184.1469      368.661      2.382     6.30     1253.199     65.02776      88.3551         8     1.767     0.630 -49.18   0
