#   1 NUMBER                 Running object number                                     
#   2 X_IMAGE                Object position along x                                    [pixel]
#   3 Y_IMAGE                Object position along y                                    [pixel]
#   4 ALPHA_J2000            Right ascension of barycenter (J2000)                      [deg]
#   5 DELTA_J2000            Declination of barycenter (J2000)                          [deg]
#   6 FLUX_APER              Flux vector within fixed circular aperture(s)              [count]
#   9 FLUXERR_APER           RMS error vector for aperture flux(es)                     [count]
#  12 FLUX_RADIUS            Fraction-of-light radii                                    [pixel]
#  13 FWHM_IMAGE             FWHM assuming a gaussian core                              [pixel]
#  14 BACKGROUND             Background at centroid position                            [count]
#  15 THRESHOLD              Detection threshold above background                       [count]
#  16 FLUX_MAX               Peak flux above background                                 [count]
#  17 ISOAREA_IMAGE          Isophotal area above Analysis threshold                    [pixel**2]
#  18 A_IMAGE                Profile RMS along major axis                               [pixel]
#  19 B_IMAGE                Profile RMS along minor axis                               [pixel]
#  20 THETA_IMAGE            Position angle (CCW/x)                                     [deg]
#  21 FLAGS                  Extraction flags                                          
         1    731.2140     18.7612 307.6453625  +6.6898563     6590.517     10950.69     11416.42     82.47285     165.1432     330.2864      1.769     4.02     938.1959     58.27051     874.3001        37     1.570     1.129  42.72   0
         2    651.4604     17.9912 307.6785240  +6.6875018     3312.527     5429.073     5492.067     82.20894      165.209     330.3193      1.787     4.21     940.5295     58.27051     428.9905        28     1.588     1.048  42.67   0
         3    353.4774     18.2073 307.8023182  +6.6774082     882.0813      1403.37     1549.393     82.47285     164.8139     330.3851      1.884     6.58     956.1057     58.27051     108.0732        12     1.534     0.793  65.30   0
         4    451.6167     14.1709 307.7616813  +6.6823727      5297.78     9837.312     10917.94     82.47285     165.0774     330.5166      1.960     4.46     944.6914     58.27051     621.4624        40     1.680     1.241  48.89   0
         5     52.6171     13.8655 307.9274558  +6.6690681     7326.192     13187.35     13816.77       82.341      165.209     330.4508      1.925     4.29     966.2308     58.27051     965.0748        44     1.723     1.235  46.73   0
         6    698.9523     13.7166 307.6589359  +6.6908579     735.5068     1172.798      1293.88     82.86714     165.3405     330.5823      1.655     6.69     938.9774     58.27051     113.3427        12     1.405     0.892 -85.72   0
         7    527.5625     11.0911 307.7302320  +6.6861941     870.8309      1294.08     1509.687     82.99816     165.2747     330.6152      1.891     5.97     942.5485     58.27051     131.4855        11     1.423     0.705  45.63   0
         8    348.2460      9.1792 307.8047958  +6.6809589     10833.29     19629.01     21416.35     82.47285     165.3405      330.418      1.944     4.28     956.6669     58.27051     1255.755        50     1.710     1.301  41.21  16
         9    121.8277      9.6977 307.8988438  +6.6731221     2129.714     3841.145     3750.141     82.99816     165.0774     330.5495      1.900     4.41     965.5365     58.27051     282.0447        25     1.453     1.126  38.02  16
        10    113.4651      8.6244 307.9023543  +6.6732832     1356.586     2237.754     2053.012     82.47285     165.3405     330.5166      1.682     3.80     965.8309     58.27051     219.6491        16     1.238     0.929  55.40   0
        11    414.5236      7.2557 307.7773249  +6.6839809     2084.824     3822.727     3758.345     82.86715     165.3405     324.5453      1.839     5.06     947.4752     58.27051     248.1997        23     1.608     0.981  53.00  16
        12    675.2148      2.7620 307.6691661  +6.6945845     9578.285     15333.62     15963.86     82.60449     151.1982     271.9379      1.714     4.43     939.2705     58.27051     1186.579        36     1.599     1.105  33.61  24
        13   1009.4617      3.9688 307.5302500  +6.7052687       708.75     1118.622     1379.604     82.60449     162.9575     289.3974      1.794     5.37     923.7502     58.27051     104.2623        10     1.230     0.662  37.05  16
        14    839.7585      2.2989 307.6008163  +6.7002854     1608.777     2464.933     3200.685     82.07666     145.6343     265.0175      1.718     4.58     933.7687     58.27051     214.2491        14     1.402     0.770  44.67  24
        15    552.7160      2.7734 307.7200612  +6.6904717     1058.863     1678.965     1058.939     82.99816     151.4854     272.0578      1.693     5.76     942.2742     58.27051     139.5563        14     1.325     0.895  72.16  24
        16    275.6458      1.3836 307.8352209  +6.6817345     2311.665     2893.906     2789.349     72.36813     132.0158      249.474      1.177     3.08     964.7042     58.27051     509.5242        12     1.171     0.546  -0.62  24
        17    910.6500      1.2664 307.5713962  +6.7030825     718.7042      880.269     1541.567     71.15686      130.276      247.638      0.918     2.62     932.7547     58.27051     197.0108         6     0.859     0.442  -1.61  24
        18    551.6491    998.3134 307.6870540  +6.2794761     4051.626     6693.882     7000.459     82.86715     165.2747     330.6481      1.778     4.44     983.1005     58.27051     572.3675        30     1.573     1.067  42.58   0
        19    978.9442   1023.3631 307.5088237  +6.2834322     3863.678     5494.466     5475.446     75.88602     136.3879     254.0487      1.440     4.24     972.5313     58.27051     698.4923        19     1.535     0.673   9.62  24
        20    739.0090   1022.5670 307.6084593  +6.2757403     2644.234     3939.891     4394.885       82.341     147.2665     266.7339      1.664     4.65     978.1635     58.27051     432.9447        20     1.455     0.863  27.98  26
        21    732.4201   1023.8329 307.6111522  +6.2749972     563.9387     990.0398     1487.329     68.98598     128.3434     245.6999      1.815     4.66     978.4146     58.27051     96.82507         7     1.396     0.441 -11.95  27
        22    462.5073   1023.3348 307.7232196  +6.2661570     851.3406     1022.191     911.6912     76.02907     136.7061     254.6041      1.257     3.90     983.9713     58.27051     131.6024         7     0.947     0.515  29.51  24
        23    263.4443   1023.3785 307.8058537  +6.2594525     792.1929      1180.05     1172.154     75.45525      135.909     253.6207      1.549     4.43     986.9194     58.27051     120.5672         8     1.252     0.445   9.45  24
        24    661.1230    997.2582 307.6416418  +6.2835803     1377.665     2448.313     2716.201     82.99816     165.3405     330.5166      1.730     5.21     980.7497     58.27051     201.2296        17     1.400     0.911  48.71   0
        25     86.3913    997.0902 307.8802368  +6.2643459     746.4871     880.2114     1220.363     82.47285     165.0116     330.3522      1.423     4.43      988.442     58.27051     172.4845         7     1.275     0.438  63.50   0
        26    816.8968    996.4410 307.5769993  +6.2891310     574.3391     974.4289     1149.715     82.86714      165.209     330.7466      2.052     4.98     976.4647     58.27051     86.68683         6     1.541     0.456  36.44   0
        27    504.9370    994.8527 307.7065624  +6.2793381     2010.013     3475.139     3306.252     82.86714     165.2747     330.5495      1.760     4.70      983.163     58.27051     275.6555        23     1.529     1.077  40.29   0
        28    939.2788    986.8252 307.5265129  +6.2971909     41912.83     69378.45     73198.34     82.60449      165.209     330.5495      1.763     4.23     973.1791     58.27051     5886.301        72     1.731     1.232  48.42   0
        29    345.0187    988.8749 307.7731514  +6.2764371     561.4146     745.6647     411.1209       82.341     165.0774     330.5166      1.533     3.85     986.8906     58.27051     90.77002         5     0.827     0.514  64.04   0
        30     12.0901    986.3683 307.9114419  +6.2662684     3005.624     4983.057     4711.291     82.99816     165.1432     330.5823      1.759     4.31     988.7501     58.27051     436.6979        29     1.743     1.034  55.44   0
        31    246.4667    985.1549 307.8141886  +6.2746601     1637.131     2870.853     3057.429     82.86714     165.2747     330.6152      1.848     5.28     986.7417     58.27051      224.811        17     1.415     0.971  49.39   0
        32    645.4836    983.8930 307.6485828  +6.2885737     812.9931     1457.616     1553.413     82.60449     165.7343     330.7138      1.954     6.68     980.9514     58.27051     113.3156        12     1.215     1.031  66.02   0
        33    785.4416    978.6008 307.5906557  +6.2954436     6307.187      10494.3     11503.13     82.20894     165.0116     330.2535      1.826     4.25     976.7456     58.27051     961.5609        42     1.828     1.263  75.57   0
        34    134.4825    983.4859 307.8607321  +6.2715810     482.2479      976.875     715.2132     82.60449     165.5375     330.6809      2.170     4.84     987.2438     58.27051     102.3958         7     1.865     0.356  45.06   0
        35    837.5043    980.7511 307.5689692  +6.2962971     2236.228     3565.517     3172.107     82.73592      165.209     330.7466      1.692     4.08     976.0717     58.27051     337.4897        21     1.381     1.010  59.77   0
        36    254.8577    977.5413 307.8109616  +6.2780851     1462.072     2405.841     2451.237     82.86714     165.2747     330.6152      1.699     5.37     986.7595     58.27051     213.1832        15     1.355     0.911  57.41   0
        37    572.4169    977.7642 307.6791222  +6.2886551     876.5206     1512.024     1727.953     82.47285     165.1432     330.3522      1.907     5.09     982.3304     58.27051     107.3174         9     1.133     0.646  61.08   0
        38    219.9426    977.2239 307.8254666  +6.2770418     786.9172     1364.605      1845.73     82.47285     165.3405     330.3851      1.951     4.66     986.6582     58.27051     117.7249         8     0.984     0.626 -64.51   0
        39     79.8931    975.7353 307.8836546  +6.2729421     2625.765     3989.575     4130.106     82.73592     165.5375     330.6152      1.658     4.56     988.0479     58.27051     363.9232        23     1.427     1.033  43.03   0
        40    973.6188    973.5605 307.5126996  +6.3038135     6576.616     10712.66     11448.13     82.47285     165.1432     330.3193      1.798     4.54     971.0675     58.27051       946.83        33     1.583     1.071  40.51   0
        41    656.6935    968.5876 307.6444423  +6.2952673     604.7021     1021.939     959.7136     82.60449     165.0774     330.3851      1.620     3.91     980.4937     58.27051     90.73193         6     0.954     0.458  86.45   0
        42    947.3548    965.0327 307.5238888  +6.3064569     1938.908      3125.94     3392.238     82.60449     165.3405      330.418      1.777     4.33     971.8311     58.27051     307.6664        21     1.447     0.899  48.12   0
        43      5.7013    963.6755 307.9148599  +6.2754203     979.9437     1588.631      1889.08       82.341     165.4718     310.4807      1.887     5.93     988.9059     58.27051     149.9429        14     1.424     0.773  53.60  16
        44    668.0780    961.2132 307.6399633  +6.2986929     4414.722     7180.086     7626.324     82.47285     165.0116     330.3851      1.711     4.24     980.2087     58.27051     681.3788        30     1.540     1.048  47.58   0
        45    280.2523    961.3419 307.8009648  +6.2856260     4149.158     6855.769     6983.624     82.86715     165.3405     330.5823      1.764     4.82     986.7734     58.27051     659.9448        31     1.632     1.049  45.81   0
        46    807.0535    961.7891 307.5822463  +6.3031065     1244.531     1624.179     1453.976     82.20894     165.2747     330.2864      1.572     5.69     976.1942     58.27051      201.649        10     1.259     0.725  52.80   0
        47   1017.3071    960.7037 307.4949912  +6.3105795     591.7353     739.4505     1194.037     82.86715     165.8654     327.3787      1.546     3.50      968.926     58.27051      99.4469         5     1.192     0.297  53.84  16
        48    490.6089    960.1232 307.7136773  +6.2931938     1111.052     1632.115     1349.703     82.47285     164.8139     330.3851      1.472     4.13      983.007     58.27051     174.5951        11     1.212     0.742  60.33   0
        49     49.0769    958.7923 307.8970187  +6.2788978      2153.49     3399.371     3786.432     82.47285     164.8139     330.3851      1.669     4.16      988.222     58.27051     295.4657        22     1.370     1.065  51.36   0
        50    900.0273    957.6379 307.5437853  +6.3079284     811.7812     1209.672     1216.101     82.47285     165.1432      330.418      1.549     3.37     973.4695     58.27051     162.9081         5     0.801     0.411  21.20   0
        51    592.8031    953.6238 307.6714690  +6.2993037     1731.966     2759.571     2771.896     82.47285     165.0116     330.3851      1.698     4.77     981.3704     58.27051     281.7495        16     1.469     0.833  39.75   0
        52    631.7611    950.0858 307.6554139  +6.3020698     1171.701     1758.678     1791.226     82.86714     165.3405     330.5823      1.539     5.39     980.6005     58.27051     182.9075        12     1.523     0.654  43.47   0
        53     82.2533    951.3821 307.8834963  +6.2830744     669.4733     993.2022     1493.584       82.341     165.4062     330.3522      1.529     3.38     987.5137     58.27051     115.3744         5     0.742     0.447  18.85   0
        54    311.9754    947.7145 307.7882539  +6.2923176     1477.063     2521.713     2790.875     82.86714     165.0774      330.418      1.915     4.85     986.5684     58.27051     217.0974        22     1.563     1.024  47.42   0
        55    779.2647    944.0655 307.5943770  +6.3094934      868.163      1216.98     723.1464     82.86714     165.3405     330.5495      1.289     3.92     976.6251     58.27051     140.5378         7     0.898     0.666  79.26   0
        56    916.2744    940.4039 307.5376165  +6.3155857     6637.597     11239.36     11200.44       82.341     164.8139     330.4837      1.809     4.53     971.9273     58.27051     1008.777        39     1.703     1.098  43.92   0
        57    452.2709    937.6699 307.7303480  +6.3011761      2192.62     3513.446     3899.564     82.86715     165.4718     330.5495      1.774     3.88     983.2199     58.27051      317.525        22     1.368     1.048  37.64   0
        58    353.8719    935.9884 307.7712553  +6.2985660     9161.804     15116.31     16092.33       82.341     164.9457     330.3851      1.746     4.25     986.0568     58.27051     1198.302        41     1.577     1.162  46.73   0
        59    273.9962    934.9163 307.8044517  +6.2963240     6659.312     10948.49     11538.84       82.341     164.9457     330.2864      1.722     4.13     986.6638     58.27051     926.6333        35     1.632     1.048  42.62   0
        60    602.0800    929.6233 307.6684231  +6.3095222     1222.246      1880.01     2131.922     82.47285     165.0116     330.5495      1.669     5.09     980.6044     58.27051     208.1528         9     1.241     0.589  48.65   0
        61    786.9724    929.2816 307.5916722  +6.3158542     623.8703     924.6644     681.8457     82.73592     165.1432     330.5166      1.514     3.06     976.3712     58.27051     109.5554         5     0.786     0.486  51.91   0
        62    932.8218    926.2499 307.5312198  +6.3219815     989.6666     1441.583      1726.57       82.341     165.4062     330.4508      1.544     4.78     970.5588     58.27051     125.5363         9     0.965     0.670  68.23   0
        63    889.0820    924.9254 307.5494242  +6.3210668       746.53     845.4594     676.5261     83.12897     165.6687     330.6481      1.176     3.97     972.5712     58.27051      112.422         6     0.763     0.592 -44.21   0
        64    430.8190    923.5066 307.7397300  +6.3063026     581.0438      563.996     981.1245     82.73592     165.0774      330.418      1.247     3.65     983.1099     58.27051     88.54486         5     1.026     0.373 -84.36   0
        65    999.8516    921.4370 307.5035508  +6.3262067     764.1364     1197.776     1425.839     82.73592     165.3405     330.5495      1.819     4.42       968.39     58.27051     127.1859         7     1.027     0.541 -77.56   0
        66    768.6208    918.6400 307.5996479  +6.3196333     1446.157     2531.183     2675.636     82.47285     165.1432     330.3522      1.907     5.87     976.1182     58.27051     232.3911        19     1.527     1.024  59.69   0
        67    632.5276    915.5014 307.6562560  +6.3163721     694.5256     839.4451     732.8157     82.60449     165.4718     330.5823      1.524     4.92     979.8889     58.27051     89.36401         6     0.915     0.749 -76.40   0
        68     19.5521    915.8389 307.9107248  +6.2956335     924.5073     995.7878     712.4962     82.73592     165.4062      330.418      1.313     3.60     988.3143     58.27051     160.3165        12     0.994     0.905  37.77   0
        69    999.9379    914.4426 307.5037488  +6.3290970     1143.283     1688.879     2009.531     82.86714     165.2747     330.6809      1.535     3.92     968.1183     58.27051     153.4446        14     1.176     0.851  55.08   0
        70    644.4513    915.3185 307.6513117  +6.3168471     508.2624     635.9404    -90.22879     82.86715     165.3405     330.5823      1.344     3.47      979.705     58.27051      101.304         5     0.779     0.448  70.07   0
        71    554.1586    914.6939 307.6888197  +6.3140787     1042.706     1446.619     1924.754     82.99816     165.2747     330.6809      1.447     3.11      981.342     58.27051      188.498         9     0.887     0.721 -87.28   0
        72    686.9794    911.8640 307.6337709  +6.3196976     2337.514     3633.758     3851.438     82.47285     165.3405     330.4508      1.610     4.32      978.534     58.27051     336.5032        22     1.436     1.009  50.04   0
        73     83.7021    908.0695 307.8843559  +6.3010021     2656.558     4615.469     4435.798     82.73592     165.4718     330.5823      1.820     4.49     986.6919     58.27051     362.9988        25     1.446     1.173  53.48   0
        74    847.9344    908.6347 307.5670533  +6.3264163     786.2399     964.2755     501.2126     82.73592     165.3405     330.6152      1.457     5.30      973.399     58.27051     141.9271         9     1.230     0.644  51.40   0
        75    227.3191    907.0449 307.8247683  +6.3062594      2152.76     3704.094     3620.854     82.86714     165.3405     330.5495      1.783     4.50     986.4952     58.27051     324.5201        23     1.560     0.928  47.06   0
        76    965.5487    907.4692 307.5182601  +6.3308275     900.7339     1259.812     1534.168     82.73592      165.209     330.5495      1.639     4.78     968.9375     58.27051     116.3397         8     1.158     0.559  51.61   0
        77    101.1066    907.2789 307.8771572  +6.3019147     1766.401      2730.74     3224.061     82.60449     165.5375     330.6481      1.716     5.12     986.4039     58.27051     230.9113        16     1.342     0.827  42.27   0
