#   1 NUMBER                 Running object number                                     
#   2 X_IMAGE                Object position along x                                    [pixel]
#   3 Y_IMAGE                Object position along y                                    [pixel]
#   4 ALPHA_J2000            Right ascension of barycenter (J2000)                      [deg]
#   5 DELTA_J2000            Declination of barycenter (J2000)                          [deg]
#   6 FLUX_APER              Flux vector within fixed circular aperture(s)              [count]
#   9 FLUXERR_APER           RMS error vector for aperture flux(es)                     [count]
#  12 FLUX_RADIUS            Fraction-of-light radii                                    [pixel]
#  13 FWHM_IMAGE             FWHM assuming a gaussian core                              [pixel]
#  14 BACKGROUND             Background at centroid position                            [count]
#  15 THRESHOLD              Detection threshold above background                       [count]
#  16 FLUX_MAX               Peak flux above background                                 [count]
#  17 ISOAREA_IMAGE          Isophotal area above Analysis threshold                    [pixel**2]
#  18 A_IMAGE                Profile RMS along major axis                               [pixel]
#  19 B_IMAGE                Profile RMS along minor axis                               [pixel]
#  20 THETA_IMAGE            Position angle (CCW/x)                                     [deg]
#  21 FLAGS                  Extraction flags                                          
         1     42.5681     33.3076 307.9378120  +6.6308465     448896.9      1710860      2722927     94.30364      187.638     375.6495      3.500     9.64     1283.528     66.20775     55207.57       391     3.043     2.527 -80.25   4
         2    944.2007     25.9858 307.5625871  +6.6636408     1350.604     4345.568     5554.571     93.70678     187.4884     375.3506      2.967    10.60       1236.4     66.20775     199.5438        40     2.065     1.712  87.70   0
         3    184.9305     20.2301 307.8789833  +6.6409440     946.1053     2918.394     4771.598     94.00568     187.8621     375.5375      3.518     7.93     1272.088     66.20775     126.5458        17     2.022     0.870 -69.53   2
         4     65.3403     18.0609 307.9288592  +6.6378698     3119.341     12110.45     18369.44     94.15478     187.8621     375.6495      3.377     9.64     1280.843     66.20775     411.9155        87     2.719     2.167 -79.79   0
         5    866.5712     11.9257 307.5954018  +6.6668676      1881.72     6280.852     8484.118     94.00568     187.8621     375.5748      3.024     9.35     1236.253     66.20775     246.2725        57     2.346     1.872  81.90  16
         6    810.3335     13.0301 307.6187847  +6.6645626     1020.518     2890.439     4911.874     93.85635     187.8621     375.5375      3.525     8.16     1236.687     66.20775     147.4763        14     1.745     1.066 -82.51   2
         7    104.4292     10.9237 307.9128297  +6.6421006     1002.192     3157.961     5135.191     94.00568     187.9368     375.6495      3.401     9.20     1275.416     66.20775     136.4218        19     1.863     1.267  44.57  18
         8     49.1581      5.5114 307.9360342  +6.6424915     833.1537     1986.813     2995.806     94.15479     187.7874     350.5386      3.096     7.11     1283.879     66.20775     95.64001         9     1.682     0.843 -51.24  16
         9     46.0789    996.3552 307.9028910  +6.2350750     5357.114     14587.56     17797.77     94.15479     187.8621     375.6122      2.718     6.69     1299.973     66.20775     563.4471        73     2.295     1.847  87.81   0
        10    325.7555   1023.7307 307.7855685  +6.2330818     680.6291      1295.71     1200.764     81.02271     148.1161     281.5691      1.802     4.44     1302.883     66.20775     133.8326         7     1.350     0.416   6.94  24
        11    110.8253    986.5247 307.8762912  +6.2412622     3236.607      9101.26     12344.55     93.70678      187.638     375.5748      2.903     7.49     1299.994     66.20775      320.205        60     2.220     1.819  86.92   0
        12    839.8943    985.4401 307.5729469  +6.2657797     6919.996     17375.25     21172.32     94.30364     187.7874     375.7242      2.610     6.19      1299.99     66.20775     714.1696        64     2.221     1.651 -75.25   0
        13    623.9296    974.4387 307.6631968  +6.2631900     57953.98       180637     329821.6     94.00568     187.8621     375.6869      3.927    11.98     1301.269     66.20775     6322.068       221     4.275     2.004 -77.23   0
        14    257.5684    979.8505 307.8154615  +6.2488649     1265.025     3979.742     5246.274     94.00568     187.9368     375.5375      3.077    10.78     1302.397     66.20775     181.3844        34     2.032     1.595 -61.22   0
        15    834.1549    973.6037 307.5757431  +6.2704568     3348.792     8485.815     10735.43     93.40691     187.4884     375.2011      2.597     6.87     1299.247     66.20775     370.8982        55     2.274     1.540 -85.99   0
        16    473.1105    965.9913 307.7262493  +6.2616866     1638.513     4698.813     6933.141     93.70678     187.4884     375.3133      3.115    10.56     1301.196     66.20775     206.6877        43     2.284     1.760 -84.82   0
        17    932.1425    969.2724 307.5351154  +6.2754595     808.6359     1500.676     1714.529     94.30364     187.8621     375.5748      2.383     6.30     1297.002     66.20775     126.0072         8     1.211     0.920  67.90   0
        18    758.1370    965.9863 307.6076397  +6.2710864     3341.788     8907.682     11733.51     93.55697      187.638     375.4254      2.838     7.25     1299.259     66.20775     332.7058        57     2.185     1.679 -83.42   0
        19    616.0000    965.4788 307.6668059  +6.2666119     1436.717     3307.166      5762.34     93.25662     187.1139     375.2759      3.545     7.19     1301.157     66.20775      184.368        17     2.203     0.658  84.97   3
        20    613.5048    964.9677 307.6678619  +6.2667398     1743.039     3948.486     5743.812     94.30364     187.7127     375.6869      3.176     7.95     1301.195     66.20775     193.9166        21     1.804     0.980  80.48   3
        21    255.3541    968.6865 307.8167697  +6.2533809     799.0716     2119.796     2562.794     94.15479     187.7127     375.6122      2.569     8.03     1301.922     66.20775     119.7513         9     1.773     1.017 -26.22   0
        22    997.4544    955.0709 307.5084246  +6.2834437     4044.301     9046.622     10031.68     94.00568     187.7874     375.5748      2.317     5.57     1296.146     66.20775      434.436        49     1.968     1.467 -85.85   0
        23    756.8895    953.5546 307.6085876  +6.2761560     1405.101     3881.737     5541.677     94.15479     187.7127     375.7615      3.094     9.72     1298.431     66.20775     159.5712        31     1.835     1.744  17.55   0
        24    404.5259    951.1278 307.7553035  +6.2655315      712.717     2031.036     2794.152     94.45227     188.0114     375.6495      2.923     5.04     1300.875     66.20775      128.765         6     1.565     0.460  16.05   0
        25    790.8174    940.5198 307.5949179  +6.2826314     3791.786     10282.39     13269.67     93.70678     187.4884     375.5001      2.799     6.80     1297.073     66.20775     388.6852        61     2.323     1.679 -78.35   0
        26    588.1354    941.5436 307.6792280  +6.2755326     1298.298     2804.136     3867.464     94.30364     187.7874     375.6122      2.363     7.76     1300.934     66.20775     164.0184        19     2.194     0.767 -77.21   3
        27    584.9722    940.3088 307.6805870  +6.2759359     1692.287     4190.218     5823.486     94.30364     187.5632     375.4628      2.794     8.73     1300.904     66.20775      200.046        27     1.998     1.064 -82.40   3
        28    583.7104    933.4217 307.6813500  +6.2787256     3266.067     9888.083     13208.13     94.15479      187.638     375.4628      3.018     7.89     1300.796     66.20775      332.761        66     2.370     1.874 -73.00   3
        29    336.6733    940.3221 307.7839131  +6.2677309     6036.799     17338.63     23833.28     94.45227     188.1605     375.6495      2.998     6.89     1301.033     66.20775     571.2638        83     2.391     1.988 -84.53   0
        30    851.6833    938.3826 307.5696621  +6.2855127     606.2519      1215.29     1684.027     93.70678     187.4884     375.5375      1.896     3.91     1296.657     66.20775     92.74255         5     1.056     0.414 -15.21   0
        31    952.0785    933.9047 307.5280363  +6.2906544     4665.546     11564.82     14251.59     93.85635     188.1605     375.6495      2.612     6.05     1294.926     66.20775     481.6117        60     2.223     1.556 -82.13   0
        32    925.7439    930.1334 307.5391254  +6.2913392     6494.356     16546.01     20578.23     94.30364     187.7874     375.5748      2.640     6.35     1294.774     66.20775     647.5385        71     2.265     1.719 -77.06   0
        33      1.6762    931.3111 307.9236259  +6.2603405     985.1909     1927.123     1901.723     86.70941     155.5981      289.527      2.246     6.85     1300.375     66.20775     167.4875        14     2.252     0.584  81.08  24
        34    637.9027    931.4819 307.6588650  +6.2813099      613.338     1596.966     2014.005     94.00568     188.3096     375.6869      2.475     5.76     1299.328     66.20775     97.54358         7     1.482     0.631  66.42   0
        35    571.8253    929.4554 307.6864330  +6.2799640     1435.454     3284.763     4901.252     93.70678     187.8621      375.388      2.598     7.93     1300.734     66.20775     167.6477        23     2.114     0.831  77.40   3
        36    568.5150    929.0600 307.6878242  +6.2800174     1491.469     2893.608     4280.286     94.30364     187.9368     375.7242      2.580     7.72     1300.734     66.20775     178.6921        20     1.775     0.940  81.01   3
        37    523.5969    925.1473 307.7066519  +6.2801438     826.3798     2649.569     3601.136     93.40691      187.638     375.1264      2.915     9.32     1300.477     66.20775     127.4426        17     1.818     1.333  50.69   0
        38     31.4221    917.8145 307.9117168  +6.2668753     1225.971     3121.899     3570.499     93.85635      187.638     375.5001      2.638     8.40     1299.436     66.20775     172.4069        20     1.813     1.086  64.94   2
        39    957.4801    917.5842 307.5263501  +6.2975412     23487.89     56377.46     68558.61     93.70678     187.5632      375.388      2.565     5.96     1293.854     66.20775     2469.296        97     2.348     1.721 -78.09   0
        40    266.4691    915.2291 307.8139966  +6.2757242     762.7501     1803.648     2745.301     93.85635     187.8621     375.5375      2.374     5.10     1300.248     66.20775     118.7249         8     1.518     0.485 -85.24   0
        41    803.7621    909.2969 307.5906071  +6.2958931     3018.221     8337.283     11037.94     94.15479     187.7127     375.7988      2.965     7.34     1295.082     66.20775     334.6372        61     2.333     1.729 -75.29   0
        42    855.7774    911.0671 307.5688993  +6.2968767     1091.257     2679.899     3385.404     93.70678     187.7874     375.5375      2.507     7.51     1295.103     66.20775     163.9849        18     1.533     1.281 -13.53   0
        43     99.4754    907.6316 307.8837516  +6.2733175     1145.509     2972.849      4969.62     94.00568     187.9368     375.5748      3.192     9.48     1298.343     66.20775     134.6318        25     1.847     1.358 -49.14   2
        44    991.8446    904.3928 307.5125027  +6.3040932     3636.277      8774.09     10696.35     93.55697      187.638     375.2385      2.506     6.79      1292.47     66.20775     396.6549        52     2.194     1.487 -81.83   0
        45    964.7939    896.6709 307.5240260  +6.3063790     1146.969     2457.102      3402.96     93.55697     187.4136     375.5001      2.690     6.77     1292.265     66.20775      204.423        14     1.241     1.037 -88.30   0
        46    298.9220    892.7366 307.8012708  +6.2860442     1575.423     4745.646     6253.335     94.45227     187.9368     375.6122      2.954     8.59       1300.2     66.20775      188.115        48     1.998     1.877 -73.04   0
        47    686.3983    892.1323 307.6400415  +6.2990846     1882.133     5168.207     6211.752     93.55697     187.3387      375.388      2.741     7.99     1296.165     66.20775     200.0857        43     1.984     1.674 -78.07   0
        48     69.4646    889.7426 307.8968609  +6.2796765     934.1409     1878.515     2327.026     94.30364     187.7874     375.6495      2.217     7.57     1297.818     66.20775     108.5496        14     1.685     0.951  88.99   0
        49     65.3580    891.1271 307.8985217  +6.2789712     726.0889     1290.981     1739.472     94.00568     187.9367     375.6495      2.234     4.29     1297.882     66.20775      104.683         5     1.122     0.468  84.07   0
        50    934.4720    871.1851 307.5375224  +6.3158598     3336.418     8346.652     10595.67     93.55697     187.7127     375.4628      2.701     6.96     1291.142     66.20775     351.1534        56     2.241     1.587 -70.31   0
        51    372.4262    867.3568 307.7715606  +6.2989080     3327.794      10528.2     15147.81     93.70678     187.8621     375.5001      3.154     7.89     1299.181     66.20775     364.1604        78     2.497     2.020 -74.24   0
        52    292.3976    866.0515 307.8049103  +6.2967983      2386.94     7568.706      10534.7     93.40691     187.4884     375.1264      3.052     8.39     1299.727     66.20775     263.8787        69     2.411     2.012 -87.42   0
        53    918.8923    868.7338 307.5440907  +6.3163554     10863.71     11166.95     11224.47     94.00568      188.086     375.6122      0.717     1.70     1291.424     66.20775     4184.115        10     0.719     0.445 -68.37   0
        54    785.4407    848.5732 307.6003252  +6.3202534     836.6942     1827.335     2466.557     93.70678      187.638     375.4254      2.061     5.04     1292.078     66.20775     118.8876         9     1.483     0.485 -85.62   0
        55   1017.6883    846.9800 307.5037222  +6.3285444     695.6378     1722.562     2775.852     94.00568     187.5632      369.019      2.877     4.19     1287.301     66.20775     98.25037         6     1.320     0.380  77.93  16
        56    703.4618    843.4078 307.6346214  +6.3196772     889.8638     2286.177     3468.088     93.40692      187.638      375.388      3.203     7.43     1293.535     66.20775     120.2982        14     1.658     0.933 -73.78   0
        57    120.8863    839.4790 307.8772066  +6.3020432     719.2714     1710.673     2181.871     94.00568     188.2351     375.7615      2.384     7.64     1296.471     66.20775     103.4622        10     1.781     0.917 -80.95   0
        58     99.7746    838.9915 307.8860092  +6.3015440      988.923     2513.537     4182.603     93.70678      187.638     375.4254      3.533     9.82     1295.787     66.20775     155.6299        14     1.976     1.359  17.68   2
        59    245.6682    837.6478 307.8253412  +6.3069284     789.1086     2132.211     2773.737     94.15479     187.7874     375.6122      2.462     6.14     1299.105     66.20775      117.772         9     1.515     0.700  17.45   0
        60    701.0000    831.5508 307.6360551  +6.3244705     2151.346     4749.902     6520.575     93.25662     187.2638     375.0516      2.941     7.48     1292.991     66.20775     225.7478        23     2.342     0.899  80.86   3
        61    698.1207    831.8086 307.6372445  +6.3242697      2417.75     5287.906     7476.831     93.70678     187.4136     375.4254      2.847    10.49     1293.119     66.20775      274.478        43     2.406     1.908  89.98   2
        62    936.5747    828.6304 307.5381123  +6.3334231     1332.658      3355.41     4595.801     93.55697      187.638     375.4254      2.792    10.11     1289.274     66.20775       172.11        26     1.892     1.623 -43.60   2
        63    383.0124    825.6807 307.7685976  +6.3163905     5316.708     17393.76     24720.23     93.70678     187.4884     375.4254      3.170     7.84     1297.566     66.20775     518.3268        89     2.521     2.118 -86.45   0
        64    713.0152    816.1951 307.6315844  +6.3311790      540.873     1030.615     1733.876     93.70678     187.4884     375.4254      2.502     3.87     1291.506     66.20775     100.8232         5     0.847     0.507  50.53   0
        65    926.0612    810.3799 307.5431163  +6.3405803     854.9084     2056.667     2224.548     93.70678     187.8621     375.5001      2.572     6.71     1288.883     66.20775     126.2638        10     1.477     0.856  43.98   2
        66    130.5196    810.9437 307.8741878  +6.3140928     905.9308     2439.988     3381.248     94.30364     187.8621     375.6122      3.130     8.36     1295.841     66.20775     133.0381        13     1.675     1.166 -19.98   0
        67    897.3552    811.3350 307.5550308  +6.3392439       762.45     1526.002     2153.332     94.15479     187.7874     375.6122      2.477     4.63     1289.046     66.20775     108.3241         6     0.933     0.653 -50.48   3
        68    897.9144    809.0000 307.5548785  +6.3402222     884.0674     2091.636     2885.916     93.25662     187.2638     375.2011      2.160     5.11     1288.941     66.20775     131.9528         7     1.625     0.454   5.33   2
        69    861.6011    809.2665 307.5699828  +6.3389184     1306.095     3250.612     4112.972     93.25662     187.3387     375.3133      2.554     7.29     1289.056     66.20775     167.8793        23     1.662     1.249  40.80   0
        70    597.9640    800.6068 307.6800057  +6.3337951     109701.4     354511.5     504747.3     93.25662     187.5632     375.3506      3.158     7.67      1293.31     66.20775     10448.59       204     2.761     2.261 -79.50   0
        71    442.3340    803.3751 307.7446811  +6.3275202     2277.165     7739.049     11310.94     93.70678     187.8621     375.5001      3.258     9.00     1295.034     66.20775     264.6165        69     2.513     1.942 -67.20   0
        72    385.6235    801.6760 307.7683418  +6.3263449     3838.258     12753.42     19072.13     93.70678     187.7127     375.5375      3.258     8.36     1296.713     66.20775     406.4758        91     2.575     2.203 -79.22   0
        73    702.8054    798.2045 307.6364544  +6.3382386     1231.743     3541.463     5413.596     93.40691     187.4884     375.4628      3.329     9.32     1290.935     66.20775     152.9003        20     2.093     1.157  89.90   2
        74    935.9443    796.3794 307.5394850  +6.3466608     2500.509     6549.051     8764.312     93.55697     187.8621      375.388      2.774     6.79      1287.86     66.20775     296.4163        51     2.188     1.595 -82.44   0
        75    677.2530    791.6380 307.6473158  +6.3400961      1227.37      2480.95     5017.591     94.00568     187.9368     375.6122      2.792     5.35     1291.786     66.20775     149.1406        11     1.221     0.663 -77.61   3
        76    680.6237    791.1462 307.6459299  +6.3404093     898.8621     1836.376     3419.232     93.55697     187.8621      375.388      3.239     7.58     1291.511     66.20775      146.507        13     1.734     0.926 -78.76   2
        77    669.9820    786.6364 307.6505146  +6.3419126     792.5912      2288.22     4350.117     93.55697      187.638     375.3506      3.905     6.01      1291.56     66.20775     106.9973         7     1.164     0.873  27.68   2
