#   1 NUMBER                 Running object number                                     
#   2 X_IMAGE                Object position along x                                    [pixel]
#   3 Y_IMAGE                Object position along y                                    [pixel]
#   4 ALPHA_J2000            Right ascension of barycenter (J2000)                      [deg]
#   5 DELTA_J2000            Declination of barycenter (J2000)                          [deg]
#   6 FLUX_APER              Flux vector within fixed circular aperture(s)              [count]
#   9 FLUXERR_APER           RMS error vector for aperture flux(es)                     [count]
#  12 FLUX_RADIUS            Fraction-of-light radii                                    [pixel]
#  13 FWHM_IMAGE             FWHM assuming a gaussian core                              [pixel]
#  14 BACKGROUND             Background at centroid position                            [count]
#  15 THRESHOLD              Detection threshold above background                       [count]
#  16 FLUX_MAX               Peak flux above background                                 [count]
#  17 ISOAREA_IMAGE          Isophotal area above Analysis threshold                    [pixel**2]
#  18 A_IMAGE                Profile RMS along major axis                               [pixel]
#  19 B_IMAGE                Profile RMS along minor axis                               [pixel]
#  20 THETA_IMAGE            Position angle (CCW/x)                                     [deg]
#  21 FLAGS                  Extraction flags                                          
         1    174.3725     24.6098 307.8651107  +6.6682069     11053.73     16546.03     16917.66     77.78992     155.7661     311.6873      1.638     3.57     828.4551     54.96182     1676.045        39     1.552     1.025  59.12   0
         2    920.0472     22.4271 307.5553957  +6.6941495     4342.554     6363.485     6640.538     77.78992     156.0142     311.7494      1.539     3.53      816.119     54.96182     739.9008        26     1.408     0.932  61.18   0
         3    984.7880     18.6447 307.5286249  +6.6978760     2122.299     3234.684     3618.997     77.66556     155.7661     311.5322      1.674     3.61     812.9812     54.96182     365.2161        17     1.309     0.805  68.24   0
         4    704.2269     15.1344 307.6453063  +6.6899322     7609.332     11314.59     11884.76     77.78992     155.8902     311.7184      1.556     3.71       818.04     54.96182     1106.111        30     1.436     0.953  60.95   0
         5    624.3524     14.4031 307.6785154  +6.6875550     3791.546     5460.471     5690.592     77.54099     155.7041     311.4081      1.566     3.70     818.9071     54.96182     707.6941        23     1.422     0.844  63.10   0
         6    326.3607     13.6900 307.8023391  +6.6778345     848.1422     1173.638     1693.476     78.16183     155.8902     311.8424      1.537     4.82     827.8571     54.96182      111.811         9     1.012     0.764  55.23   0
         7    424.5315     10.6045 307.7616590  +6.6824109     6601.422     9737.255     10157.51     77.66556     155.5798     311.6253      1.607     3.61     822.7102     54.96182      1047.03        33     1.507     0.985  60.62   0
         8    671.9339      9.9235 307.6588980  +6.6910005     905.3256     1490.715     1533.209      78.2854     156.0142     311.7804      1.621     3.51     818.8133     54.96182     166.7864         8     1.033     0.583  83.02   0
         9    500.3476      7.8580 307.7302540  +6.6860931     1069.675     1547.544     1395.853     78.16183     155.9522     309.7273      1.463     3.95     818.8008     54.96182     179.7278        12     1.128     0.840  66.53   0
        10    321.1144      5.4972 307.8047953  +6.6810400     13360.07     20217.91     21540.99     78.16182     156.3236     290.9303      1.631     3.67     827.8999     54.96182     1865.427        46     1.561     1.125  62.64  24
        11     25.4764     10.1110 307.9274557  +6.6691686      9099.33     13846.05     14698.53     78.16182     156.2618     311.8734      1.615     3.50     828.0758     54.96182      1418.96        39     1.568     1.038  61.08  16
        12     94.6882      5.8448 307.8988482  +6.6732657     2532.961     3825.197     3952.116     78.16183     155.8282     294.4313      1.611     4.35     829.0856     54.96182     360.6623        23     1.427     0.929  57.42  16
        13     86.1124      5.0402 307.9024380  +6.6733085     1484.405     2195.812     2256.203     78.16183     155.8902     286.0381      1.547     3.85     828.8866     54.96182     249.3105        14     1.217     0.784  71.07  16
        14    789.5765      4.6467 307.6101993  +6.6971221     994.7297     1259.995     1065.156     77.78992     155.9522     281.3015      1.464     4.38     816.3106     54.96182     155.8591        10     1.045     0.705  70.22  16
        15    387.3659      3.5534 307.7773372  +6.6840718     2493.284     3664.187     3146.567     77.78992     150.5272     267.5642      1.599     3.72     825.2006     54.96182     413.0927        21     1.447     0.897  58.20  24
        16    648.4423      1.1892 307.6689518  +6.6938181      1976.64     2422.853     2644.112     65.66041     121.4544     232.0821      0.936     1.96     818.6022     54.96182     684.0952        10     1.059     0.392   0.05  24
        17    262.5087   1002.9183 307.7954701  +6.2673139     949.2269     1563.825     1832.979     77.91409     156.1999     311.8734      1.825     4.12     853.3939     54.96182     163.4504        11     1.142     0.770  74.53   0
        18    952.1942   1021.0159 307.5085579  +6.2829718     6027.567      10178.6     10452.96     77.78992     153.6416     273.0712      1.789     3.78     848.7768     54.96182     789.8032        36     1.585     1.162  60.30  24
        19    906.8028    999.4929 307.5281229  +6.2903398     8188.908     13600.73     14340.27     77.66556      155.642     311.5012      1.786     3.73     848.6927     54.96182     1091.643        44     1.644     1.195  66.94   0
        20    880.4194    995.7337 307.5392017  +6.2910094     11801.26     19611.02     20832.27     77.78992     155.9522     311.7184      1.794     3.74     848.8423     54.96182     1529.255        53     1.669     1.297  53.96   0
        21    593.2676    996.4370 307.6583847  +6.2811013     1343.355      2335.96      2605.43     78.03806     155.9522     311.9354      1.965     4.61     852.4873     54.96182     196.0249        16     1.383     0.906  77.41   0
        22   1002.1353    995.2369 307.4886888  +6.2952831     4333.807     7606.037     8053.297     78.03805     155.9522     311.8734      1.882     4.07      846.558     54.96182     614.9265        37     1.626     1.192  54.38   0
        23    524.4225    994.6774 307.6870233  +6.2795179     4253.614     6524.457     6944.921     77.78992     155.7661     311.7494      1.674     3.56     853.9558     54.96182      659.942        29     1.484     1.074  54.62   0
        24    634.2895    994.3451 307.6414257  +6.2833405      1333.92     2152.329     2252.085     78.16183     155.8282     311.9354      1.663     3.51       851.99     54.96182     215.3934        15     1.208     0.849  62.42   0
        25     59.4662    993.3549 307.8800760  +6.2644231     899.3517     1283.397     1303.884     78.16183     155.8902     311.8424      1.670     4.25     848.6921     54.96182     122.3474        10     0.945     0.876  60.02   0
        26    477.7313    991.1450 307.7065248  +6.2794086     2234.278     3198.024     2855.615     78.16183     155.8282     311.7804      1.517     3.86     853.7876     54.96182     380.9467        20     1.390     0.843  66.38   0
        27    912.1199    983.3015 307.5264582  +6.2972020     41299.17     68350.16     73071.47     78.03806     156.3236     311.8424      1.754     3.72      848.206     54.96182     5460.663        76     1.724     1.294  60.41   0
        28    317.3678    984.2300 307.7733277  +6.2768743     508.1617      914.861     657.5695     77.66556     155.7041     311.5322      1.949     5.89     852.7102     54.96182     71.31995         6     1.069     0.913  79.04   0
        29    219.5227    981.7889 307.8140268  +6.2745898     1766.272     2826.176     2928.892     77.78992     155.5798     311.6563      1.642     4.14     852.3743     54.96182      277.424        18     1.388     0.854  69.65   0
        30    107.5698    981.0055 307.8605256  +6.2711425     663.8961     1072.971     1383.854     77.66555     155.7661     311.5943      1.825     4.55     849.5505     54.96182     103.5649         6     1.197     0.493 -87.39   0
        31    758.2269    975.0242 307.5906237  +6.2954697     6515.326      10438.9     11780.67     77.66555     155.7661     311.6563      1.763     3.79     850.1619     54.96182     925.3285        38     1.665     1.200  78.51   0
        32    618.7787    979.8477 307.6483520  +6.2888055     704.9442     961.3035     706.2675     77.78992     155.9522     311.6563      1.325     4.21     851.9545     54.96182     125.7645         6     1.127     0.448 -60.36   0
        33    810.2047    977.1232 307.5689750  +6.2963433     2265.375     3620.191     3778.214     77.78992     155.4555     311.6563      1.758     3.81     848.9407     54.96182     334.7701        26     1.472     1.018  63.31   0
        34    544.9223    974.2264 307.6792013  +6.2886486     902.9482      1413.26     1075.906     78.03805     155.8902     311.7804      1.560     4.48     853.3318     54.96182     151.6304        12     1.278     0.771  63.53   0
        35    227.8649    974.0035 307.8108266  +6.2780846     1521.478     2309.189     2092.226     77.41622      155.704     311.5943      1.528     4.07      852.238     54.96182     252.4204        16     1.393     0.768  55.30   0
        36    192.2639    973.4789 307.8256227  +6.2771026     940.9105     1359.422     1565.689     78.40878     156.0142     311.8114      1.816     5.87     850.9809     54.96182     111.6351        12     1.237     0.783 -72.45   0
        37     52.5466    971.9302 307.8836724  +6.2730342     2578.188     4123.602     3790.472     78.03805     155.8282     311.7494      1.668     4.11     848.0759     54.96182     368.2072        22     1.445     0.919  64.19   0
        38    946.5928    970.0242 307.5125917  +6.3038359     6444.445     10753.29     11191.64     77.66555     155.7661     311.6563      1.768     3.76     847.0278     54.96182     860.8219        38     1.634     1.109  55.71   0
        39    202.9236    966.5419 307.8214319  +6.2803253     738.3778     1250.024     1269.509      78.2854     155.9522     311.7804      2.036     4.31     851.1902     54.96182     123.6552         9     1.128     0.683 -89.26   0
        40    628.6415    964.2782 307.6447810  +6.2955637     772.2856      1334.05     1011.706     78.03806     155.9522     311.8424      1.721     5.66     851.8632     54.96182     147.5378        10     1.248     0.801  57.38   0
        41    920.2982    961.8014 307.5237836  +6.3063515     1792.844     1686.406     1787.082     77.66555     155.7041     311.5012      1.228     4.20     847.4401     54.96182     231.2099        20     1.386     0.936  83.48   0
        42    641.0233    957.7834 307.6398590  +6.2986601     4635.691     6990.164     7255.626     77.91409     155.8282     311.7184      1.586     3.45       851.76     54.96182     703.6014        27     1.468     0.951  62.34   0
        43    779.7972    958.3434 307.5822288  +6.3030783     1334.162     1863.219     2014.392     77.54099     155.7661     311.5012      1.556     3.45     849.4048     54.96182     234.0627        16     1.309     0.790  66.38   0
        44    253.0844    957.7889 307.8009047  +6.2856271      4486.49     6889.965     6974.373     77.78992      155.704     311.6563      1.634     3.52     851.9155     54.96182     630.4973        29     1.441     1.048  66.27   0
        45    990.5342    957.5663 307.4947666  +6.3104474     767.8363      1413.84     1801.329     78.03806     155.9522     311.7804      2.162     6.07     845.3315     54.96182     91.27753        11     1.220     0.848 -88.12   0
        46    463.2775    956.1394 307.7137034  +6.2933745     1162.373      1600.14      1627.98      78.2854     156.0142     311.7804      1.484     4.15     852.8486     54.96182     178.3387        12     1.238     0.676  73.64   0
        47     21.9529    955.1826 307.8969382  +6.2789161     2193.757     3341.371     3573.224     77.66555     155.8902     311.5943      1.636     3.92     847.0435     54.96182     282.2399        20     1.252     0.995  67.38   0
        48    872.6133    954.3555 307.5438298  +6.3078308     943.0354     1363.606     1579.238     77.54099     155.7661     311.5633      1.809     4.31     848.3646     54.96182     160.2556        12     1.203     0.867  55.61   0
        49    944.5659    951.5130 307.5140535  +6.3114102     780.8394     1258.109     1604.558     78.16183     155.8282     311.8114      1.993     6.69     846.4286     54.96182     93.68848        12     1.534     0.819  55.92   0
        50    997.0503    950.5301 307.4922970  +6.3135699     745.7486     1552.396     2029.498     78.03805     155.8902     311.8424      2.347     5.18     844.8717     54.96182      154.403        14     1.543     1.018  72.72   0
        51    565.6824    950.3085 307.6713875  +6.2992192     1757.933     2534.406     2249.531     77.91409     156.1999     311.8734      1.542     3.90     852.4004     54.96182     291.6234        18     1.420     0.845  71.23   0
        52    289.5335    951.6437 307.7859811  +6.2893904     779.7805     1266.631     1453.273     78.16183     155.8902     311.8424      1.736     4.55     852.3936     54.96182      109.679         8     1.306     0.450  54.54   0
        53     55.1078    947.5486 307.8834334  +6.2831856     747.3405     1144.223     1449.888     78.03805     155.8282     311.9973      1.889     3.75     847.6212     54.96182     126.8076         8     0.931     0.738  40.68   0
        54    605.0101    946.7606 307.6551802  +6.3020031     1310.043     1942.051     1854.495     77.54099     155.7661     311.5633      1.456     2.85     851.9978     54.96182     203.4462        11     0.951     0.725  70.07   0
        55    284.5510    944.1979 307.7883006  +6.2922966     1403.837      2578.31     3339.984     77.54099     155.5798     311.4081      2.250     5.07     852.1663     54.96182     241.7048        18     1.551     0.875  64.64   0
        56    552.5129    942.3903 307.6771211  +6.3020462      632.991     677.5244     876.4682     77.78992      155.642     311.6563      1.385     4.41     852.3223     54.96182     101.3749         6     1.092     0.712  45.62   0
        57    751.8205    940.4151 307.5944452  +6.3095429     1027.132     1480.733     1466.601     77.91409     155.7041     311.7184      1.613     3.73     849.6592     54.96182      156.207        10     0.959     0.750  49.93   0
        58    889.3164    936.9786 307.5374780  +6.3155633     6789.487     10910.69     11331.54     77.91409      155.642     311.6873      1.706     3.68     847.6401     54.96182     927.4139        37     1.574     1.118  56.42   0
        59     98.1866    936.2193 307.8659338  +6.2893147      454.946     782.6766     418.9442     77.91409     155.7041     311.7184      1.731     3.88     848.1407     54.96182     68.87292         5     0.980     0.441  45.73   0
        60    594.4133    934.5252 307.6599908  +6.3066988     605.2249     972.2961     833.7872     77.66556     155.7041     311.6253      1.417     3.70     852.0056     54.96182     101.2258         6     0.977     0.403 -71.43   0
        61    425.2695    934.2577 307.7302188  +6.3011312      2130.72     3203.802     3419.314      78.2854     155.9522     311.7804      1.637     3.36     852.3069     54.96182     328.2763        16     1.220     0.808  56.76   0
        62    326.7654    932.3798 307.7711747  +6.2985953     9927.052     15101.71     16128.95     77.66556     155.7661     311.6253      1.633     3.61     852.1791     54.96182     1616.512        42     1.534     1.125  60.01   0
        63    246.7950    931.3007 307.8044092  +6.2963503     7309.045     11081.84     11476.92     77.91409     155.5798     311.4702      1.626     3.74     850.8288     54.96182     1130.353        36     1.485     1.093  57.38   0
        64    574.9412    926.0315 307.6683603  +6.3095521     1249.104      1892.68     2075.365     77.91409     155.9522     311.7494      1.594     3.54     851.8749     54.96182     192.9512        13     1.129     0.779  65.76   0
        65    759.4168    925.5626 307.5917901  +6.3159290     696.8495     1127.011     1024.274     77.78992     155.8282     311.5633      1.766     4.99      849.316     54.96182     106.0328         7     0.923     0.824  35.39   0
        66    904.7179    922.4071 307.5315724  +6.3220940     1010.901     1396.144     1013.073     77.78992     155.5798     311.6563      1.613     3.97     846.7015     54.96182     140.2357        11     0.935     0.854  36.25   0
        67    137.4544    922.4259 307.8500990  +6.2963321     635.5224     1033.788     1331.015     77.78992     156.0761     311.6563      1.752     5.39     848.9552     54.96182     92.25781         7     1.218     0.674  79.47   0
        68    972.4659    917.7984 307.5036000  +6.3262614     799.8072      1277.62     1580.033     77.54099     155.5798     311.5943      1.772     4.79     844.4235     54.96182     122.3738         8     0.971     0.670  82.77   0
        69    565.2821    915.9401 307.6727097  +6.3133941     607.4659     1102.131     1151.687      78.2854     156.0142     311.8424      1.753     3.85     851.6075     54.96182     116.0361         6     1.317     0.323  61.94   0
        70    741.2181    915.0188 307.5996995  +6.3196723     1697.712     2658.436     3409.535     77.91409      155.704     311.7494      1.729     3.90     849.2866     54.96182     246.9368        16     1.353     0.779  53.05   0
        71    616.9926    911.6102 307.6513875  +6.3169161     686.6733     840.0164     211.0882     77.66555     155.7661     311.6873      1.383     4.30     851.1138     54.96182     98.69104         8     0.969     0.662 -76.73   0
        72    605.0844    911.6001 307.6563316  +6.3165209      804.459     965.9635     619.7046     77.41622     155.4555     311.4702      1.400     3.96     851.2326     54.96182     136.9313        10     1.084     0.698  71.21   0
        73    526.4185    911.0316 307.6890092  +6.3141162     1161.981     1671.264     1269.135     77.78992     155.7661     311.6873      1.404     3.36     851.7341     54.96182     197.2095        11     1.075     0.667  55.99   0
        74    659.7800    908.5097 307.6337281  +6.3196307     2700.329      3892.63     4327.446     78.03806     155.7041     311.6563      1.596     3.40     850.4869     54.96182      448.196        22     1.411     0.939  58.14   0
        75   1011.3940    907.6840 307.4877769  +6.3317377     511.1237     612.3346     887.2645     77.78992      155.642     311.6253      1.636     4.11      842.942     54.96182     82.98431         5     0.999     0.483 -85.10   0
        76    972.6381    911.0516 307.5037545  +6.3290525     1136.863     1916.148     2439.269     77.91409     156.0142     311.8114      2.214     5.59     844.1863     54.96182     157.3052        15     1.408     0.838  64.79   0
        77    820.9775    905.4019 307.5669090  +6.3263129     801.4084     1078.552     970.9978     77.78992      155.642     311.5633      1.421     3.46     848.1447     54.96182     116.8318         8     0.815     0.693  74.36   0
