#   1 NUMBER                 Running object number                                     
#   2 X_IMAGE                Object position along x                                    [pixel]
#   3 Y_IMAGE                Object position along y                                    [pixel]
#   4 ALPHA_J2000            Right ascension of barycenter (J2000)                      [deg]
#   5 DELTA_J2000            Declination of barycenter (J2000)                          [deg]
#   6 FLUX_APER              Flux vector within fixed circular aperture(s)              [count]
#   9 FLUXERR_APER           RMS error vector for aperture flux(es)                     [count]
#  12 FLUX_RADIUS            Fraction-of-light radii                                    [pixel]
#  13 FWHM_IMAGE             FWHM assuming a gaussian core                              [pixel]
#  14 BACKGROUND             Background at centroid position                            [count]
#  15 THRESHOLD              Detection threshold above background                       [count]
#  16 FLUX_MAX               Peak flux above background                                 [count]
#  17 ISOAREA_IMAGE          Isophotal area above Analysis threshold                    [pixel**2]
#  18 A_IMAGE                Profile RMS along major axis                               [pixel]
#  19 B_IMAGE                Profile RMS along minor axis                               [pixel]
#  20 THETA_IMAGE            Position angle (CCW/x)                                     [deg]
#  21 FLAGS                  Extraction flags                                          
         1    530.6186     42.2862 307.7221814  +6.6801947     1413.481     3553.514     4312.102     87.09396      174.327     348.9666      2.516     8.37      1051.23     61.53552      151.707        33     2.102     1.292  32.40   0
         2    333.2373     25.0048 307.8048098  +6.6807240     6665.266     16944.47      21339.8     86.53566      174.327     348.8625      2.632     6.49     1065.992     61.53552     630.3334        69     2.364     1.563  34.20   0
         3    660.0288     18.3246 307.6692063  +6.6944093     5720.962     14043.24     17532.71     87.37177     174.6742     349.1402      2.604     7.17     1048.669     61.53552     544.4794        62     2.415     1.445  35.10   3
         4    651.8271     13.8958 307.6727659  +6.6959638     4938.776     11676.25     14900.66      87.6487      174.327     349.0013      2.562     6.61     1048.579     61.53552     539.5854        59     2.370     1.375  37.99  19
         5    824.6249     17.7757 307.6008080  +6.7001257     1026.873     2323.108       3055.1     86.95473     174.3965     349.0013      2.453     6.95     1043.186     61.53552     113.5802        17     1.797     0.753  41.46   0
         6    260.5031     15.3227 307.8353710  +6.6822836     3127.846     8486.884     10870.32     87.09396     174.8129     349.1749      2.785     7.00     1071.428     61.53552     319.3217        64     2.321     1.705  24.38   0
         7    895.3544     15.6494 307.5714800  +6.7033597     878.5971     1891.964     2294.474     87.51035      174.466     349.1402      2.340     6.50     1041.326     61.53552     133.9321        12     1.836     0.645  31.89   0
         8    421.8062     13.9578 307.7683731  +6.6882497     4083.506     10273.27     12541.69     86.95473     174.2575      348.793      2.585     6.97     1059.197     61.53552      418.282        60     2.394     1.502  34.27  16
         9    683.8093     11.4651 307.6595547  +6.6980347      6937.23     21892.23     31558.65     86.95473     174.3965     348.9666      3.160     7.93     1047.726     61.53552      702.052        98     2.607     2.136  -9.75  16
        10    736.9799     12.2992 307.6374252  +6.6994645     1169.124     2557.025     2679.197     87.51035      174.466     348.8625      2.250     7.65     1044.947     61.53552     137.2272        18     1.690     0.970  28.38   0
        11    660.8905      9.7307 307.6691401  +6.6979858      1828.87     4450.603     6248.571     87.51035     174.7435     349.1055      2.932     6.97     1048.367     61.53552     183.7914        37     1.910     1.370  34.04  17
        12    200.0386     10.1807 307.8606777  +6.6823788     666.8459     1950.516     2452.221     87.09396     174.3965      348.793      3.034     5.35     1071.764     61.53552     92.08398         7     1.266     0.639   2.88   0
        13     68.1451      7.1301 307.9156007  +6.6792110     1686.191     4060.445     4498.464     87.51035      174.466     341.7034      2.428     8.81      1074.34     61.53552     196.8367        32     2.065     1.198  36.51  16
        14    158.7020      4.2455 307.8780612  +6.6834420     2610.667     6625.471     8268.077     87.51035     173.7003     309.9436      2.730     7.32     1072.502     61.53552     280.1238        49     2.255     1.507  32.18  24
        15    785.7686      2.3319 307.6174835  +6.7052061     742.0959      1757.11      2129.74     86.67558     154.1879     280.2131      2.470     7.22     1043.151     61.53552     103.3209        11     1.851     0.788  14.29  24
        16    893.6828      1.9353 307.5726397  +6.7089655     936.5172     1728.518     1739.964     83.83298     148.6666     273.4283      1.988     6.82     1040.741     61.53552     133.2069        14     1.558     0.837   5.28  24
        17    461.7137    991.9147 307.7185177  +6.2858625     4073.244     4382.309     4558.646     87.23298     174.8129     349.1749      0.977     3.33     1097.882     61.53552     1196.648         7     0.960     0.376  43.77   0
        18    756.3910   1023.4974 307.5950577  +6.2826587     3014.547     3985.856     4336.166     77.99249     141.1405     265.5142      1.207     3.44     1095.165     61.53552     655.7552        14     1.190     0.711   8.90  24
        19    551.9457   1023.8143 307.6799584  +6.2757079     1043.103     1384.457     2051.413      73.5137     136.0701     259.7003      1.265     3.67     1098.766     61.53552     249.2913         8     1.122     0.434  -0.91  27
        20    550.3342   1018.0791 307.6808224  +6.2780217     5364.419     11965.86     14130.17      87.6487     174.7435     340.0326      2.385     6.88     1098.599     61.53552     632.2338        50     2.165     1.281  39.03  18
        21    302.6599   1023.0685 307.7835155  +6.2676815     6976.895     10236.75     11992.24     83.68831     148.4218     273.4726      1.629     4.50     1099.472     61.53552     1031.795        38     2.036     0.984  -4.08  24
        22    958.8028    989.0712 307.5121535  +6.3036097     4669.087     10105.85     11236.05     86.95473     174.1879     348.9319      2.220     8.12     1088.057     61.53552     574.9304        39     2.130     1.013  32.81   0
        23    933.6796    981.3875 307.5228484  +6.3059462     1348.381     1870.402     2044.426     87.09396     174.2575     348.9319      1.558     3.31     1088.986     61.53552     210.8464        11     1.029     0.692  67.84   3
        24    931.2173    979.7108 307.5239278  +6.3065565     1507.116     2038.575     2372.112     87.23298      174.327     349.0013      1.512     4.35     1089.097     61.53552     214.7375        13     1.143     0.848 -84.76   3
        25    653.4003    976.8564 307.6394151  +6.2984796     2815.795     6375.983     6647.001     86.67558     174.1879     348.7582      2.235     6.67     1095.417     61.53552     302.8123        38     2.115     1.115  31.66   0
        26    265.4178    977.2194 307.8005437  +6.2853620      2635.73      5843.96     6603.635     87.23298     174.3965     349.0361      2.312     6.51     1099.091     61.53552       363.05        38     2.093     1.134  30.38   0
        27    791.8546    977.0041 307.5819038  +6.3030343     944.5057     2042.621     2166.749     86.81526     174.3965     348.7582      2.250     6.48     1092.309     61.53552     192.2366        12     1.748     0.776  39.56   0
        28    476.6415    975.4853 307.7128761  +6.2931439     640.2924      1446.86     1819.549     87.51035      174.466     349.1055      2.517     5.37     1097.515     61.53552     95.06067         6     1.909     0.426  71.72   2
        29     34.2639    974.4990 307.8966372  +6.2787357     1416.515     3146.666     3220.107     87.51035     174.6742     349.1402      2.378     7.65     1098.858     61.53552     194.2319        26     1.996     0.970  40.33   0
        30    886.4891    973.6516 307.5427109  +6.3075695     686.4221     1010.217     1109.553     87.51035     174.3965     349.2443      1.693     5.08     1089.413     61.53552     93.68188         6     1.009     0.722  68.29   0
        31    578.2803    969.2806 307.6708726  +6.2991002     918.9509     2183.039     2265.494     87.78685     174.8822      349.279      2.440     7.60     1096.968     61.53552     129.3071        16     2.163     0.748  36.48   0
        32    617.2579    965.5184 307.6548113  +6.3019544     750.5616     1378.216     815.5721     87.64871     174.6048     349.1402      2.095     6.34      1096.34     61.53552     119.4457        12     1.916     0.589  38.08   0
        33    296.6577    963.0404 307.7880519  +6.2922614     967.4866     1935.283     2429.145     87.51035     174.6048     349.1402      2.432     7.05     1098.879     61.53552     130.5629        14     1.412     0.988  56.40   0
        34     65.1714    964.4179 307.8841451  +6.2839345     579.1005      1148.37     1420.642     87.09396     174.3965     349.0361      2.214     3.54     1098.401     61.53552     96.56226         5     0.800     0.450  17.67   0
        35    901.5035    955.9842 307.5370726  +6.3153630     4886.847     10433.07     10830.62     87.37177      174.327     348.8972      2.165     7.73     1088.318     61.53552     595.7305        40     2.014     1.116  35.87   0
        36    437.3827    953.1619 307.7299405  +6.3010473     1374.672     3132.385     3224.065     87.09396      174.466     348.8277      2.367     8.04     1097.499     61.53552     164.9486        23     1.947     0.934  34.60   0
        37    339.0960    951.8145 307.7708082  +6.2983161     5629.765        12822        14644     87.23298      174.327     348.8625      2.372     6.71     1098.306     61.53552      614.329        54     2.241     1.274  37.60   0
        38    260.6722    951.6489 307.8033856  +6.2957591     3706.344     6534.693     7191.507     87.51035     174.6742     349.1402      1.874     4.15     1098.551     61.53552     425.2646        24     1.396     1.154 -19.50   3
        39    258.3138    949.6486 307.8044332  +6.2965059         4140     6717.854     7574.046     87.51035     174.5354     349.1402      1.784     3.62     1098.479     61.53552     499.4935        28     1.466     1.193  -6.95   3
        40    588.5820    945.2028 307.6674114  +6.3093841     506.9863     956.8802     951.4293     87.09396     174.1183     348.8625      2.017     4.33     1096.143     61.53552     72.19592         5     0.935     0.571  41.47   0
        41    916.8076    940.9053 307.5312262  +6.3220974     865.7121     1554.847     1559.639     87.23298     174.2575     348.8972      1.975     5.46     1087.302     61.53552     138.5521        11     1.320     0.636  34.26   0
        42    752.3197    933.2889 307.5998063  +6.3197641     1041.224     1811.997     2488.156     87.23298     174.8822     349.2096      1.980     4.34     1090.969     61.53552     148.2628        10     1.020     0.782  70.11   2
        43    983.5228    929.4948 307.5039008  +6.3290272     767.3409     1730.883      2947.26     87.23298     174.7435     349.1749      2.622     4.14     1083.187     61.53552      117.498         7     1.002     0.488  -6.79   2
        44    538.1990    929.1736 307.6888823  +6.3143191     748.5219     1412.672     1787.257     87.09396     174.2575     348.8625      2.111     5.35      1096.09     61.53552     124.2474         7     1.023     0.788  74.00   0
        45    672.0400    927.6256 307.6333433  +6.3194254     1451.354     3378.717     3752.779     87.09396     174.3965     348.8625      2.284     8.06     1092.413     61.53552     169.6768        25     2.022     0.897  31.31   0
        46     68.7020    923.8520 307.8840631  +6.3007991     1929.596     4533.702     5710.017     87.37177     174.6048     349.3137      2.466     7.21     1096.948     61.53552     219.7683        31     1.990     1.133  38.92   0
        47    961.7343    924.9304 307.5131055  +6.3301870     478.1089     780.9485      1085.73     87.51035     174.6742     349.1055      1.669     4.98     1084.298     61.53552     82.66687         6     1.511     0.465  28.25   0
        48    951.8501    923.8214 307.5172487  +6.3303161     462.3571     725.1191     981.0419     86.95473     174.6742     348.9666      1.602     5.62     1084.823     61.53552     78.62646         6     1.354     0.657 -82.42   0
        49     87.3713    923.6664 307.8763157  +6.3015021     1062.663     2074.104     2675.725     87.23298     174.5354     349.0361      2.229     5.32     1096.988     61.53552     149.7566        12     1.369     0.678  61.43   2
        50     84.4981    922.0058 307.8775656  +6.3020912     937.1879     1388.468     2301.381     87.23298     174.1879     348.8277      1.820     5.54     1096.973     61.53552     116.1777        10     1.243     0.697 -70.90   2
        51    832.7506    923.7278 307.5667222  +6.3263908     631.5399     1096.292      1248.92     87.51035     174.6742     349.1402      1.860     6.84     1088.479     61.53552     97.74939         8     1.619     0.811  19.53   0
        52    211.2952    921.7789 307.8249109  +6.3064360     1375.709     2893.725     3683.381     87.37178     174.3965     348.8972      2.420     4.46     1097.486     61.53552     195.1587        17     1.342     0.880  67.35   2
        53    666.7825    916.7231 307.6358969  +6.3237510     4321.351     9757.414     10553.17     86.95473      174.327     349.0361      2.286     6.85     1092.332     61.53552     440.0204        44     2.183     1.164  33.99   0
        54     26.4679    914.7559 307.9019143  +6.3031367     798.0569     1626.365     1920.301     87.51035     174.5354     349.1402      2.148     5.65     1096.694     61.53552     155.2986         9     1.899     0.474  61.07   0
        55    904.5226    912.8383 307.5372789  +6.3332757      1840.02     3853.864     4010.254     87.37178     174.6742     349.1055      2.099     7.87     1086.068     61.53552     215.3562        24     1.945     0.891  33.01   0
        56     40.4358    913.8928 307.8961426  +6.3039618     705.3788     1441.459     2060.786      87.6487      174.466     349.2096      2.457     5.08      1096.74     61.53552     114.6805         6     0.990     0.736  31.11   0
        57    349.8347    909.9886 307.7677715  +6.3159421     9619.233     22466.06     26273.11     86.95473     174.3965     348.8972      2.392     6.53     1098.024     61.53552     1008.246        60     2.250     1.329  35.01   0
        58    220.9362    909.9630 307.8213093  +6.3116369      708.332     1749.672     1677.852     87.37177     174.6048     349.1749      2.057     6.84     1097.509     61.53552     109.1552         9     2.086     0.628  30.16   0
        59     84.3292    911.0635 307.8780091  +6.3066027     934.5998     1698.747     1904.582     87.51035     174.6048     349.1749      2.234     5.73     1096.928     61.53552     119.8495        11     1.329     0.697  21.39   0
        60    112.7145    900.2238 307.8665897  +6.3120296     1026.365     1997.703     2462.768     87.51035      174.327     348.9319      2.223     6.11     1097.069     61.53552     123.5382        13     1.461     0.718  53.13   0
        61     96.8102    894.2949 307.8733975  +6.3139437     1442.419     3304.106     4394.555     87.09396     174.1879     348.8625      2.514     7.60     1096.979     61.53552     183.6725        27     1.848     1.110  43.47   0
        62    865.5540    894.2335 307.5540954  +6.3396594      1432.54     2816.906      3286.49     87.09396     174.6048     349.0361      2.070     7.27     1086.194     61.53552     181.7693        20     1.805     0.819  31.39   0
        63    894.6370    894.3949 307.5420095  +6.3405608     1296.499     2851.161     3191.598     86.53567      174.327     348.8972      2.192     7.78     1085.353     61.53552     154.9398        19     1.852     0.914  34.35   0
        64    828.9149    893.6443 307.5693345  +6.3386826     1928.601     4356.899     4692.158     87.51035      174.466     349.0708      2.248     7.35     1087.394     61.53552     223.2086        30     2.017     1.063  33.77   0
        65    564.8833    885.1185 307.6792951  +6.3333975     200881.6     463082.2     533068.4     87.23298     174.8822     349.1749      2.389     6.47     1094.239     61.53552     21650.93       172     2.384     1.516  35.66   0
        66    409.1193    887.6654 307.7439070  +6.3271409     4577.018     10566.11     11275.02     87.78684     174.7435     349.0708      2.352     6.80     1096.533     61.53552     502.8824        47     2.133     1.257  36.94   0
        67    651.6432    887.2100 307.6431867  +6.3354298     764.0798     1691.908     1577.909     86.95473     174.3965     348.8277      2.461     6.69     1091.867     61.53552     107.1542         8     1.861     0.674  69.99   2
        68    352.3718    886.1790 307.7675280  +6.3258562     7411.223     17084.75     19402.98     86.81526      174.327     349.0361      2.353     6.58      1097.81     61.53552     762.4056        58     2.244     1.315  35.96   0
        69    670.7665    882.4719 307.6354042  +6.3380238     2205.969     4949.578     5272.538     87.37178     174.6048     349.0708      2.288     7.61     1091.224     61.53552     229.7958        33     1.969     1.114  35.67   0
        70    903.1260    881.1228 307.5389326  +6.3463226     3530.286     7584.658     9165.902     87.78684     174.8822     349.1402      2.330     6.82     1084.441     61.53552     378.9335        38     2.064     1.133  33.51   0
        71    741.8376    878.6633 307.6060121  +6.3419660     510.1342     938.4566     857.4808     87.51035     174.6048     349.1055      1.964     5.10     1088.468     61.53552     80.16016         6     1.100     0.669  22.12   0
        72    645.5773    876.3113 307.6460761  +6.3397268     2166.275     4545.265     5915.016     87.51035     174.3965     348.9666      2.454     6.87     1091.594     61.53552     261.7128        33     2.113     1.067  36.71   3
        73    638.3939    870.7025 307.6492503  +6.3418026     1405.295     3100.082     5013.538     87.23298     174.1879     348.8625      3.204    10.78     1091.546     61.53552     171.3147        28     1.944     1.665   3.59   2
        74    833.7536    874.9464 307.5679579  +6.3465629     922.9622     2045.504     1772.655     87.51035     174.6048     349.1402      2.270     7.83     1086.461     61.53552     135.5446        18     1.728     0.992  31.21   0
        75    960.2874    873.8271 307.5154354  +6.3512363     679.6708     1248.341     1917.711      87.6487      174.327     348.9666      2.088     5.84     1081.987     61.53552     88.80298         7     1.040     0.924 -38.77   0
        76    332.5945    870.0240 307.7762925  +6.3318635      550.535     1094.708     1529.798     86.95473      174.327     348.9319      2.279     4.85     1097.924     61.53552     78.04468         5     1.415     0.471  84.09   0
        77    921.8334    868.8073 307.5315786  +6.3520294     2119.463     4776.666     5039.371     86.95473      174.466     348.8972      2.241     6.98      1083.14     61.53552      267.377        29     2.014     1.031  34.46   0
