#   1 NUMBER                 Running object number                                     
#   2 X_IMAGE                Object position along x                                    [pixel]
#   3 Y_IMAGE                Object position along y                                    [pixel]
#   4 ALPHA_J2000            Right ascension of barycenter (J2000)                      [deg]
#   5 DELTA_J2000            Declination of barycenter (J2000)                          [deg]
#   6 FLUX_APER              Flux vector within fixed circular aperture(s)              [count]
#   9 FLUXERR_APER           RMS error vector for aperture flux(es)                     [count]
#  12 FLUX_RADIUS            Fraction-of-light radii                                    [pixel]
#  13 FWHM_IMAGE             FWHM assuming a gaussian core                              [pixel]
#  14 BACKGROUND             Background at centroid position                            [count]
#  15 THRESHOLD              Detection threshold above background                       [count]
#  16 FLUX_MAX               Peak flux above background                                 [count]
#  17 ISOAREA_IMAGE          Isophotal area above Analysis threshold                    [pixel**2]
#  18 A_IMAGE                Profile RMS along major axis                               [pixel]
#  19 B_IMAGE                Profile RMS along minor axis                               [pixel]
#  20 THETA_IMAGE            Position angle (CCW/x)                                     [deg]
#  21 FLAGS                  Extraction flags                                          
         1    335.8149     21.3782 307.8047518  +6.6809955      13512.1      20279.7     21789.33     80.69974     161.3352     322.8953      1.638     3.64     914.4637     56.92687     1785.316        43     1.534     1.055 -74.87   0
         2    402.0466     19.3045 307.7772997  +6.6840770     2512.244     3482.253     3160.694     80.82814     161.4637     323.1201      1.492     4.03      908.687     56.92687      316.972        17     1.295     0.801 -72.53   0
         3    662.8264     14.8077 307.6690833  +6.6946806     11457.55     16734.58     17563.02     80.57114     161.3352      322.799      1.540     3.51     899.9178     56.92687     1665.365        38     1.465     0.987 -71.73   0
         4     81.2033     15.4654 307.9107517  +6.6748677     708.6022     1023.902     513.6608     80.18408     161.2709     322.7347      1.324     4.47      918.304     56.92687     133.6591         8     1.415     0.402 -89.87   0
         5    540.6155     14.5075 307.7198792  +6.6907083     1484.475     2179.599     1926.698     80.69974     161.3352     322.8311      1.604     3.84     902.1359     56.92687     201.8205        15     1.215     0.840 -83.97   0
         6    827.5540     14.3497 307.6006436  +6.7003828     1758.398     2809.984     3701.662     80.95634     161.3995     323.0237      1.951     3.97     896.6426     56.92687     274.3414        16     1.194     0.975 -63.70   0
         7    263.2117     11.5881 307.8352524  +6.6825962     6599.906     10454.63     11119.88     80.82814     161.3352     322.8953      1.770     4.09     918.8364     56.92687     929.0085        41     1.765     1.129 -44.14  16
         8    897.6732     12.1870 307.5715768  +6.7036195     1615.177     2292.265     2304.506     80.44232     161.2066     322.7347      1.547     3.70     896.1118     56.92687     225.2504        15     1.205     0.806 -73.43   0
         9    654.4886     10.2621 307.6727013  +6.6962780     9790.054     13859.94     15321.55     80.95634     161.6563     323.0237      1.559     3.58     899.7217     56.92687     1368.979        33     1.502     0.910 -65.18   0
        10    684.4009      9.4006 307.6602999  +6.6976355     9271.838      14272.7        15416     80.31331     161.0779     322.6383      1.642     3.99     899.5524     56.92687     1123.647        26     1.441     0.923 -77.38  19
        11    687.7671      7.0399 307.6589805  +6.6987229     14392.79     21135.89     22074.18     80.69974     161.3352     315.4221      1.553     3.66     899.3873     56.92687     1980.212        34     1.538     1.011 -66.68  19
        12    439.7511     11.9919 307.7618787  +6.6883621     543.3159      714.986     541.9005     80.44232     161.3352     322.6061      1.554     4.79     906.2256     56.92687     79.69147         5     0.960     0.676  61.25   0
        13    424.3604     10.3277 307.7683305  +6.6885324     8517.917     12727.92     13267.92     80.82814     161.5279     323.0237      1.617     3.60     907.2122     56.92687     1145.176        30     1.407     0.974 -69.65   0
        14    739.8824      9.1617 307.6372517  +6.6995917     2006.476     2835.769     3103.043     80.95634     161.5921     322.9274      1.458     4.06     897.8797     56.92687     264.1356        15     1.277     0.743 -71.69   0
        15    203.5042      6.8174 307.8602246  +6.6825568     1105.017     2146.448     2226.429     80.82814     161.3352      313.774      2.103     5.55     918.6839     56.92687     170.3753        20     1.568     1.175 -24.38  16
        16    663.8597      6.1929 307.6689441  +6.6982719     3355.233     4858.882     6238.589     80.31331     161.3995     308.1043      1.577     3.57     899.7332     56.92687     478.3589        22     1.397     0.860 -81.23  17
        17     70.7338      3.2587 307.9155156  +6.6795542     3409.907     4945.746     5041.203     81.08434     153.3606      273.211      1.566     4.08     917.3447     56.92687     441.5385        22     1.387     0.897 -73.98  24
        18    953.0998      2.8064 307.5488580  +6.7093439     961.7126     1252.824     1488.918     80.69974     148.4122     266.4859      1.522     5.31     893.1121     56.92687     149.6866        10     1.229     0.736 -60.86  24
        19    161.1295      1.7679 307.8780038  +6.6832149     3985.252     4744.666     4767.477     75.52203     134.8674     250.2297      1.175     2.55     918.6062     56.92687     765.5161        16     0.959     0.811 -12.18  24
        20      1.1455    998.0577 307.9107259  +6.2665106     972.6477     1249.653     1283.103      67.8553     125.3839     239.6885      1.156     3.41      939.229     56.92687     302.3107         7     1.135     0.350  87.76  24
        21    821.3250   1021.1263 307.5693971  +6.2845084     1171.112     1743.229     1500.208     81.21212     158.8086     281.6954      1.640     4.35     930.0132     56.92687     165.7112        13     1.245     0.808 -83.92  24
        22    760.2570   1021.7915 307.5947320  +6.2821922     8067.237     12094.46     12277.49     80.31331     153.0221     272.2986      1.584     3.68     931.6801     56.92687     1050.599        33     1.436     1.038 -64.54  24
        23    555.7509   1022.2581 307.6796324  +6.2751538     4317.799     6058.547     6285.034     80.95634     147.7118     265.4722      1.544     4.01     935.9455     56.92687     630.9368        23     1.340     0.920 -68.83  24
        24    525.8550   1023.3745 307.6920081  +6.2736909     971.4648     1171.423     1343.802      73.8559     133.0872     247.8144      1.248     3.83     936.2169     56.92687     173.7215         8     0.894     0.682 -23.82  24
        25    430.2313   1021.6529 307.7317706  +6.2711951     1097.607     1500.402     1426.363     80.82814     154.1026     274.2718      1.420     4.39     935.6031     56.92687     156.1809        12     1.210     0.707 -65.04  24
        26    305.9730   1021.0947 307.7833827  +6.2672542     15286.29     23548.38     24562.58     81.08433     158.4818     281.8794      1.645     4.01     937.3424     56.92687     2273.124        47     1.753     1.092 -51.55  24
        27    633.1078    995.6382 307.6484076  +6.2887353     897.9515     1106.574     932.5245     81.08433     161.4637     323.0237      1.389     3.52     933.5436     56.92687     147.6894        11     1.012     0.751 -75.30   0
        28    122.3482    995.9747 307.8604733  +6.2714516      572.759     664.1126     688.1071     80.57114     161.5279     322.8632      1.297     4.37     936.5805     56.92687     100.1609         6     0.849     0.641 -51.44   0
        29    824.8529    992.7372 307.5688855  +6.2963474     2202.093     3552.866     2987.232     80.95634     161.4637     322.9274      1.724     3.74     929.1692     56.92687     299.9565        23     1.356     1.045 -73.12   0
        30    773.0121    990.7688 307.5904780  +6.2954271     6784.721     10548.67     11542.82     80.44232     161.2709     322.8632      1.667     3.77     930.4813     56.92687     979.3391        36     1.605     1.008 -73.72   0
        31    242.5346    989.9090 307.8107759  +6.2779978     1713.472     2453.281     2519.121     80.82814     161.7204     322.9595      1.584     4.16     937.3044     56.92687     252.3579        17     1.350     0.852 -69.01   0
        32    559.9174    989.9019 307.6789917  +6.2886521     875.5191      1394.47     1359.144     80.95634     161.9127     323.0558      1.746     4.29     934.9997     56.92687     154.3511         8     1.129     0.648 -60.95   0
        33    961.2391    985.9165 307.5124806  +6.3037185     6674.888     10869.22     10804.93     80.95634     161.4637     322.8953      1.714     3.95     926.2739     56.92687     869.8673        36     1.531     1.143 -71.90   0
        34    207.8601    988.7015 307.8252139  +6.2773307     711.2354     1157.573     1277.974     80.69974     161.4637      323.088      1.745     4.14     937.1064     56.92687     154.7684         6     1.419     0.345 -47.60   0
        35     67.4967    987.8138 307.8835238  +6.2729745     2893.143     4342.314     4510.952     80.82814     161.2709     322.7347      1.569     4.05     937.3176     56.92687     420.7505        20     1.388     0.779 -68.20   0
        36    935.0872    977.5418 307.5236211  +6.3063032     2141.925     3388.362     3699.402     80.95634     161.5279      323.088      1.678     3.79      927.065     56.92687     299.5914        21     1.443     0.895 -72.53   0
        37    643.6825    979.7966 307.6445496  +6.2956299     791.5059     1097.232     820.4771     80.31331     161.1423     322.6383      1.331     4.47     933.1909     56.92687     126.2676         7     1.074     0.528 -63.47   0
        38    655.7130    973.4319 307.6397682  +6.2986604     4742.839     7154.587      7252.55     81.08434     161.3352     322.9274      1.645     3.97     932.8827     56.92687     673.7554        31     1.528     0.988 -71.55   0
        39    267.9700    973.5642 307.8007667  +6.2856007     4708.064     7078.042     7460.276     80.57114     161.2709      322.799      1.599     3.90     937.2872     56.92687     673.1375        27     1.572     0.847 -75.17   0
        40    794.4818    973.9180 307.5821289  +6.3031021     1313.641     1763.637     2379.147     80.95634     161.7845     323.0558      1.412     4.08     929.4017     56.92687     197.3162        12     1.303     0.604 -60.61   0
        41   1004.9919    973.2413 307.4947371  +6.3104117     777.2806     1138.806     1111.282     80.31331     161.3352     322.7025      1.592     4.21     924.4153     56.92687     101.6495         7     0.757     0.668  -8.18   0
        42    478.0629    971.7298 307.7135924  +6.2934108     1128.067     1635.473     1808.288     80.95634     161.5279     322.9916      1.470     4.03     935.5456     56.92687      174.415         9     1.122     0.622 -69.64   0
        43     36.6283    970.9814 307.8969100  +6.2788843     2412.306     3482.528     3885.014     80.57114     161.3352     322.8953      1.622     3.90     937.7465     56.92687     328.1744        17     1.227     0.871 -71.58   0
        44    887.5353    970.0076 307.5436198  +6.3078260     878.3358     1460.506     1434.288     80.44232     161.2709     322.8311      1.630     4.85     927.5284     56.92687     128.5846         9     1.151     0.607 -76.96   0
        45    304.0797    967.2650 307.7859858  +6.2894146     759.9687     1122.926      1292.18     81.21212     161.5921     322.9274      1.519     4.67     937.2869     56.92687     111.4968         9     1.329     0.465 -64.11   0
        46   1011.4653    965.7221 307.4923011  +6.3137322     939.1714     1612.323     1476.607     81.08434     161.5279     322.9274      1.953     6.08     924.1993     56.92687     120.8413        12     1.457     0.713 -55.81   0
        47    958.8340    966.8464 307.5141189  +6.3115118     736.0856     1111.981     891.0043     80.57114     161.5279     322.8953      1.588     4.47     925.8951     56.92687     109.6425         8     0.864     0.657 -51.38   0
        48    580.7782    966.0170 307.6711337  +6.2992122      1743.49     2635.086      2339.85     80.69974     161.3995     322.8953      1.546     4.12     934.0212     56.92687     244.4081        17     1.228     1.004  73.18   0
        49    619.3967    962.5388 307.6552148  +6.3019418     1326.196     1793.722     1765.456     80.31331     161.2709     322.6704      1.520     4.48     933.2947     56.92687     183.6141        13     1.322     0.637 -66.31   0
        50     69.4521    962.7338 307.8835604  +6.2833946     831.7542      1281.14     1758.368     80.95634     161.4637     322.8953      1.999     5.64      937.057     56.92687     124.0117        11     1.089     0.822 -83.77   0
        51    299.3789    959.8926 307.7881866  +6.2923004     1595.521     2323.922     2586.457     80.82814     161.3352     322.7668      1.613     4.70     937.2913     56.92687     238.3252        14     1.347     0.756 -74.87   0
        52    567.4824    958.2874 307.6769149  +6.3019581     725.8229     945.4901     780.8605     80.69974     161.7204     323.0237      1.446     4.20     934.1187     56.92687     108.2478         7     1.068     0.470 -79.85   0
        53    766.6130    956.6979 307.5942800  +6.3092799     1023.685     1443.461     1296.099     80.82814     161.2709     322.7025      1.572     4.30      929.627     56.92687     163.2075         8     0.989     0.534 -69.49   0
        54    903.9663    952.7206 307.5373769  +6.3155121     7094.952     10956.77     11008.44     80.82814     161.5279     322.9595      1.654     3.52     926.8732     56.92687     948.4396        32     1.461     1.027 -72.68   0
        55    142.0262    954.1534 307.8537168  +6.2893797     508.4521     516.7371     620.0529     80.57114     161.5921     322.8632      1.179     3.75     936.5805     56.92687      91.1106         5     0.800     0.504 -60.76   0
        56    439.8300    949.9312 307.7302028  +6.3011282     2261.005     3418.257     3071.379     80.82814     161.5279     322.9274      1.534     3.85     935.5557     56.92687     312.9656        19     1.376     0.811 -81.23   0
        57    113.3466    951.3916 307.8657185  +6.2895548     492.6324     937.8878     478.9976     80.44232     161.3995     322.6704      1.602     3.41     936.5805     56.92687     93.74915         5     1.020     0.329 -69.14   0
        58    608.4066    950.5908 307.6601804  +6.3065067     596.1646     613.0651     681.9263     80.31331     161.3352      322.799      1.323     4.59     933.4592     56.92687     94.79242         7     0.911     0.656  70.92   0
        59    341.4959    948.2441 307.7710915  +6.2985242     10200.12     14933.14        15618     80.95634     161.4637      323.088      1.561     3.99     937.1574     56.92687     1438.864        34     1.494     0.942 -71.73   0
        60    261.5698    947.1271 307.8043170  +6.2963004     7372.948     11032.61        11219     80.82814     161.5279     322.9595      1.579     3.75     937.2315     56.92687     1132.633        32     1.525     0.936 -72.20   0
        61    773.9738    941.7325 307.5917262  +6.3157048     757.7137     1203.858     1082.466     80.57114     161.3995     322.8632      1.705     4.73      928.965     56.92687     101.8209         8     1.074     0.590 -68.45   0
        62    589.8179    941.5526 307.6682035  +6.3096156     1289.993     1863.869     2626.711     80.44232     161.4637     322.7347      1.639     4.32     933.5842     56.92687     180.5191        12     1.131     0.721 -62.12   0
        63    919.8359    937.9125 307.5312837  +6.3221559       1145.1      1595.36     1694.069     80.95634     161.3995     322.9595      1.597     4.11     926.0276     56.92687     175.5146        12     1.264     0.660 -76.38   0
        64    417.9123    936.8038 307.7397465  +6.3058126      690.837     990.9968     130.5869     80.44232     161.2066     322.6383      1.522     4.80     935.5881     56.92687     97.07916         7     0.939     0.695 -49.57   0
        65    151.9770    936.8063 307.8501715  +6.2968763     474.0476     757.2763     684.7186     80.44232     161.3352      322.799      2.217     4.63     936.5805     56.92687     73.87244         5     1.222     0.498 -70.47   0
        66    876.2488    936.2575 307.5494394  +6.3213835     707.2661     741.0841     274.8616     80.95634     161.5279      323.088      1.313     3.19     927.2502     56.92687     127.8832         7     0.853     0.590 -61.38   0
        67    986.8251    933.5593 307.5036114  +6.3261893     688.5379     1154.386     1544.506     80.57114     161.3995     322.7347      2.237     5.44     924.6024     56.92687     114.0531         8     1.121     0.745 -48.59   0
        68    756.0472    930.9938 307.5995313  +6.3195390     1781.227     2395.513     2805.673     80.44232     161.3352     322.6061      1.476     4.09     929.2256     56.92687     262.1129        14     1.254     0.714 -77.90   0
        69    579.5396    931.4536 307.6728116  +6.3134408     745.3269     931.8007     131.9103     80.95634     161.4637     322.9274      1.455     4.61     933.5002     56.92687     103.1201         8     1.017     0.593 -52.04   0
        70      6.5891    928.0214 307.9108369  +6.2956083     1055.686     1400.983      1214.11     80.57114     161.2709     311.6849      1.425     4.60      937.171     56.92687     163.2318        11     1.196     0.654 -77.29  16
        71    631.3960    927.3876 307.6514149  +6.3168564     637.7455     829.8542     592.2845     80.57114     161.2066     322.8311      1.353     3.44     932.5122     56.92687     93.93896         5     1.103     0.311 -69.10   0
        72    620.0235    927.5802 307.6561309  +6.3163960     905.1171     1257.991     1134.135     80.69974     161.3352     322.8953      1.597     4.70     932.9481     56.92687     121.6942         9     1.109     0.566 -64.41   0
        73    541.1061    926.8333 307.6889267  +6.3140605     1244.427     1421.525     1098.733     81.08433     161.3995     323.0558      1.400     3.80     933.6367     56.92687     187.5685        12     1.194     0.683 -80.10   0
        74    987.3455    926.4481 307.5036338  +6.3291427     1329.212     1922.392     1709.072     80.95634     161.5279     323.0237      1.718     4.21     924.3318     56.92687     182.4919        13     1.275     0.708 -76.00   0
        75    674.6026    924.1746 307.6335811  +6.3196294     2789.015     4160.231     4374.273     80.57114     161.2066     322.7668      1.538     3.61     930.8444     56.92687     393.3504        20     1.426     0.817 -75.57   0
        76     71.1913    920.4493 307.8842690  +6.3009103     2961.037     4696.904     4133.746     80.44232     161.3352     322.6383      1.652     4.57     936.6656     56.92687     398.3388        25     1.551     0.872 -76.18   0
        77    965.1885    922.6152 307.5129634  +6.3299858     717.6067     1203.467     1542.093     80.57114     161.2066     322.8953      1.714     2.80     924.5817     56.92687     110.3271         5     0.719     0.457 -17.51   0
