#   1 NUMBER                 Running object number                                     
#   2 X_IMAGE                Object position along x                                    [pixel]
#   3 Y_IMAGE                Object position along y                                    [pixel]
#   4 ALPHA_J2000            Right ascension of barycenter (J2000)                      [deg]
#   5 DELTA_J2000            Declination of barycenter (J2000)                          [deg]
#   6 FLUX_APER              Flux vector within fixed circular aperture(s)              [count]
#   9 FLUXERR_APER           RMS error vector for aperture flux(es)                     [count]
#  12 FLUX_RADIUS            Fraction-of-light radii                                    [pixel]
#  13 FWHM_IMAGE             FWHM assuming a gaussian core                              [pixel]
#  14 BACKGROUND             Background at centroid position                            [count]
#  15 THRESHOLD              Detection threshold above background                       [count]
#  16 FLUX_MAX               Peak flux above background                                 [count]
#  17 ISOAREA_IMAGE          Isophotal area above Analysis threshold                    [pixel**2]
#  18 A_IMAGE                Profile RMS along major axis                               [pixel]
#  19 B_IMAGE                Profile RMS along minor axis                               [pixel]
#  20 THETA_IMAGE            Position angle (CCW/x)                                     [deg]
#  21 FLAGS                  Extraction flags                                          
         1    185.4631     22.4482 307.8649128  +6.6682530     10461.51     16208.49     17041.39     77.82263      155.398     311.0125      1.709     3.73     828.7758      54.8101     1479.006        42     1.534     1.117 -38.36   0
         2    931.0590     20.2466 307.5551993  +6.6941299      3890.43     6152.519     6783.493     77.94606     155.5217     311.0743      1.712     3.91      812.796      54.8101      518.343        28     1.522     0.962 -42.50   0
         3    467.6968     19.3516 307.7477554  +6.6790055     1813.555      2600.05     2771.079     77.94606     155.4599     311.1052      1.512     4.15     818.2891      54.8101     263.9918        17     1.362     0.774 -48.43   0
         4    731.8230     18.6381 307.6380366  +6.6881411     2007.547     2985.033     2916.877     77.57518     155.2742     310.7651      1.603     3.83     815.0856      54.8101     257.8389        20     1.348     0.925 -39.27   0
         5    995.7932     16.2121 307.5284366  +6.6979543     1869.641     2936.746     2813.837     77.57518     155.3361     310.8579      1.648     4.21      809.441      54.8101     276.5403        20     1.345     0.930 -46.91   0
         6    715.2395     12.9618 307.6451176  +6.6899303     7220.514     10948.56     11535.01     77.69901     155.4599     310.8269      1.603     3.69     815.2479      54.8101     991.2905        29     1.447     0.970 -42.73   0
         7    635.4094     12.1932 307.6783127  +6.6875776     3775.699     5963.819     6370.436     77.45116     155.3361      310.796      1.687     4.07     816.2162      54.8101     513.4476        24     1.408     0.906 -43.51   0
         8    337.3378     11.5250 307.8021809  +6.6778643     1057.312     1627.052     1705.107     78.19234     155.5217     310.9506      1.712     5.78     826.3635      54.8101     130.7034        13     1.230     0.766 -43.05   0
         9    435.5781      8.4269 307.7614679  +6.6824391     6074.655     9671.115     10150.16     77.45116     155.3361     310.9197      1.725     3.93     820.0326      54.8101     869.8784        34     1.493     1.079 -34.91  16
        10    391.3113     10.5111 307.7797900  +6.6800939      673.701     893.5848     978.1014     77.69901     156.0154     311.0434      1.582     3.90     822.9307      54.8101     110.2625         5     0.960     0.488 -40.20   0
        11     36.5982      7.9788 307.9272494  +6.6692184     8160.393     12995.31     13232.86     77.57518     155.2123     309.1523      1.682     3.83     828.1149      54.8101     1067.628        39     1.548     1.123 -48.06  16
        12    682.5032      7.3715 307.6589072  +6.6911437     919.6229      1033.83     1129.266      78.0693     155.2742     305.9955      1.396     5.08     815.8286      54.8101     133.7228        10     1.150     0.636 -44.54  16
        13    511.2437      5.6275 307.7301237  +6.6861309     954.3972     1140.613     1392.343     77.57518     155.5835     291.2846      1.409     4.46     817.0289      54.8101     132.3998        10     1.087     0.668 -42.05  16
        14    332.1244      3.4296 307.8046197  +6.6810315     12615.94     19988.47     21341.66     77.82263     149.3412      265.453      1.718     3.72     826.6669      54.8101     1630.402        46     1.611     1.145 -38.42  24
        15    427.0503      4.0629 307.7651580  +6.6839548     781.1421     1257.201     1546.399     77.94606     153.8437     273.6205      1.595     5.68     820.5609      54.8101     123.6524        10     1.296     0.800 -65.77  16
        16    105.8171      3.8151 307.8986319  +6.6732671     2424.798     3815.972     3773.721     77.69901      152.084     270.2977      1.660     3.72     828.2807      54.8101     327.2648        22     1.413     0.930 -49.08  24
        17     97.1349      2.3643 307.9022881  +6.6735739     1559.316     2247.378     2589.142     77.32694     137.6858     250.0879      1.604     5.14      828.234      54.8101     201.2704        15     1.165     0.923 -45.43  24
        18    801.1272      1.9868 307.6097989  +6.6973317     770.7106      1094.92     1161.441     74.54175     132.7808     244.2145      1.481     5.46     813.6414      54.8101     114.0328        10     1.072     0.786 -22.18  24
        19    398.2184      1.7700 307.7772144  +6.6839345     1839.529     2403.289     2532.691     72.44893     129.7044     240.8853      1.340     3.67     822.4821      54.8101     292.1821        11     1.029     0.675 -25.83  24
        20    466.4339      1.4266 307.7488831  +6.6863636     512.9421     778.5626     704.2434     68.77303     124.9478     235.3952      1.582     4.19     818.1175      54.8101     81.98749         5     1.017     0.493   2.51  24
        21    535.8106    992.6099 307.6867631  +6.2794588     3668.447     6246.165     6583.345     77.57518     155.3361     310.9197      1.810     4.00     851.5483      54.8101     491.8766        31     1.613     1.065 -32.94   0
        22    756.2131   1023.6389 307.5942194  +6.2740167     658.6213     846.1733       929.29     67.50327     123.7107     234.2489      1.180     4.03     849.3107      54.8101     121.4216         7     0.977     0.476   4.22  24
        23      2.0188    994.8213 307.9082921  +6.2606332     502.0672     752.9048     329.8903     75.18381     133.3587     244.7257      1.286     4.64     849.2307      54.8101     76.54608         7     1.110     0.550 -56.87  24
        24    645.3711    991.8410 307.6413029  +6.2834413     1298.535     2021.145     1978.502     77.57518      155.398      310.796      1.717     4.48      850.473      54.8101     183.6952        13     1.342     0.764 -38.50   0
        25     70.7159    991.4077 307.8798887  +6.2643530     760.2615     1273.141     1434.258     77.57518     155.2123      310.796      1.774     5.67     849.0681      54.8101     120.2005         9     1.341     0.676 -55.52   0
        26    488.8494    988.9667 307.7063821  +6.2793908     1998.508     3309.304     3551.781     77.82263     155.5217     310.8888      1.772     4.30      852.121      54.8101     255.9207        21     1.447     0.896 -37.37   0
        27    923.3268    981.1415 307.5262598  +6.2971395      36753.2     66515.46     72710.92      78.0693     155.5217     310.9197      1.970     4.08     844.8972      54.8101     4190.974        85     1.798     1.482 -39.52   0
        28    329.0089    982.3837 307.7729628  +6.2767521     506.5038      704.514     239.5906     77.69901     155.2742     310.8269      1.654     4.89     851.6904      54.8101     71.56189         5     1.203     0.564 -50.06   0
        29    230.5723    979.5195 307.8139256  +6.2746317     1530.717     2526.504     2907.084     77.82263     155.3361     310.9506      1.827     4.75     849.9283      54.8101      191.074        18     1.433     0.878 -53.70   0
        30    629.5275    977.6746 307.6483557  +6.2887605      802.886     1375.776     1530.033     78.19234     155.7687     310.9815      1.902     4.85     850.5129      54.8101     121.7187         8     1.175     0.736 -63.35   0
        31    769.5033    972.8673 307.5904018  +6.2954229     5980.493     9981.291     11263.88     77.94606     155.5835     310.9815      1.847     4.00     847.7047      54.8101     768.7244        40     1.681     1.197 -53.98   0
        32    821.3592    974.7905 307.5688077  +6.2963601     2185.769     3727.969     4070.349     77.32694     155.3361     310.6723      1.853     4.19     846.7859      54.8101     283.1901        25     1.418     1.139 -64.47   0
        33    556.0851    972.4590 307.6790220  +6.2884571     855.4393     1259.606     1572.031     77.94606     155.5217     311.0434      1.710     5.54     850.8461      54.8101     119.3552        11     1.342     0.712 -71.39   0
        34    238.9216    971.9182 307.8107153  +6.2780503     1373.327     2467.223     2577.605      78.0693     155.7687     311.0743      1.900     5.20     849.9274      54.8101     194.9587        20     1.546     0.865 -42.30   0
        35    203.4674    971.7402 307.8254402  +6.2769335     834.9993     1353.985     1329.876      78.0693     155.4599     310.9506      1.731     5.70     849.5616      54.8101     124.4637        10     1.403     0.652 -52.26   0
        36     63.7949    969.8174 307.8834899  +6.2730340      2651.43     4234.017     4493.199     77.57518     155.1504      310.796      1.742     3.85     848.2148      54.8101     355.9709        27     1.625     1.026 -36.60   0
        37    957.6724    967.9037 307.5124425  +6.3037502     5515.289     10312.84     11187.45     77.69901      155.707     310.9197      2.000     4.21     843.2538      54.8101     671.0209        44     1.676     1.315 -42.16   0
        38    213.1819    964.3705 307.8216554  +6.2803023     541.1882     922.5851     1038.002     77.57518     155.3361     310.8888      1.808     2.82     849.4143      54.8101      94.0733         5     0.722     0.455  16.89   0
        39    640.0089    962.4575 307.6445143  +6.2953937     697.5594     954.7568     651.6617     77.32694     155.4599     310.6723      1.770     5.50     849.9625      54.8101     85.15613        10     1.202     0.709 -51.92   0
        40    931.5598    959.5875 307.5235623  +6.3063133     1854.831     3138.474     2963.185     77.45116     155.3361     310.7341      1.792     4.30     844.1113      54.8101     214.8508        24     1.436     1.069 -39.94   0
        41    652.1191    955.4969 307.6397198  +6.2986725     4228.194     6791.674     6630.742     77.82263     155.8304     310.9815      1.696     3.94     849.6401      54.8101     551.4846        28     1.538     1.004 -43.08   0
        42    790.9390    955.8174 307.5820729  +6.3031781     1258.981     1806.629     2311.446     77.57518     155.4599     310.7651      1.547     4.71     846.7945      54.8101     144.8389        16     1.197     0.942 -39.52   0
        43    264.2575    955.5867 307.8007466  +6.2856433     3949.421     6453.303     6826.522     77.32694      155.398     310.6723      1.713     4.23     850.0875      54.8101     541.4772        28     1.493     1.029 -45.08   0
        44   1000.8103    955.6732 307.4949406  +6.3102375     557.1597     829.7693     1033.154     77.45116     155.1504     310.8269      1.570     4.33     841.5674      54.8101     103.6365         5     1.029     0.520 -50.20   0
        45    474.6823    953.6531 307.7134498  +6.2934963     1048.975     1838.212     1814.381     77.94606     155.5217     311.0125      1.875     5.98       850.78      54.8101     130.9358        12     1.388     0.725 -35.49   0
        46     33.2063    952.9973 307.8967559  +6.2789496     1782.895     3217.773     3777.735     77.32694     155.2123     310.8269      1.893     4.82      847.524      54.8101     217.5949        21     1.509     0.875 -42.44   0
        47    883.7521    951.2750 307.5436897  +6.3081510     807.2757      1332.95     1220.566     77.82263     155.5835     310.9506      1.816     5.81     845.1649      54.8101     111.4159        11     1.308     0.726 -60.12   0
        48    300.3273    949.0422 307.7859919  +6.2895556     820.5757     1362.313     1617.444     77.82263     155.5835     310.9815      1.640     5.58     850.4719      54.8101     111.6927        10     1.253     0.701 -60.23   0
        49    954.7488    949.1329 307.5142838  +6.3114028     647.4331     1092.858     967.1589     77.82263      155.398     310.9506      1.309     3.91     843.1018      54.8101     118.3439         5     1.013     0.514 -58.76   0
        50    576.9182    947.9205 307.6711960  +6.2992855     1606.163     2642.663     2994.326      78.0693     155.7687     311.0743      1.861     4.19     850.1438      54.8101     215.9994        16     1.350     0.814 -48.34   0
        51    616.0645    944.5854 307.6550550  +6.3019719     1198.283     1933.521     2184.978     77.45116      155.398     310.8269      1.837     4.66     849.8807      54.8101     180.0217        16     1.290     0.880 -29.00   0
        52    295.8182    942.0895 307.7880978  +6.2922749     1520.487     2452.012     2612.997     77.69901     155.2742     310.8579      1.675     4.18     850.2729      54.8101     222.6705        18     1.325     0.890 -39.35   0
        53    563.6360    940.5437 307.6769581  +6.3018867     553.9891     681.4258     435.0754     77.82263     155.5217     310.9815      1.229     3.41     849.9901      54.8101     91.49072         5     1.086     0.309 -69.26   0
        54    762.5624    938.0028 307.5944512  +6.3095858       877.77     1266.314     1090.375      77.0779     155.2742     310.7651      1.644     4.81     847.0238      54.8101     125.8176        12     1.133     0.795 -53.86   0
        55    900.3211    934.8061 307.5373611  +6.3155033     6216.677     11047.34     11265.23     77.57518     155.0264     310.7341      1.877     3.96      844.332      54.8101     789.9192        41     1.566     1.299 -45.23   0
        56    436.0822    932.1407 307.7301983  +6.3010851     1909.137     3146.398     3505.809      78.0693     155.5835     310.9815      1.856     5.52     849.8643      54.8101     262.5247        25     1.786     1.031 -50.85   0
        57    337.9125    930.2674 307.7710192  +6.2985678     8972.584     14519.14     15494.76      78.0693      155.707     310.9815      1.730     3.87     849.9706      54.8101     1153.264        47     1.686     1.140 -38.06   0
        58    257.9460    929.2212 307.8042543  +6.2963169     6487.345     10533.84     11754.97     77.45116     155.5217     310.7651      1.753     4.01     849.3512      54.8101     806.5177        34     1.567     1.037 -37.55   0
        59    770.1521    923.9867 307.5917693  +6.3156262     638.5027     899.9884     433.4923     77.32694      155.398     310.6723      1.360     4.94     846.5543      54.8101     88.90417         6     1.021     0.676 -83.38   0
        60    586.0457    923.5922 307.6682227  +6.3096353     1091.495     1696.391     1671.996     77.45116      155.398     310.6104      1.568     5.78      849.434      54.8101     146.2636        12     1.277     0.737 -57.62   0
        61    916.2916    919.9736 307.5312262  +6.3221599     844.7866     1541.589     2136.953      78.0693     155.2742      310.796      1.926     6.57     843.6133      54.8101     126.2292        12     1.402     0.863  87.89   0
        62    148.1546    919.8417 307.8501521  +6.2965024     476.7054     664.6879     809.0564     77.82263     155.5217      310.796      1.825     3.87     847.6425      54.8101     71.67969         5     0.979     0.439 -45.09   0
        63    414.8304    918.3675 307.7394845  +6.3060595     696.7081     1113.197     1009.477     77.45116     155.2742     310.6723      1.561     4.38     849.5446      54.8101     99.14832         7     0.907     0.604 -80.38   0
        64    220.3365    918.4392 307.8202317  +6.2995058     477.8731     797.3362     1209.839     77.94606     155.4599     310.9815      2.196     3.47     848.6638      54.8101     86.52405         5     1.032     0.338 -21.88   0
        65    983.7646    915.1371 307.5033725  +6.3264061     534.1359     1112.448      1562.85     77.82263     155.5217     310.9197      1.964     3.36     841.4118      54.8101     89.04309         5     0.959     0.341  46.15   0
        66    752.5254    912.8483 307.5994610  +6.3196363       1352.1     2490.573     2641.834     77.82263     155.5835     310.9815      1.888     5.91     846.6594      54.8101     153.0801        20     1.605     0.850 -45.26   0
        67    845.7717    913.9935 307.5607064  +6.3222766     470.1723     715.6549     286.4168     77.45116      155.398     310.7651      1.373     4.47     845.0243      54.8101     71.61542         6     1.376     0.413 -16.16   0
        68    616.6921    909.2554 307.6559794  +6.3165798     682.1102      1110.09     800.3621     77.82263      155.398     311.0743      1.492     5.30     848.6371      54.8101     130.1665         7     1.375     0.577 -35.67   0
        69    537.5739    908.5110 307.6888539  +6.3142399     1112.813     1631.911     1910.999      78.0693     155.2742      310.796      1.611     5.39     849.5764      54.8101     163.7731        11     1.249     0.945 -64.70   0
        70      3.3706    909.9381 307.9105951  +6.2957231     883.3939     1210.802     886.6902     77.69901     148.6314     264.4007      1.542     5.99     845.7443      54.8101     128.9538        10     1.106     0.913 -17.20  16
        71    983.9279    908.5352 307.5035254  +6.3291373      1104.78      1979.37     2291.301     77.94606     155.5217     310.9815      1.972     6.82     841.1254      54.8101     123.2207        17     1.364     0.956 -21.42   0
        72    627.9073    908.7397 307.6513402  +6.3171677     585.9987     870.4462     736.1156     77.82263     155.4599     311.0434      1.215     3.11     848.5519      54.8101     130.8658         5     0.922     0.337 -43.30   0
        73    671.0818    906.2386 307.6334980  +6.3196439     2226.865      3532.54     3989.555     77.94606     155.5835     310.8888      1.710     3.74     848.0946      54.8101     295.3491        21     1.456     0.874 -42.19   0
        74     67.5256    902.3329 307.8842168  +6.3010209     2670.377     4553.524     4810.743      78.0693     155.6453     310.9197      1.856     4.42     845.9598      54.8101     332.1315        25     1.470     1.031 -51.25   0
        75    948.7554    902.1356 307.5183433  +6.3306073     804.1939     1304.081     1159.588     77.94606     155.4599     310.9506      1.604     4.65     842.1741      54.8101     121.5718         9     1.072     0.653 -46.32   0
        76    831.4459    903.2478 307.5670142  +6.3262352     682.5743      1032.18     1666.133     77.94606      155.398     310.9506      1.776     4.58     845.1164      54.8101     113.4116         7     0.923     0.646 -13.82   0
        77     85.0196    901.5394 307.8769807  +6.3019367     1958.217     3263.613     3714.729     77.57518     155.4599     310.8888      1.839     3.76     846.1047      54.8101       289.21        20     1.334     0.911 -45.39   0
