#   1 NUMBER                 Running object number                                     
#   2 X_IMAGE                Object position along x                                    [pixel]
#   3 Y_IMAGE                Object position along y                                    [pixel]
#   4 ALPHA_J2000            Right ascension of barycenter (J2000)                      [deg]
#   5 DELTA_J2000            Declination of barycenter (J2000)                          [deg]
#   6 FLUX_APER              Flux vector within fixed circular aperture(s)              [count]
#   9 FLUXERR_APER           RMS error vector for aperture flux(es)                     [count]
#  12 FLUX_RADIUS            Fraction-of-light radii                                    [pixel]
#  13 FWHM_IMAGE             FWHM assuming a gaussian core                              [pixel]
#  14 BACKGROUND             Background at centroid position                            [count]
#  15 THRESHOLD              Detection threshold above background                       [count]
#  16 FLUX_MAX               Peak flux above background                                 [count]
#  17 ISOAREA_IMAGE          Isophotal area above Analysis threshold                    [pixel**2]
#  18 A_IMAGE                Profile RMS along major axis                               [pixel]
#  19 B_IMAGE                Profile RMS along minor axis                               [pixel]
#  20 THETA_IMAGE            Position angle (CCW/x)                                     [deg]
#  21 FLAGS                  Extraction flags                                          
         1      3.2385    124.8413 307.9360849  +6.6320705     713304.3      1443548      1534003     79.72298     151.4376     269.4163      2.084     8.03     893.5314     56.23785     62404.21       345     2.671     1.625 -71.43  28
         2    644.7844     22.1188 307.6729639  +6.6960465     7596.428     13681.56     14970.52     79.59594      159.319     318.9237      1.907     5.53     866.5422     56.23785     1045.347        41     1.871     0.973 -29.89   0
         3    253.5433     23.3808 307.8355214  +6.6823707     5466.833     10106.18     11085.82     79.46869     159.5094     318.8602      2.015     5.42     884.3222     56.23785     694.7637        43     2.135     1.014 -30.85   0
         4    414.6886     22.1013 307.7685939  +6.6883234     6885.905     12422.39     12942.92     79.97648     160.0162     319.0506      1.891     5.37     872.5779     56.23785     871.4446        38     1.824     0.998 -30.66   0
         5    676.8021     19.7376 307.6597375  +6.6981031     12589.88     25805.63     32697.76     79.34123     159.3825      318.765      2.449     8.53      866.533     56.23785     1670.064        65     2.787     0.995 -35.22   0
         6     61.0122     15.3171 307.9158084  +6.6792040     2650.993     4851.567     5095.447     79.59594      159.319     318.8919      1.965     5.47     884.4223     56.23785     351.8477        27     1.813     0.888 -28.44   0
         7    942.7094     15.2145 307.5493732  +6.7088766     601.1785     1464.866     1902.495     79.72299     159.3825     318.8919      2.280     5.54     859.1115     56.23785     91.85864         8     2.067     0.419 -34.84   0
         8    151.7696     12.5680 307.8781851  +6.6834006     4432.632       7962.6     8550.783     79.46869      159.319     318.7967      1.919     5.21     883.6682     56.23785     553.1419        34     1.799     1.012 -33.81   0
         9    778.7240     11.2147 307.6176652  +6.7050364     1113.923     1855.743     1563.072     79.46869      159.319     318.8919      1.886     6.22     863.7609     56.23785     147.4855        15     1.760     0.618 -33.37  16
        10    885.9365      8.9949 307.5731799  +6.7095428     1631.172     2815.921      3310.64     79.34123     159.3825     318.8602      1.919     5.64     860.9356     56.23785     227.4229        23     1.808     0.831 -24.04  16
        11    222.9430      9.0196 307.8487270  +6.6872641      972.169     1663.626     1298.171     79.59594     159.5094     318.8602      1.728     6.03     883.9861     56.23785     137.7233        13     1.484     0.690 -35.42  16
        12    631.8361      8.1567 307.6788184  +6.7013721     1003.639     1660.111     1721.512     79.72298     159.5094     318.0339      1.619     5.45     866.0198     56.23785     169.6032        11     1.401     0.599 -34.25  16
        13    738.5024      6.3899 307.6345455  +6.7056788     1337.016     2169.682     2015.418     79.72299     159.1919     306.1985      1.741     6.85     866.2061     56.23785     180.0543        16     1.834     0.717 -30.41  16
        14    971.5040      6.1543 307.5377112  +6.7135776     689.6791     1314.381     1545.813     79.97648     159.5094     304.2754      2.244     5.61     856.1293     56.23785     103.7338         8     1.400     0.633 -25.73  16
        15    793.9653      1.3158 307.6116653  +6.7096310     1137.622     1328.473     1175.852     69.26166     126.3739     239.6762      1.152     3.76     862.3219     56.23785     262.4226        10     1.274     0.447  -6.16  24
        16    925.1854    989.5294 307.5237709  +6.3063166       1655.8     3384.086     3592.658     79.46869     159.5094     318.9554      2.145     5.20     895.0521     56.23785     213.1528        23     1.605     0.955 -22.60   0
        17   1007.4030   1022.6503 307.4885094  +6.2953998     3672.398     6514.705     7049.899     78.70086     140.9137     256.1287      1.892     5.26     892.9601     56.23785     419.9166        30     1.837     0.990 -14.31  24
        18    885.8833   1022.8879 307.5389678  +6.2912393     9570.881     15318.01     16490.27     77.66528     138.3771     252.7477      1.712     5.46     895.8575     56.23785     1179.857        37     1.845     0.951 -12.79  24
        19    599.1852   1023.1976 307.6580188  +6.2815077     1051.711     1429.845     1735.071     74.87875     133.6143      247.651      1.473     5.06     901.5681     56.23785     169.0707        11     1.263     0.574 -26.88  24
        20    544.5472   1023.8343 307.6806871  +6.2794116     758.9432     1082.674     1523.934     67.18482     124.0297     237.1718      1.263     3.93     903.1615     56.23785     226.0869         7     1.189     0.371   0.83  24
        21    530.1321   1022.3353 307.6867241  +6.2795462      3355.46     6117.945     7385.638     79.97648     145.0893     261.2538      2.099     6.39     903.2014     56.23785     397.0665        35     2.081     1.078 -13.46  24
        22    634.8885    991.0058 307.6442807  +6.2959864     552.3401     780.9689     420.6072     79.46869     159.2554     318.7967      1.429     5.53        900.6     56.23785     78.49744         8     1.114     0.773  27.89   0
        23    646.0634    985.3674 307.6398306  +6.2986873     3910.856     7057.149     7313.841     79.72298     159.6363     319.0189      1.873     5.55      900.305     56.23785     536.2452        33     1.788     1.021 -35.07   0
        24    785.0085    985.7774 307.5821133  +6.3031740     1097.132     1988.355     1872.317     79.59594     159.3825     318.8602      1.953     6.19     896.8619     56.23785     148.3892        15     1.528     0.705 -38.27   0
        25    258.2664    985.3947 307.8008749  +6.2856483     3667.106     6593.501     7636.658     79.46869     159.2554     318.8602      1.968     5.30     903.8196     56.23785     501.7714        33     1.858     0.966 -31.43   0
        26    468.4472    983.6570 307.7136505  +6.2934322     900.4045     1550.411     1839.873     79.97648     159.5729     319.1775      1.897     6.51      903.236     56.23785     137.7501        13     1.678     0.708 -37.39   0
        27     27.0508    983.0082 307.8969712  +6.2788419     1838.165     3272.399     3826.706     79.46869      159.446     318.7332      1.894     5.72     903.9396     56.23785      227.442        20     1.701     0.754 -32.94   0
        28    879.6199    981.1273 307.5429779  +6.3082591     642.7712     1135.714     1212.201     79.59594     159.5094     319.0189      2.048     4.86      895.276     56.23785     107.0862         5     1.320     0.506 -45.79   2
        29    293.8538    979.0692 307.7863111  +6.2894555     705.9514     1196.979     1755.906     79.84984     159.5094     318.9554      1.972     5.35     903.9513     56.23785     112.2416        10     1.410     0.574 -32.91   0
        30    970.5845    979.2458 307.5052631  +6.3120771     703.9584     1259.745     1186.804     79.46869     159.3825     318.7967      1.956     5.40     892.6171     56.23785     113.1953         7     1.277     0.645  11.01   0
        31    570.8844    977.8031 307.6713078  +6.2992864     1420.467     2438.169     2720.481     79.34123     159.1919      318.765      1.847     6.63     901.6799     56.23785     184.6642        18     1.758     0.727 -30.47   0
        32   1002.2196    977.5791 307.4921809  +6.3138219     719.4465     1356.375     1892.852     79.72299     159.5094     318.9554      2.560     4.54     891.0755     56.23785     114.3077         8     1.177     0.596 -17.07   0
        33    609.9692    974.1995 307.6551980  +6.3020844     1003.339     1657.581     1440.558     79.34123     159.3825     318.8602      1.738     6.02     901.0311     56.23785     177.5189        15     1.630     0.685 -36.48   0
        34     60.2310    974.2520 307.8834907  +6.2835733     652.0659     1087.725      1425.01     79.84984     159.6997     318.9872      1.652     5.25     903.8323     56.23785      125.979         7     1.705     0.456 -39.45   0
        35    289.8970    971.6013 307.7882077  +6.2924033     1290.086     2306.522     2300.795     79.46869     159.2554     318.7015      1.825     6.93     903.9524     56.23785     167.9794        18     1.603     0.841 -36.75   0
        36    756.3643    968.3528 307.5945979  +6.3094035     671.6606      1191.54     1027.279     79.59594     159.5094     318.9872      1.693     5.31     897.5241     56.23785     116.9859         9     1.395     0.571 -33.72   0
        37    894.3385    964.6342 307.5374216  +6.3155560      5579.13     10637.88     11182.52     79.84984     159.6363     319.0189      1.990     5.16     894.8104     56.23785     713.5313        38     1.864     1.065 -29.58   0
        38    331.8568    960.0518 307.7711745  +6.2985797     8049.132     14667.29     15782.57     79.97648     159.5729     319.0506      1.941     5.64     904.0024     56.23785     1058.942        46     1.921     1.070 -33.49   0
        39    598.3851    962.0148 307.6604211  +6.3067228     480.8924     916.0311      439.743     79.72298     159.2554     318.9872      1.833     4.74     901.1248     56.23785     108.4104         5     1.082     0.590 -14.36   0
        40    430.3901    961.5916 307.7302028  +6.3012570     1765.923     3131.742     3101.089     79.46869     159.3825     318.9554      1.760     5.84     903.7055     56.23785     256.1925        19     1.632     0.779 -25.75   0
        41    251.8196    959.0161 307.8044476  +6.2963139     5893.822     10693.99     11541.15     79.72299      159.319     318.9554      1.893     5.92     903.7932     56.23785     812.9688        36     1.853     0.946 -32.37   0
        42    579.9444    953.5555 307.6683658  +6.3095941     981.2357     1944.988     1679.996     79.97648     159.5729     319.0506      1.917     7.00     901.2244     56.23785     133.5256        16     1.714     0.802 -32.90   0
        43    764.9439    953.1135 307.5915495  +6.3159782     541.1611     976.8059      1075.84     79.97648     159.5729     319.1775      1.873     4.75     896.9282     56.23785     87.34631         7     1.450     0.441 -32.00   0
        44    910.2520    949.6314 307.5313187  +6.3222781     771.8444     1718.621     2002.991     79.84984     159.6997     318.9872      2.334     6.63     894.1218     56.23785     126.5317        12     1.738     0.709 -26.31   0
        45    866.3782    948.8080 307.5495679  +6.3211501      541.685     1149.881      1122.43     79.59594     159.3825     318.8285      1.793     3.98     895.2241     56.23785     90.22272         6     1.213     0.374 -28.89   0
        46    977.9697    945.5170 307.5033330  +6.3262396     563.6997     1127.764     1547.535     79.97648     159.3825     318.9554      2.267     4.64     890.8768     56.23785     97.65808         8     1.627     0.376 -27.91   0
        47    746.4360    942.5950 307.5995914  +6.3196979     1382.168     2473.379     3231.419     79.08571      159.319     318.8602      2.083     5.72     897.2662     56.23785       193.95        18     1.637     0.759 -38.99   0
        48    570.6787    942.7022 307.6725812  +6.3137609      620.726      929.104     478.5113     79.72299     159.8264     319.0823      1.598     5.15     901.1335     56.23785      129.356         7     1.686     0.444 -38.19   0
        49    978.2081    938.3954 307.5034740  +6.3291858     938.0062     1703.233     2420.286     79.34123      159.319     318.8919      2.011     6.56     890.5368     56.23785     115.9034        15     1.684     0.718 -22.24   0
        50    622.4648    938.8201 307.6512055  +6.3170999     487.1495     843.6701      960.413     79.59594     159.5729     318.8919      1.725     4.75     900.5001     56.23785     78.46423         6     1.359     0.471 -24.45   0
        51    610.8729    938.9427 307.6560156  +6.3166605     651.8556     1151.578     743.6422     79.97648     159.5729     319.0189      1.767     3.88     900.8351     56.23785      104.401         6     1.468     0.293 -30.54   0
        52    531.7351    938.4208 307.6888995  +6.3142202     1065.979     1761.881     2282.016     79.59594     159.5729     318.9237      1.993     5.63     901.4471     56.23785     137.9637        12     1.392     0.643 -29.54   0
        53    664.8994    936.0873 307.6336745  +6.3196503      2206.57      3825.44     4101.752     79.97648     160.0162      319.114      1.830     5.41     899.1448     56.23785     292.1523        22     1.625     0.825 -33.37   0
        54    955.9564    933.0000 307.5128976  +6.3306680     485.9225     1074.973     1137.635     79.21357     159.1919     318.6379      1.646     4.94     891.5511     56.23785     88.98389         5     1.613     0.428  39.39   2
        55     61.5168    932.2578 307.8843852  +6.3009414     2619.126     4619.723     5137.211     79.97648     159.5729      319.114      1.873     6.19     903.1331     56.23785     319.5112        24     1.898     0.798 -32.17   0
        56    826.2849    932.1775 307.5667808  +6.3266697     793.0176     1398.302     1466.569     79.84984      159.319     318.9872      1.799     6.67     895.3995     56.23785     120.7346        11     1.677     0.744 -12.85   0
        57    205.4653    930.9481 307.8246509  +6.3063328     1827.337     3324.952     3368.498     79.97648     159.5094     319.0189      1.918     5.41     903.6329     56.23785     254.5406        20     1.758     0.820 -30.65   0
        58     79.3210    931.3389 307.8770228  +6.3019209     1773.555     3030.772     3176.588     80.10293     159.6363     319.0506      1.902     5.29     903.2642     56.23785     261.6945        20     1.705     0.749 -26.52   0
        59    659.5193    925.2687 307.6362748  +6.3239333     6018.912     10333.17     11150.83     80.22917     159.8264     319.0823      1.874     5.20      899.075     56.23785     857.6244        34     1.819     0.924 -30.57   0
        60    342.0247    927.9753 307.7680401  +6.3121551     460.5673     675.1111     1446.549     79.46869     159.3825     318.9872      1.612     4.46     904.0165     56.23785     89.33246         6     1.267     0.447 -35.64   2
        61    345.3073    926.3445 307.7667322  +6.3129383     559.5801     950.3204     1273.762     79.84984     159.5729     319.2092      1.171     3.95     904.0176     56.23785     107.3854         5     0.963     0.464 -51.67   3
        62    239.4277    927.4940 307.8106641  +6.3089014     890.4694     1298.568     1191.165     80.10293      159.319     318.9554      1.576     5.11     903.7211     56.23785     142.9344        10     1.382     0.534 -38.82   0
        63    796.6644    926.3489 307.5792796  +6.3280828     705.5389     1169.675     1164.733     79.97648     159.5094     319.0823      1.797     5.73     895.6087     56.23785     131.2429        10     1.381     0.814 -44.81   0
        64     19.5146    924.0734 307.9021061  +6.3029011     1036.969     1889.778      1840.82     80.10293     159.8897     319.0506      1.915     6.07     902.6906     56.23785     143.4601        14     1.552     0.668 -58.51   0
        65     32.8718    922.2183 307.8966223  +6.3041170     948.4051     1637.018     2038.148     79.46869     159.5094     318.9872      1.628     6.08     902.7886     56.23785     134.0169        12     1.694     0.614 -45.74   0
        66    897.1691    921.5270 307.5377004  +6.3334357     2283.849     4217.013     4057.926     79.84984     159.5729     319.0506      1.919     6.04     893.8289     56.23785     305.9564        24     1.877     0.832 -26.49   0
        67    342.5563    918.3042 307.7681474  +6.3161629     14047.83     24443.69     26193.86     79.97648     159.5094     319.1775      1.865     5.69     904.0165     56.23785     1844.066        48     1.877     1.002 -30.94   0
        68     77.2993    919.1921 307.8782755  +6.3068639     1173.992      2113.85     2239.981     79.72299     159.1919     318.8602      1.885     6.84     903.1075     56.23785     177.4222        17     1.892     0.693 -29.05   0
        69    213.4710    917.7205 307.8217755  +6.3120596     1017.152     1605.703     1908.824     80.22917     159.8264     319.0189      1.735     6.85     903.6299     56.23785     157.5046        18     2.012     0.653 -35.84   0
        70    394.6703    917.1984 307.7465420  +6.3183714     574.3672     716.7751     654.5005     79.46869     159.1283     318.8602      1.230     4.15     903.7321     56.23785     92.92987         6     1.240     0.396 -59.19   0
        71    671.6151    910.5149 307.6317501  +6.3304258     533.8646     1222.344     1329.446     79.59594      159.319     318.9554      1.945     4.73     898.2778     56.23785     90.16223         6     1.279     0.497  -2.56   0
        72    420.0571    909.3218 307.7362658  +6.3224743     909.9025     1609.098      1636.02     79.97648     159.5729     319.0189      2.005     6.18     903.2859     56.23785     132.3687        13     1.614     0.665 -34.40   0
        73    106.1041    908.8971 307.8666635  +6.3120822     1550.684      2578.01     2677.359     79.97648     160.1427     318.8919      1.665     5.54     903.1795     56.23785     200.8021        21     1.666     0.877 -27.32   0
        74    501.0355    905.2735 307.7027719  +6.3268649     575.7752     859.7344      817.076     79.84984     159.5729     319.0189      1.642     4.35     901.4548     56.23785     84.48755         7     1.168     0.461 -57.48   0
        75    674.1740    905.1073 307.6308702  +6.3327426     715.3057     1513.054     2078.783     80.10293      159.319     318.8919      2.205     5.07     898.0515     56.23785     109.3691         9     1.343     0.542 -29.31   0
        76    887.8042    903.0724 307.5422126  +6.3407362     1655.257     3018.204     3061.458     79.59594     159.1283     318.8919      1.825     5.72     893.5643     56.23785     233.9293        20     1.682     0.758 -32.80   0
        77    858.2898    902.7570 307.5544815  +6.3398789     1801.069     3236.882     3293.984     79.97648      159.446     319.0823      1.884     5.39     894.3554     56.23785     235.6768        22     1.634     0.864 -29.00   0
