#   1 NUMBER                 Running object number                                     
#   2 X_IMAGE                Object position along x                                    [pixel]
#   3 Y_IMAGE                Object position along y                                    [pixel]
#   4 ALPHA_J2000            Right ascension of barycenter (J2000)                      [deg]
#   5 DELTA_J2000            Declination of barycenter (J2000)                          [deg]
#   6 FLUX_APER              Flux vector within fixed circular aperture(s)              [count]
#   9 FLUXERR_APER           RMS error vector for aperture flux(es)                     [count]
#  12 FLUX_RADIUS            Fraction-of-light radii                                    [pixel]
#  13 FWHM_IMAGE             FWHM assuming a gaussian core                              [pixel]
#  14 BACKGROUND             Background at centroid position                            [count]
#  15 THRESHOLD              Detection threshold above background                       [count]
#  16 FLUX_MAX               Peak flux above background                                 [count]
#  17 ISOAREA_IMAGE          Isophotal area above Analysis threshold                    [pixel**2]
#  18 A_IMAGE                Profile RMS along major axis                               [pixel]
#  19 B_IMAGE                Profile RMS along minor axis                               [pixel]
#  20 THETA_IMAGE            Position angle (CCW/x)                                     [deg]
#  21 FLAGS                  Extraction flags                                          
         1    159.0848     17.0097 307.8649373  +6.6672981     3287.586     7623.882     9651.696     93.62083     187.3164     375.0811      2.483    10.32     1261.485     66.14703     349.7131        40     2.447     1.214   3.58   3
         2    160.0185     13.4890 307.8646649  +6.6687854     3045.992     7031.142     9286.729     93.77026     187.3912     375.1557      2.572     8.24     1261.399     66.14703     297.3855        38     2.446     1.117  18.43  19
         3    503.5347     14.7302 307.7217565  +6.6797835     873.0558      2585.38     4475.016     94.06843     187.7644     375.2677      3.722     7.68     1234.823     66.14703      130.212        12     1.611     1.024  48.84   2
         4    905.0217     12.5235 307.5548424  +6.6940981     1806.489      4979.03      6459.56     93.62083     187.5405      375.193      2.802     8.96     1223.306     66.14703     224.4508        36     1.867     1.559  16.24   0
         5    969.3384      9.3221 307.5281956  +6.6975638     995.3069     2426.809     3030.356     94.36564     187.7644     375.2677      2.711     7.17     1217.834     66.14703     113.5262        10     1.419     1.015  33.31  18
         6    688.8678      5.4187 307.6449787  +6.6898280     2494.317     7695.977      10116.5     93.62083     187.6152     349.0959      2.991     8.08     1228.018     66.14703     293.5907        54     2.094     1.942 -70.17  18
         7    608.7308      5.2039 307.6783163  +6.6872402     1291.682     3650.595     4689.158     93.32124     187.2417     346.1961      2.935     9.56     1230.826     66.14703     146.0406        30     2.078     1.444 -83.45  18
         8    409.1004      3.1063 307.7614139  +6.6814302      1876.74      4065.03     5236.853     94.06843     176.7797     314.6263      2.505     8.30     1246.722     66.14703     229.2822        31     1.968     1.264   8.70  26
         9      9.8730      2.5905 307.9274667  +6.6682480     2523.021     4837.031     5512.384     93.47116     169.2537     305.7796      2.048     7.00      1264.94     66.14703     263.2979        23     1.800     1.019  32.14  27
        10     13.4706      1.6018 307.9260031  +6.6687779     1989.883     2958.827     3523.156     85.65466     153.7346     287.5624      1.671     5.90     1264.733     66.14703     286.4194        15     1.153     1.101  -8.77  27
        11    791.6180    995.5074 307.5698915  +6.2837820     673.5068     1524.815     1301.405     93.91946     187.3912     375.1184      1.874     3.40     1292.527     66.14703     96.63586         5     1.063     0.314 -68.59   0
        12    698.1216   1020.8752 307.6079190  +6.2701729     4016.402      9877.17     12577.52     94.36564     186.3422      331.063      2.800     7.80     1293.443     66.14703     433.9882        62     2.608     1.563   9.73  24
        13    565.3169   1023.0284 307.6630396  +6.2648492     29169.26     50655.26     57534.45     89.95996     160.1578     294.4427      1.931     7.47     1293.994     66.14703     4501.383        55     2.297     0.993   9.50  27
        14    555.1469   1019.9833 307.6673656  +6.2657689     2241.684     5721.682     7229.615     93.47116     187.7644      343.598      2.616     8.08     1294.057     66.14703     256.0032        47     2.197     1.599  32.69  19
        15    413.6935   1021.1428 307.7261118  +6.2605606     2172.211       5191.9     6140.764     93.91946     184.2263      327.149      2.531     6.69     1293.766     66.14703      241.625        35     1.890     1.353  37.31  24
        16    195.8639   1023.0949 307.8165692  +6.2524586     1045.856     1805.319      2119.44     89.49182     159.2812     293.4424      1.864     5.99     1294.021     66.14703     156.9623        14     1.656     0.610  19.43  24
        17    892.4953    988.9160 307.5281820  +6.2898686     5334.271     11890.61     13279.92     93.91946     188.1368     375.3796      2.313     5.37     1291.045     66.14703     663.4387        47     1.950     1.460  24.26   0
        18    866.1013    985.0525 307.5392775  +6.2905875     7499.852     16880.01     19968.61     93.91946     187.6898     375.5287      2.439     5.34     1290.745     66.14703     868.4697        64     2.120     1.597  20.20   0
        19    510.7556    984.4629 307.6869765  +6.2789758     2100.037     5647.623     6900.115     94.06843     187.6152      375.305      2.747     7.44     1293.408     66.14703     238.3717        45     2.031     1.649  -5.15   0
        20    988.0181    984.4766 307.4886270  +6.2948837     3379.646     6725.808     8033.459     93.47116     187.3912     375.2303      2.191     4.71     1287.285     66.14703     398.3536        37     1.713     1.284  36.54   0
        21    464.6027    980.2620 307.7062946  +6.2791702     1094.111     2090.099     2726.722     93.32124     187.5405     374.9317      2.313     6.83     1293.441     66.14703     154.4287        13     1.759     0.744  45.59   2
        22    897.9002    972.6080 307.5264676  +6.2967932     27079.64     59387.21     69209.74     93.77027     187.2417     375.0811      2.368     5.14     1289.568     66.14703     3325.843        92     2.157     1.684  26.11   0
        23    796.5737    966.7918 307.5687694  +6.2958233     1308.789     2617.243     3060.643     93.62083     187.4659     375.0811      2.173     5.78     1291.321     66.14703     157.5059        19     1.432     1.119 -28.43   0
        24    744.0715    964.4815 307.5906650  +6.2950285     3547.055     8570.154     10598.94     94.36564     188.0624      375.305      2.595     6.46     1290.668     66.14703     432.7645        56     2.094     1.741  29.54   0
        25    215.0511    963.7720 307.8105441  +6.2776354     530.7798     1196.001     1170.808     93.62083     187.8389     375.1557      2.373     6.28     1293.656     66.14703     104.9098         8     1.854     0.598  35.58   0
        26     39.2908    962.3620 307.8836308  +6.2723221     1337.751     3657.822     4420.489     94.21715     187.6152      375.305      2.604     9.17     1291.329     66.14703       178.24        24     1.877     1.250  44.35   0
        27    932.2615    959.3984 307.5126174  +6.3034003     4246.444     9355.363     10404.31     93.32124     187.4659     374.9317      2.368     5.37     1287.859     66.14703     514.4948        50     1.938     1.527   8.79   0
        28    906.3542    951.2614 307.5236502  +6.3059032     1338.938     2707.817     2743.013     93.91946     187.5405     375.3423      2.164     5.47     1287.449     66.14703     195.5436        18     1.422     1.200   9.70   0
        29    627.1927    947.3466 307.6398005  +6.2982154     2234.945     5578.074     6263.162     93.47116     187.4659     374.8944      2.541     6.48     1290.786     66.14703     289.7379        36     1.744     1.519  68.21   0
        30    239.5372    947.9734 307.8008870  +6.2849897     1819.757     5333.938     6622.301     93.62083     187.6152      375.193      2.741     7.89      1293.81     66.14703     270.2468        44     2.034     1.657  15.63   0
        31    765.7478    946.8264 307.5822329  +6.3030530     631.2734     1455.382     1327.582     93.62083     187.8389     375.1557      2.319     6.19     1290.269     66.14703     111.2263         8     1.495     0.721  27.76   0
        32     10.2859    945.6951 307.8962327  +6.2782407     797.6709     1855.711     3293.619     94.06843     188.1368     375.3423      2.924     3.36     1290.924     66.14703     162.1012         6     0.908     0.517  31.14   2
        33    552.3425    939.4758 307.6711660  +6.2989707     881.0696     2211.028     2794.698     94.21716     187.6898      375.193      2.595     8.33     1291.815     66.14703     126.7307        15     1.726     1.124  19.68   0
        34    983.3376    938.7760 307.4920614  +6.3136289     728.2672     1327.048     1778.462     93.62083     187.6898     375.1557      2.390     4.57     1284.553     66.14703     93.08521         5     1.179     0.504  32.30   0
        35    270.6751    933.2451 307.7884301  +6.2921241     775.5109     1785.676     1809.984     93.91946     187.7644      375.305      2.775     7.35     1293.798     66.14703     110.1903        12     1.998     0.757  39.72   0
        36    874.8821    926.3869 307.5375420  +6.3151428     4041.012     9017.369     10214.57     93.62083     187.3912     375.0811      2.376     5.70     1285.817     66.14703     454.3027        48     1.966     1.486  24.59   0
        37    413.3206    923.3120 307.7294732  +6.3010078     675.9791     1385.235     2310.958     93.77027     187.9879     375.4169      2.410     3.71     1292.619     66.14703      107.412         5     0.832     0.475 -80.27   3
        38    410.2734    922.5502 307.7307646  +6.3012208     958.0361     1991.333     2639.762     94.06843     187.7644      375.305      2.578     6.16     1292.641     66.14703     155.8881         9     1.455     0.733 -78.91   2
        39    312.7738    922.3096 307.7712931  +6.2980568     4171.932      11717.3     14802.02     94.21715     187.3912     375.0811      2.798     7.18     1293.471     66.14703     473.5643        68     2.254     1.853  27.03   0
        40    232.9851    921.3931 307.8044828  +6.2957627     2953.053     8186.572     10741.41     93.62083     187.3912     375.0811      2.854     7.08     1293.578     66.14703      321.022        59     2.324     1.683  28.00   0
        41    958.8572    900.4114 307.5034866  +6.3286812      828.602     1761.529     2638.396     93.32124     187.6152     374.9317      2.393     6.70     1282.709     66.14703     114.0178        13     1.299     0.968  -0.96   0
        42    510.6230    898.5868 307.6898437  +6.3144871     531.1347     1164.375     1913.988     93.77027     187.4659     375.1557      2.770     6.69     1290.838     66.14703     92.60815         7     1.400     0.896  78.80   0
        43    645.5455    898.0872 307.6337838  +6.3192004      1148.47     3152.601     4279.537     94.06843     187.5405     375.4542      2.871     7.14     1288.191     66.14703     174.7649        22     1.609     1.338  -1.80   0
        44     45.4255    895.0294 307.8832968  +6.3003738     762.3661     1630.736     3160.659     93.47116     187.4659     375.1184      2.559     5.73     1289.799     66.14703     163.3442         9     1.582     0.585 -54.60   3
        45     42.0296    893.0775 307.8847723  +6.3010670     1249.588     2619.672     4006.735     93.91946     187.7644      375.305      2.901     8.83     1289.717     66.14703      171.053        18     1.682     1.340 -85.01   2
        46    185.7724    893.3282 307.8250259  +6.3057866     881.5476     2089.805     3122.949     93.77027     187.6152     375.1557      2.919     7.24     1291.658     66.14703     138.1565        10     1.314     1.118 -33.29   0
        47     61.9632    893.7016 307.8764676  +6.3014782     752.2579     1199.055     1210.931     94.06843     187.5405     375.4915      2.314     4.02     1289.935     66.14703     123.4106         6     0.776     0.596  28.37   2
        48     59.3385    892.3088 307.8776042  +6.3019661     746.0935     1497.511     1886.644     94.06843     187.8389     375.3796      2.280     3.77      1289.86     66.14703     103.7159         5     0.879     0.465 -78.92   3
        49    640.4318    887.2048 307.6362650  +6.3235304     3345.486     8593.384     11069.01     93.32124     187.5405     375.0064      2.819     7.00     1287.824     66.14703     394.3838        59     2.248     1.720  36.59   0
        50    878.1794    883.2982 307.5375773  +6.3330732     1464.641      3790.33     3500.214     93.91946     187.4659     374.9691      2.346     8.79     1283.845     66.14703     181.8628        30     1.835     1.431  45.20   0
        51    323.4326    880.6852 307.7682291  +6.3156281     6653.393      19071.2     25815.18     94.06843     187.4659     375.2303      2.981     7.23     1292.919     66.14703     737.1494        79     2.410     1.915  26.79   0
        52     60.7621    881.7579 307.8773597  +6.3063772      666.075     1053.442     1457.636     93.77027     187.6898     375.1184      1.545     3.85     1289.658     66.14703     103.1882         5     0.976     0.436  45.08   0
        53    193.9803    879.3344 307.8220745  +6.3118491     643.4164     1374.044     1021.207     93.62083     187.6898     375.1184      2.063     4.79     1291.489     66.14703     99.49402         5     1.039     0.626  89.45   0
        54     88.3007    871.4813 307.8662529  +6.3115516     852.8939     1771.801     2530.086     94.06843     188.2113     375.3796      2.400     6.80     1289.839     66.14703     133.7299        11     1.628     0.797 -11.78   0
        55    868.6348    864.6781 307.5421520  +6.3404562     1077.088      2706.03     2632.684     93.91946     187.7644      375.305      2.663     9.26     1283.169     66.14703     141.8634        18     1.961     1.220  48.26   0
        56    839.1622    864.6777 307.5544020  +6.3394745     1210.366     2550.982     3051.274     93.91946     187.7644     375.2677      2.285     7.36     1283.995     66.14703     146.0093        18     1.247     1.218 -41.74   0
        57    802.4045    864.1731 307.5696965  +6.3384584     1703.941     4022.361     4663.974     93.47116     187.4659     375.0811      2.464     8.64     1285.014     66.14703     173.8856        29     1.918     1.214  25.25   0
        58     72.1168    864.5660 307.8732063  +6.3138682     1130.666      2481.33     3336.137     94.06843     187.6898     375.2303      2.969     7.89     1289.471     66.14703     149.5931        15     1.529     1.138 -30.95   2
        59    538.3737    855.6634 307.6797154  +6.3331664     136617.4       390977       510018     93.62083     187.6898      375.193      2.885     6.88     1288.366     66.14703     15266.26       199     2.556     2.137  26.19   0
        60    382.6848    858.3676 307.7443350  +6.3268415     3059.549     8916.256     12027.06     94.06843     187.4659      375.193      2.956     7.30     1291.488     66.14703     361.5309        64     2.249     1.908  23.95   0
        61    326.1068    857.0126 307.7678943  +6.3255078       4869.4     14887.28     19311.79     93.77027     187.3912     375.0437      2.911     7.20     1292.417     66.14703     602.8693        75     2.271     1.966  31.18   0
        62    644.6393    852.9993 307.6356350  +6.3378174     1574.181     4086.976     4846.271     93.02069     187.3912     374.9317      2.651     8.43     1286.066     66.14703     191.3854        29     1.750     1.565 -17.52   0
        63    876.3752    851.4153 307.5393674  +6.3461992     2825.287     6577.747     8166.182     93.77027     187.4659      375.193      2.524     6.95     1282.144     66.14703     301.0223        49     2.233     1.549   6.29   0
        64    618.4766    848.6256 307.6466522  +6.3387527     1166.047     2144.354     3583.782     93.62083     187.6898     375.2303      2.981     5.80     1285.992     66.14703     179.2639        12     1.316     0.853  42.11   3
        65    619.9122    845.9012 307.6461446  +6.3399274     1368.485     2942.074     4342.354     94.06843     188.2113      375.305      3.393     6.56     1285.799     66.14703     179.9213        15     1.798     0.671  24.81   3
        66   1010.0693    845.5712 307.4839878  +6.3530658     2638.397     6194.036     7505.341     93.77026     187.6898      375.193      2.575     6.38     1277.293     66.14703     292.9773        44     2.000     1.504  21.53   0
        67    806.8066    845.4872 307.5684769  +6.3463331     691.2481     1480.805     1600.343     93.47116     187.3164     374.9691      1.797     5.57     1283.411     66.14703     140.3542         6     1.423     0.614 -62.05   0
        68    610.8200    843.2953 307.6500090  +6.3407015     905.6475     2539.982     4627.952     93.91946     187.4659     375.0437      4.373     9.93      1285.69     66.14703     111.9299        17     2.356     1.168  27.91   3
        69    895.6646    839.2527 307.5317466  +6.3518717     1653.982     3827.104     4461.875     94.06843     187.6152     375.2303      2.418     7.51     1280.969     66.14703     208.6234        29     1.942     1.423  36.48   0
        70    352.2206    837.4483 307.7576827  +6.3344732     852.0451     2508.372     4195.692     93.47116     187.6898     375.0437      3.692     7.58     1291.243     66.14703     171.4153        10     1.427     1.126 -49.46   2
        71    489.0000    827.0150 307.7011749  +6.3433642     1080.567     2107.583     3166.426     93.47116     187.2417     374.9317      2.658     5.78     1288.625     66.14703     136.0714        13     1.101     1.067 -59.82   2
        72    491.8571    824.7217 307.7000626  +6.3444081     1100.067     2123.284     3348.157     94.06843     187.6898     375.2303      2.221     5.75     1288.431     66.14703     169.0211        12     1.697     0.548  31.62   2
        73    537.3950    821.5283 307.6812398  +6.3472510     2186.137      6602.71     9808.456     93.62083     187.1669     375.1557      3.248     8.43     1286.822     66.14703     292.0099        60     2.397     1.919  33.87   0
        74    507.4501    815.4214 307.6938861  +6.3487758     7495.297     22508.22      29473.2     93.47116     187.7644     375.1184      2.954     7.42     1287.466     66.14703     876.6499        91     2.439     2.018  28.57   0
        75    870.6238    819.2358 307.5428080  +6.3593164    -33.07454     635.6531     1261.243     93.62083     187.4659     375.0064      2.823     3.56     1280.139     66.14703     128.1249         5     0.790     0.463 -77.10   0
        76    921.0141    813.4434 307.5220517  +6.3633899     2022.156     4872.057      5495.53     93.32124     187.4659     374.9691      2.406     7.06     1278.542     66.14703      218.807        34     1.727     1.548  12.60   0
        77    300.3754    804.3738 307.7803164  +6.3464155     1205.096     3798.691     4368.548     93.47116     187.4659     375.1557      2.813     8.39     1291.092     66.14703      172.072        34     1.996     1.693   4.18   0
