#   1 NUMBER                 Running object number                                     
#   2 X_IMAGE                Object position along x                                    [pixel]
#   3 Y_IMAGE                Object position along y                                    [pixel]
#   4 ALPHA_J2000            Right ascension of barycenter (J2000)                      [deg]
#   5 DELTA_J2000            Declination of barycenter (J2000)                          [deg]
#   6 FLUX_APER              Flux vector within fixed circular aperture(s)              [count]
#   9 FLUXERR_APER           RMS error vector for aperture flux(es)                     [count]
#  12 FLUX_RADIUS            Fraction-of-light radii                                    [pixel]
#  13 FWHM_IMAGE             FWHM assuming a gaussian core                              [pixel]
#  14 BACKGROUND             Background at centroid position                            [count]
#  15 THRESHOLD              Detection threshold above background                       [count]
#  16 FLUX_MAX               Peak flux above background                                 [count]
#  17 ISOAREA_IMAGE          Isophotal area above Analysis threshold                    [pixel**2]
#  18 A_IMAGE                Profile RMS along major axis                               [pixel]
#  19 B_IMAGE                Profile RMS along minor axis                               [pixel]
#  20 THETA_IMAGE            Position angle (CCW/x)                                     [deg]
#  21 FLAGS                  Extraction flags                                          
         1    413.5240     22.1230 307.7560067  +6.6689518     6601.867     24206.28     33790.66     93.39188     186.0481     371.4691      3.194     8.41     1225.176     65.46446      701.781       101     2.447     2.305  29.55   0
         2    233.7917     24.7185 307.8306596  +6.6619011     2840.143     7216.068     12380.35     92.65476     185.3095     371.2476      4.617    10.89     1241.776     65.46446     329.6918        53     2.822     1.894  37.32   2
         3    594.1842     20.7186 307.6809255  +6.6755306     1227.031     4001.632     5710.961     92.65476     185.4575     371.2476      3.300    11.19     1213.813     65.46446     146.6925        37     2.056     1.697  46.90   0
         4    222.9643     18.4193 307.8353746  +6.6641397     995.3824     3212.841     5484.179     92.50663     185.5314     371.1367      4.868     9.86     1242.228     65.46446     140.4718        24     1.998     1.357  62.01   3
         5    151.6926      4.8972 307.8654683  +6.6673446     3229.776     11722.22     16150.74     93.09774     186.3427      338.638      3.163     8.13     1242.339     65.46446     365.8901        80     2.352     2.170  -0.29  24
         6    494.5139      3.9582 307.7229380  +6.6791381     1063.178     2764.571     3760.453     93.09774      182.776     324.9992      2.895     9.69     1219.607     65.46446     134.6361        22     1.932     1.357  13.07  26
         7    897.0238      2.6360 307.5555901  +6.6930233     1799.271     4158.318     4788.201     92.65476     168.4053     303.3485      2.333     8.53     1205.829     65.46446     200.1193        33     1.922     1.315 -11.70  24
         8    929.8849   1000.0067 307.5085401  +6.2825430     4920.881     9644.835     10004.22     92.65476     185.3835     371.2106      2.049     4.63     1271.813     65.46446     534.1892        42     1.707     1.378  48.15   0
         9    555.7881   1021.3341 307.6632769  +6.2613590      88243.3     204558.8     230599.4     92.50664      180.283     320.3668      2.361     5.17     1274.949     65.46446     9227.853       114     2.438     1.790  30.13  27
        10    557.4481   1014.0106 307.6628330  +6.2644361     40931.98     97560.21     112693.1     92.50663     185.6053     371.0258      2.447     5.47     1274.701     65.46446      4245.13       121     2.919     1.682  24.10  19
        11    189.5240   1023.2250 307.8154014  +6.2484106     1765.175     2795.508     2961.854     86.84843     155.2709     287.8055      1.689     6.06     1276.104     65.46446     296.9882        15     1.484     0.696  14.77  24
        12    690.2643    998.2570 307.6081718  +6.2753384     1704.128     3796.427     5339.683     93.24493     185.6792     371.4322      2.850     6.57     1273.492     65.46446     182.7063        26     1.556     1.297  49.64   2
        13    336.8527    996.0017 307.7551011  +6.2645439     1018.789     2120.605     2650.347     92.35827     185.3835     370.9149      2.195     7.54     1275.815     65.46446     148.6655        13     1.515     1.051  69.28   0
        14    705.1893    997.0041 307.6020119  +6.2763497     641.8789     1217.646     1136.536     92.65476     185.3835     371.2845      1.686     4.88     1273.162     65.46446     128.4731         5     1.505     0.448 -14.16   0
        15    269.1823    985.0331 307.7835887  +6.2668202     7745.956     19638.56     24252.01     92.65476     185.5314     371.2476      2.609     5.68     1275.283     65.46446     865.6487        75     2.128     1.896  16.02   0
        16    723.2359    985.2212 307.5949076  +6.2818095     4501.618     10504.24     12039.08     92.50664     185.4575     371.0998      2.442     5.26     1272.318     65.46446     482.6509        52     1.847     1.619  20.43   0
        17    519.0430    985.9156 307.6797348  +6.2747555     2350.363     5928.168     7199.811     93.09774     185.6792     371.3584      2.630     6.25     1274.464     65.46446     261.7391        40     1.734     1.626   8.92   3
        18    515.9071    978.2551 307.6812952  +6.2778125     4233.252     10805.73     13847.41     92.95032     185.6792     371.6168      2.673     5.80     1274.218     65.46446     519.7847        59     1.977     1.773  50.57   3
        19    784.4399    984.5303 307.5694976  +6.2841203     902.0414     1671.005     1814.204     92.95032      185.753     371.4691      1.856     5.82     1271.972     65.46446     121.5797         8     1.140     0.837 -19.71   0
        20    884.4872    978.5525 307.5281229  +6.2898959     5959.014     12406.46     13563.78     93.09774     185.6053     371.4322      2.218     4.61     1270.604     65.46446     618.3589        51     1.751     1.575  38.76   0
        21    858.1545    974.7857 307.5391916  +6.2905797     7875.235     17489.42     20707.56     92.35827     185.5314     371.1367      2.335     4.98     1270.517     65.46446     786.2618        61     1.897     1.645  12.27   0
        22    502.6233    974.1106 307.6869543  +6.2790820      2313.93     5838.704     6769.267     93.09774     185.5314     371.2476      2.561     6.51     1274.361     65.46446     279.2224        42     1.960     1.499  35.27   0
        23    979.6990    974.0377 307.4887080  +6.2949048     3532.341     6971.059     7615.973     93.09774     185.6053     371.6537      2.115     4.67     1268.445     65.46446       361.83        34     1.486     1.384  24.98   0
        24    611.7585    973.5254 307.6416237  +6.2829428     684.6681     1909.438     1329.677     92.95032     185.8268     371.4322      2.363     8.00     1273.085     65.46446     88.23425         9     1.530     1.169 -49.83   0
        25    572.4058    974.8357 307.6579325  +6.2810975     604.2722     1433.158     1693.644     92.06081     185.4575     371.1367      2.373     3.42     1273.299     65.46446     89.54419         5     0.771     0.440 -69.79   0
        26    455.8948    970.5649 307.7064909  +6.2789942     1206.765     2819.829      2821.87     93.24493     185.6053      371.506      2.299     8.92      1274.85     65.46446     142.3385        25     1.858     1.197   9.47   0
        27    889.8602    962.2978 307.5264340  +6.2967810     28467.08     61217.17     68895.26     92.80266      185.753      371.543      2.254     4.82      1269.61     65.46446     2940.624        90     1.960     1.701  35.94   0
        28    198.6535    961.3915 307.8136912  +6.2742291     961.4308     2213.361     2682.059     92.50664     185.6053     371.0628      2.518     7.57     1273.989     65.46446     118.3969        14     1.484     1.082 -34.83   0
        29    787.7051    956.3157 307.5690858  +6.2958712     1383.394     3242.638     3775.759     92.95032     186.1955      371.506      2.385     8.06     1270.339     65.46446     150.2174        26     1.551     1.384  -5.84   0
        30    735.9379    953.9778 307.5906764  +6.2951226     3530.012     8674.603     10392.07     92.65476      185.753     371.2845      2.510     5.99       1270.9     65.46446     377.1316        48     1.844     1.695  -2.85   0
        31     30.6691    952.0062 307.8838084  +6.2725065     1530.249     3486.535     3843.322     92.50663     185.2355     371.2106      2.262     6.27     1272.452     65.46446       223.17        25     1.588     1.412  47.11   0
        32    206.1499    952.8657 307.8108634  +6.2779966     776.9059     1704.286     1656.057     92.95031     185.6053     371.3953      1.966     5.93     1273.835     65.46446     117.8484         8     1.625     0.608  31.69   0
        33    924.0886    948.9808 307.5126555  +6.3034076     4420.687     9551.923     10581.17     92.80266     185.4575     371.2845      2.249     5.24     1268.675     65.46446     457.0913        45     1.760     1.510  55.51   0
        34    897.7901    940.8970 307.5238547  +6.3058743     1271.909     2557.079     2581.304     92.80266     185.3095     371.1737      2.113     7.84     1268.344     65.46446     126.9642        20     1.630     1.056  45.75   0
        35    231.1365    937.4709 307.8009993  +6.2851805      2153.35     5553.848     6274.803     93.09774      185.753     371.4691      2.461     5.98     1273.734     65.46446     289.5404        43     1.798     1.672 -71.38   0
        36    618.7925    936.8564 307.6399310  +6.2983073      2459.22     5867.141     6312.879     92.35827     185.6053     371.1367      2.394     6.14     1271.782     65.46446     259.1678        38     1.718     1.502  35.12   0
        37    968.4440    935.6249 307.4946694  +6.3103843     572.5419     1204.687     1276.498     92.50664     185.8268     371.2476      1.696     3.59     1266.187     65.46446     119.5844         5     1.364     0.272  44.80   0
        38      1.6776    934.6990 307.8964390  +6.2786813     989.5598      1233.72     1368.019     85.57585     153.8512     286.3724      1.135     2.62     1272.625     65.46446      171.946         6     0.722     0.548  43.58  24
        39    544.0648    929.1666 307.6712427  +6.2990027     935.4102     1796.473     1700.927     92.95032      185.753     371.3584      2.009     5.31       1271.8     65.46446     120.7568         9     1.169     0.681  76.06   0
        40    974.8052    928.4675 307.4922651  +6.3135479     725.0283      1553.73     1632.184     92.50664     185.3835     371.1737      2.162     4.61     1265.315     65.46446     128.9877         6     0.979     0.616 -64.06   0
        41    262.5164    924.5796 307.7883939  +6.2915438     696.9402     2027.791     2729.759     92.80266     185.3835     371.3584      2.980     7.22     1273.581     65.46446      110.078         8     1.330     1.097  88.70   0
        42    866.8311    916.0002 307.5375535  +6.3151246     4258.946     9856.637      11223.1     92.35827     185.5314     371.1737      2.342     5.18     1267.212     65.46446     461.3116        53     1.814     1.741  85.94   0
        43    403.1609    913.7425 307.7303142  +6.3006905     1080.058      2860.09     3623.323     93.09774     185.8268     371.4322      2.955     8.00     1273.108     65.46446     161.3489        20     1.714     1.408 -28.18   0
        44    304.6164    912.0980 307.7713197  +6.2980943     4369.166     11762.25     14426.16     93.09774     185.4575     371.1737      2.685     6.13     1273.546     65.46446     507.2305        64     2.074     1.851  33.73   0
        45    224.7370    910.9669 307.8045512  +6.2959041     3167.233     8813.332     10866.36     92.80266     185.8268     371.3584      2.672     7.06     1273.215     65.46446     410.8057        51     2.042     1.690  45.15   0
        46    553.1865    904.8168 307.6682697  +6.3093531     704.5271     1703.052     1709.472     92.80266     185.3835     371.3214      2.440     5.23     1270.967     65.46446     111.0342         6     1.370     0.565 -73.33   0
        47    838.1254    900.0879 307.5500156  +6.3207416     588.0645     946.5699     413.9538     93.09774     186.1218      371.506      1.632     4.56     1266.722     65.46446      104.782         5     1.213     0.486 -21.68   0
        48    719.2539    894.0059 307.5996197  +6.3193176     817.0573     1764.712     1392.216     92.50664     185.4575     371.0628      2.123     5.09     1267.962     65.46446     124.1355         8     1.103     0.722  21.65   0
        49    952.0000    888.9587 307.5030637  +6.3290982     612.9628     1413.737     1194.979     92.20966     185.3095     370.9889      2.262     3.34     1263.548     65.46446      129.998         4     0.714     0.452 -88.42   2
        50    638.4269    887.0875 307.6334414  +6.3194951     1057.045      2756.15     3384.311     93.24493     185.4575     371.2845      2.906     8.01     1268.488     65.46446     155.4037        15     1.984     0.905  36.43   0
        51     34.8073    884.5439 307.8843655  +6.3004814     1331.507     3426.524     4349.126     92.50664     185.6053     371.0998      2.729     6.13      1271.54     65.46446     179.3284        24     1.807     1.365 -77.59   0
        52    178.0649    882.9630 307.8248891  +6.3059062     967.5608     2315.055     3081.831     92.95032     185.6792     371.4691      2.493     8.49     1271.557     65.46446     165.4708        15     1.692     1.190 -33.89   0
        53     52.2346    882.3760 307.8771970  +6.3019568     961.8704     2055.144     2451.773     92.50664     185.5314     371.1367      2.198     5.88      1271.23     65.46446     151.2135        10     1.215     0.801  27.94   0
        54    632.3071    876.8058 307.6363296  +6.3235350     3439.914     9131.755     10585.42     92.65476     185.3835     371.1737      2.605     6.10      1268.04     65.46446     382.0243        54     1.925     1.755  57.30   0
        55    315.5082    870.3745 307.7681978  +6.3156731     7203.622     20177.33     25930.57     93.24493     185.4575     371.2106      2.819     6.33      1273.01     65.46446     856.1528        85     2.240     2.033  32.84   0
        56    869.6063    872.6566 307.5378510  +6.3331023      1524.81     3339.218     4312.561     92.50664     185.6053     371.0628      2.505     7.40     1264.926     65.46446     164.6569        22     1.439     1.293  33.00   0
        57     78.9958    860.1683 307.8668257  +6.3120123     896.3981     1940.597     2730.672     92.35827     185.6053     371.1367      2.658     6.24     1270.184     65.46446     121.2031        12     1.224     0.894 -31.56   0
        58    860.3650    854.7598 307.5422907  +6.3401819     1172.813     2956.852     2921.228     92.80266      185.753     371.1737      2.326     7.16     1263.981     65.46446     147.4982        20     1.626     1.416  57.26   0
        59    794.2027    853.3463 307.5698346  +6.3385767     1545.789     3993.453     4138.387     92.35827     185.5314     370.9519      2.428     7.90       1264.6     65.46446     174.0553        32     1.725     1.496   9.76   0
        60     62.6155    854.8777 307.8738111  +6.3136494     1184.111      2963.47     3603.089     92.65476     185.4575     371.2106      2.475     8.55     1270.249     65.46446     148.3263        21     1.535     1.330   4.31   0
        61    830.3188    853.6387 307.5548152  +6.3396509     1024.113     2049.395     2222.939     93.09774     185.8268     371.3214      2.205     7.84      1264.26     65.46446     135.3031        15     1.433     1.201  35.06   0
        62    530.3312    845.3370 307.6797651  +6.3331391     143285.1     409390.6     509152.2     93.09774      185.753     371.4691      2.771     6.37      1268.59     65.46446     15361.14       204     2.350     2.156  34.89   0
        63    374.6235    848.1052 307.7443808  +6.3268271     3099.032     9140.015     11638.31     93.24493     185.4575     371.2476      2.822     6.88     1271.481     65.46446     371.6288        59     2.071     1.841  32.20   0
        64    317.9207    846.5148 307.7679983  +6.3255988     5014.449     15112.29     19086.84     92.95031     186.1218      371.506      2.844     6.64     1272.356     65.46446     563.9901        72     2.150     1.997  37.63   0
        65    636.6231    841.5427 307.6357190  +6.3382293     1677.031     3946.347     4589.957     92.65476      185.753     371.1737      2.602     6.05      1265.48     65.46446     233.1014        27     1.768     1.161  36.21   2
        66    868.4113    841.1089 307.5394036  +6.3460811     3126.401     7143.027     8639.937     92.80266     185.3835     371.1737      2.445     6.03     1262.842     65.46446     308.8811        48     1.966     1.553  17.04   0
        67    611.2604    836.4130 307.6464316  +6.3395054     1546.712     3885.175      4976.68     92.35827     185.6053     371.0258      2.750     8.42     1265.473     65.46446     201.5018        33     1.885     1.515  59.40   2
        68    602.4586    833.3600 307.6501921  +6.3404734     938.4763     2137.668     3605.147     93.09774      185.753     371.4691      3.635     7.43     1265.529     65.46446     100.5092        15     2.123     0.728  24.52   3
        69    604.3454    830.4199 307.6495066  +6.3417492     954.5757     2107.567     3243.262     92.50664      185.753     371.1737      2.418     6.62      1265.21     65.46446     122.5719        14     1.855     0.662  24.99   3
        70   1001.9830    835.2803 307.4840857  +6.3528997     3102.612     6456.824      7805.86     92.65476     185.3835     371.2845      2.304     4.99     1257.648     65.46446     376.3967        36     1.623     1.390  -4.38   0
        71    798.8762    835.0198 307.5685063  +6.3462938     801.0301     1944.578     2076.356     92.65476     185.3835     371.3214      2.387     5.97     1263.173     65.46446      121.965         9     1.207     0.830 -62.99   0
        72    887.2625    829.1046 307.5319708  +6.3516579     2032.348     4463.771     5224.086     92.95032     185.8268     371.4322      2.336     5.89     1261.428     65.46446     191.6523        31     1.522     1.441 -78.64   0
        73    345.9122    825.3499 307.7570780  +6.3352628     1077.545     3076.886     4379.245     93.09774     185.5314      371.543      3.147     9.61     1271.481     65.46446     160.5214        25     1.858     1.608  30.84   0
        74    479.9997    816.1440 307.7016629  +6.3435153     965.2741     1741.234     2534.141     92.20966     185.3835     371.0628      2.355     6.38     1267.207     65.46446     147.7831        11     1.392     0.919  72.96   3
        75    482.7642    813.9421 307.7005880  +6.3445156     1457.726     2886.411     3874.597     93.09774      185.753     371.3953      2.220     7.33     1267.042     65.46446     174.1877        20     1.659     1.040  43.57   2
        76    529.1254    811.0888 307.6814166  +6.3472315     2586.472     7493.394     10577.99     93.09774     186.1218      371.506      3.081     8.20     1266.411     65.46446     299.1638        58     2.271     1.805   6.51   0
        77    827.2208    812.4834 307.5574809  +6.3565313     556.9915     1336.277     2138.171     92.80266     185.3835     371.3214      1.782     4.44     1261.191     65.46446     134.7284         5     1.611     0.348  25.64   0
