#   1 NUMBER                 Running object number                                     
#   2 X_IMAGE                Object position along x                                    [pixel]
#   3 Y_IMAGE                Object position along y                                    [pixel]
#   4 ALPHA_J2000            Right ascension of barycenter (J2000)                      [deg]
#   5 DELTA_J2000            Declination of barycenter (J2000)                          [deg]
#   6 FLUX_APER              Flux vector within fixed circular aperture(s)              [count]
#   9 FLUXERR_APER           RMS error vector for aperture flux(es)                     [count]
#  12 FLUX_RADIUS            Fraction-of-light radii                                    [pixel]
#  13 FWHM_IMAGE             FWHM assuming a gaussian core                              [pixel]
#  14 BACKGROUND             Background at centroid position                            [count]
#  15 THRESHOLD              Detection threshold above background                       [count]
#  16 FLUX_MAX               Peak flux above background                                 [count]
#  17 ISOAREA_IMAGE          Isophotal area above Analysis threshold                    [pixel**2]
#  18 A_IMAGE                Profile RMS along major axis                               [pixel]
#  19 B_IMAGE                Profile RMS along minor axis                               [pixel]
#  20 THETA_IMAGE            Position angle (CCW/x)                                     [deg]
#  21 FLAGS                  Extraction flags                                          
         1    171.1286     31.0024 307.8652266  +6.6681168     5190.212      14316.8     17036.85     91.43523     183.1633     366.9113      2.597     6.24      1206.68     64.70625     547.1395        61     2.077     1.712 -82.82   0
         2    700.7803     21.2802 307.6452356  +6.6898906     4123.258     10030.46     12109.94     91.58164     183.2364     367.0208      2.483     5.61     1172.891     64.70625     477.9895        51     1.898     1.617 -69.51   0
         3    620.9842     20.5304 307.6784545  +6.6875316     1898.799     4689.147     5391.043     91.43523     183.4556     366.9843      2.446     6.74     1174.788     64.70625       215.27        37     1.783     1.499 -46.35   0
         4    421.1830     16.8855 307.7616891  +6.6823454     3098.479     8358.517     9893.085     91.58164     183.3095     367.0208      2.581     6.34     1185.232     64.70625     355.7023        50     1.898     1.753 -87.76   0
         5     22.3863     16.7515 307.9275753  +6.6690015      4574.04     11599.11     12924.22     91.28858     183.5287     366.7286      2.422     6.04     1211.936     64.70625     486.8701        54     1.944     1.604 -73.91   0
         6    316.7614     13.0064 307.8052553  +6.6804453     5267.406     10668.45     13101.18     90.99458     183.2364     366.7652      2.176     5.39     1198.779     64.70625     558.4419        30     1.884     1.015  55.46   3
         7    319.3956     11.2039 307.8042202  +6.6812785         5552      10502.2      12830.7     91.28858     183.0901     366.9113      2.133     7.41     1198.515     64.70625     579.8137        33     2.065     1.089  44.48  19
         8     91.5810     12.3393 307.8989429  +6.6731536     1439.293     3378.751      4098.29     91.58164     183.5287     366.9113      2.405     8.16     1210.232     64.70625     164.6893        24     1.558     1.351 -49.63   0
         9     82.2803     11.4484 307.9028415  +6.6732088     833.3196      1843.14     2467.099     92.01949     183.6746     367.0573      2.502     6.48     1210.355     64.70625     101.3196        10     1.592     0.741 -42.56   0
        10    384.1851     10.0263 307.7773095  +6.6839391     1088.528     2688.552     2741.285     91.72782     183.4556     367.0208      2.481     8.65      1190.33     64.70625     114.3624        22     1.614     1.295  46.03  16
        11    644.6180      5.1357 307.6691392  +6.6946839     5758.843     14654.11     17781.04     91.58164     183.6016     337.7047      2.554     5.81       1173.5     64.70625     637.3652        63     2.018     1.759 -80.87  26
        12    636.1775      2.1174 307.6727515  +6.6956488     4114.802     6943.305     7657.475     89.36025     158.5396     290.8069      1.796     5.93      1173.51     64.70625     526.7031        27     1.566     1.119  -6.73  27
        13    809.3633      4.8264 307.6006171  +6.7003181     929.0209     2223.744     3055.006     91.58164     183.3826      333.553      2.550     7.56     1166.669     64.70625     127.1793        14     1.628     1.211 -33.61  16
        14    523.7502      5.6719 307.7194002  +6.6904165     725.3867     1265.159     1608.592     92.01949     183.6016     344.6165      2.149     4.89     1177.118     64.70625     96.68152         5     1.063     0.636  65.86  16
        15    245.1248      3.0380 307.8353888  +6.6821590     3217.229     7285.013     7679.979     91.87377     171.9191     307.0324      2.268     6.77     1204.988     64.70625     366.5327        40     1.947     1.375 -29.80  24
        16    879.5397      2.4144 307.5715046  +6.7036574      1031.27     1809.325     2120.938     91.43523     163.6134     296.0578      1.968     5.95     1164.251     64.70625     126.4351        14     1.185     1.054  -2.42  24
        17    406.0253      2.2726 307.7684851  +6.6878757     3521.701     6482.711     6626.968     90.55177     161.3043     293.5126      1.946     6.60     1187.508     64.70625     394.7531        30     1.703     1.149  -6.63  24
        18    666.5640      1.7307 307.6601241  +6.6968251     3313.451      5570.21     6547.345     85.37303     152.7726     283.7648      1.876     6.96     1172.928     64.70625     429.0483        24     1.832     0.854  -7.54  24
        19    216.6667    987.1418 307.8141287  +6.2745366     1204.484     2490.439     3186.501     92.16497     183.5287     367.0938      2.357     6.24     1247.815     64.70625     203.8856        20     1.542     1.226  82.70   0
        20    708.7894   1023.3826 307.6083666  +6.2760397     1556.875     1966.291     2039.108     84.10818     150.6531     281.4893      1.303     3.63     1240.476     64.70625     231.3497        13     1.265     0.656   2.53  24
        21    355.6875   1022.3070 307.7551663  +6.2646683     1354.465     2001.374     1985.843     92.01949     167.6579     301.1727      1.698     5.82     1248.267     64.70625     167.4952        16     1.191     0.991  62.94  24
        22    755.1773    980.8422 307.5905074  +6.2951690     5607.689     10027.76     11309.58     91.58164     183.4556     366.8748      1.966     4.28     1238.303     64.70625     680.4362        40     1.821     1.216 -77.16   0
        23    615.0455    985.1960 307.6486093  +6.2886873     747.6468     1229.795     992.7639     91.28858     183.2364     366.7286      1.652     4.63     1241.256     64.70625     115.9548         6     1.237     0.492 -57.71   0
        24    807.0147    982.6263 307.5689006  +6.2961621     2009.851     3627.052      3901.38     91.72782     183.3826     367.0208      1.949     4.36     1237.168     64.70625     302.8827        22     1.375     1.085  88.87   0
        25    540.5847    979.9664 307.6797346  +6.2883578     683.9159     957.3057     1237.367     91.58164     183.3095     366.9478      1.705     4.56     1243.087     64.70625     106.1029         7     1.258     0.469 -82.52   0
        26    224.8410    979.4944 307.8109882  +6.2779712     1178.115     1843.033     1629.833     92.16497     183.5287     367.2033      1.692     5.36     1247.632     64.70625      136.733        13     1.182     0.824 -72.28   0
        27    189.7546    979.4150 307.8255740  +6.2768261     567.2391      965.069     1021.562     91.28858     183.3826     366.8382      1.547     3.81     1247.731     64.70625     103.1188         5     1.001     0.415  82.89   0
        28     49.9917    978.0003 307.8837112  +6.2727148     2095.286     3644.663     4345.734     91.28858     183.2364     366.8748      1.911     5.16     1248.268     64.70625     235.4985        22     1.297     1.152  78.93   0
        29    943.2764    975.6210 307.5124944  +6.3036016     6389.623     9720.019     10255.43     91.58164     183.3095     367.0208      1.665     3.48     1232.518     64.70625     786.4263        30     1.336     1.137 -83.40   0
        30    917.2590    967.3354 307.5235857  +6.3061585     2133.291     3016.825     2924.315     92.16497     183.5287     367.1303      1.618     3.91     1233.144     64.70625     264.7142        18     1.176     1.000  86.35   0
        31    250.2474    963.8234 307.8009548  +6.2852997     3242.579     6485.468     6989.528     91.58164     183.6017     366.9478      2.061     5.17     1247.429     64.70625     362.6957        35     1.567     1.445 -85.27   0
        32    776.7783    963.9816 307.5820921  +6.3028579     1124.331     1974.062     1374.574     91.72782     183.4556     367.0208      1.824     6.38     1237.026     64.70625     158.2983        14     1.270     0.900  61.82   0
        33    637.9467    963.4042 307.6398195  +6.2984585     3620.325     6768.506     7436.293     91.28858     183.3095     366.6921      2.037     4.37     1239.678     64.70625     397.0919        32     1.426     1.355  84.37   0
        34     19.0512    961.1821 307.8971370  +6.2786241      1908.16     3340.972     3975.937     91.43523     183.6746     366.8017      1.917     4.44     1247.918     64.70625     271.1381        19     1.302     1.064 -85.25   0
        35    460.2722    961.3675 307.7137403  +6.2933553     780.8759     1412.586     878.1828     91.87377     183.6017     367.1303      1.816     5.92     1243.588     64.70625     95.10889         8     1.160     0.851   6.05   0
        36    869.9484    959.4299 307.5435155  +6.3078479     900.6395     1359.744     1455.994     91.72782     183.7475     366.9843      1.754     5.01     1234.315     64.70625     136.1162         8     1.027     0.692 -72.50   0
        37    941.1826    957.3201 307.5139753  +6.3110948      773.616     1174.546     987.5605     91.58164     183.2364     366.9843      1.415     3.26     1231.806     64.70625     131.9614         7     0.950     0.610  87.56   0
        38    562.7396    955.9592 307.6713298  +6.2990200      1296.39     2318.305     2393.331     92.01949     183.6016     367.2033      1.845     7.08     1241.728     64.70625      164.224        17     1.440     0.975 -59.12   0
        39    993.9709    955.2750 307.4921003  +6.3136990     813.6815     1292.281     2332.499     91.87377     183.6016     367.0938      1.759     3.01     1229.668     64.70625     135.9658         6     0.793     0.735  84.94   0
        40    601.7266    951.9786 307.6552575  +6.3019690     979.7263     1492.168     1819.991     91.58164     183.3826     367.0208      1.815     5.01     1240.552     64.70625     125.1091        11     1.116     0.766 -65.78   0
        41    281.9700    950.1953 307.7882272  +6.2919958     1175.723     2183.531     2780.133     91.43523     183.3826     366.8382      1.859     5.89     1247.414     64.70625     157.8473        13     1.245     0.785 -87.25   0
        42    886.0474    942.5420 307.5373873  +6.3153638     6406.336     10888.03     11176.82     92.01949     183.6016     367.2398      1.834     3.80     1232.807     64.70625     810.5874        38     1.528     1.257 -78.06   0
        43    323.7361    938.3601 307.7712644  +6.2982874     6840.409     13646.14     14829.65     92.01949     183.5287     367.1668      2.112     4.51     1246.121     64.70625     748.3534        46     1.688     1.465  80.05   0
        44    422.1570    939.5399 307.7303152  +6.3010988     1615.234     2921.486     3268.548     92.01949     183.6016     367.2033      1.943     5.94     1243.809     64.70625     208.5022        20     1.443     1.078 -29.45   0
        45    243.8555    937.2768 307.8045035  +6.2960553     5054.432     9920.127     10890.83     92.01949     183.6016     367.0573      2.081     4.62     1246.902     64.70625     596.9866        40     1.650     1.381 -88.22   0
        46    571.7681    931.1321 307.6684084  +6.3095818     830.8912     1726.622     1936.505     91.87377     183.6016     367.0573      2.295     6.58     1240.622     64.70625     130.1259         9     1.348     0.902  78.54   0
        47    748.3508    945.5122 307.5945260  +6.3095412      692.536     1095.756     1093.702     92.01949     183.4556     367.1668      1.615     4.17      1236.93     64.70625     112.6206         5     0.955     0.527 -43.55   0
        48    857.9277    926.6580 307.5496067  +6.3209901     749.4878      1342.85     1209.071     92.16497     183.6016     367.0573      1.950     5.41     1232.569     64.70625       111.21         7     1.095     0.755  81.15   0
        49    738.0317    920.5639 307.5996496  +6.3195066     1304.871     2436.755     2630.733     91.58164     183.3095     366.8017      1.971     6.25     1235.772     64.70625     148.4762        19     1.486     1.131 -80.45   0
        50    969.1364    916.0585 307.5037318  +6.3290782     1174.296     1857.762     3184.926     92.16497     183.5287     367.1303      1.939     4.65     1228.521     64.70625     136.7771        12     1.013     0.895  73.65   0
        51    656.9135    913.8196 307.6335948  +6.3195834     1817.455      3421.39     3974.376     91.72782     183.3095     367.0208      2.127     5.92     1237.531     64.70625     209.5288        23     1.528     1.248  30.78   0
        52     53.5516    910.4279 307.8845062  +6.3007576     2176.909     4208.148     4539.147     91.58164     183.6017     367.0208      1.956     4.67     1246.715     64.70625     293.9797        26     1.485     1.178  78.65   0
        53    197.1298    909.3101 307.8248652  +6.3060438     1548.831     3252.695     3535.901     91.87377     183.8933     367.0938      2.137     6.81      1246.69     64.70625     182.1429        23     1.488     1.184 -83.51   0
        54     71.0997    909.5162 307.8772431  +6.3017243     1296.442     2499.697     2825.867     92.01949     184.1845     367.2033      2.059     7.26     1246.768     64.70625     150.2612        18     1.374     1.076  85.94   0
        55    934.0058    909.0366 307.5185698  +6.3308092     758.0117     1151.649     1366.395     90.99458     183.3095     366.8748      1.533     5.03     1229.329     64.70625     123.0515         8     1.142     0.816 -42.31   0
        56    651.3654    903.2592 307.6362544  +6.3237621      5164.38      9864.83     10769.09     91.87377     183.6017     367.0573      2.037     4.43     1237.438     64.70625     604.4962        37     1.632     1.309 -81.17   0
        57    888.9199    899.4795 307.5376309  +6.3332555      2592.38     4471.564     4595.566     92.31023     183.8933     367.2762      1.916     4.64     1230.201     64.70625     282.4438        26     1.490     1.113 -65.34   0
        58     11.8611    901.7696 307.9021262  +6.3029334     1034.792     1606.719     1586.732     91.72782     183.6016     367.0573      1.550     4.12      1246.51     64.70625     134.5822        10     0.970     0.732  59.26   0
        59     25.9633    900.6940 307.8963009  +6.3038522     753.1716     1385.282     1582.171     92.16497     183.4556     367.2033      1.802     3.84     1246.536     64.70625     124.1392         5     0.822     0.514 -53.36   2
        60    334.4717    896.6086 307.7682037  +6.3159009     10919.67     23203.12     26417.45     91.43523     183.0901     366.9843      2.197     4.88     1245.077     64.70625     1201.556        63     1.813     1.617 -79.44   0
        61     69.6027    896.7907 307.8782936  +6.3069326     828.7515     1592.078     1204.494     91.28858     183.2364     366.8748      2.024     5.96     1246.594     64.70625     118.5804         9     1.120     0.893  41.75   0
        62    205.0980    895.6336 307.8220128  +6.3119629     796.2568     1480.862     1592.727     92.01949     183.4556     367.2398      1.976     5.51     1246.455     64.70625     111.6761         9     1.145     0.908  62.21   0
        63     98.1292    887.3422 307.8667544  +6.3117960     1221.556     2579.628     2630.158     92.16497     183.6016     367.0938      2.080     7.81     1246.509     64.70625     193.4738        17     1.529     1.116  81.24   0
        64    412.2434    886.9760 307.7361991  +6.3224884     798.9958     1503.825      1608.22     91.43523     183.4556     366.8748      2.016     7.28     1242.608     64.70625     92.81433        10     1.332     1.116 -39.99   0
        65    850.1031    880.7554 307.5543924  +6.3396986     1840.026     2924.854     2649.242     92.01949     183.5287     367.2762      1.729     5.86     1230.576     64.70625     221.7894        20     1.462     1.055  86.02   0
        66    879.5881    880.9697 307.5421282  +6.3405936     1671.908     2871.647     2960.131     91.43523     183.3095     366.9843      1.852     5.70     1229.595     64.70625     170.6816        20     1.330     1.083  79.71   0
        67     81.4475    880.7158 307.8739113  +6.3139735     1745.979     3397.802     4221.661     92.01949     183.6017     367.1303      2.154     5.20     1246.396     64.70625     240.3269        22     1.533     1.047  87.08   0
        68    813.7827    880.0616 307.5695141  +6.3387734     2451.918     4439.429     4702.635     91.58164     183.5287     366.8748      1.920     4.68     1231.237     64.70625     280.4341        26     1.502     1.120 -49.36   0
        69    549.4723    871.7709 307.6796647  +6.3333669     228934.6       476565     525106.1     91.87377     183.6017     367.0573      2.168     4.77     1239.623     64.70625     24658.94       168     1.970     1.720 -74.47   0
        70    393.7863    874.3288 307.7442957  +6.3270963     4981.303     10752.26     11926.78     91.43523     183.4556     366.9478      2.205     5.01     1242.836     64.70625     611.8258        44     1.631     1.518 -79.68   0
        71    337.0132    872.8394 307.7679452  +6.3258086     8031.042     17427.84     19468.89     91.43523     183.3826     366.8382      2.231     4.98     1244.674     64.70625     923.1869        58     1.820     1.577 -80.02   0
        72    655.2275    868.8439 307.6358007  +6.3381134     2518.182      5073.66     5250.885     91.58164     183.6746     367.0208      2.074     5.65     1236.514     64.70625     295.4949        28     1.635     1.161 -85.01   0
        73    887.7451    867.5440 307.5391855  +6.3464139     4479.104     7676.438     8906.411     92.31023     183.6017     367.0938      1.932     4.11     1228.509     64.70625     480.1279        31     1.399     1.261 -79.29   2
        74    882.6952    867.6916 307.5412799  +6.3461845     682.9598     1124.558     1515.763     92.01949     184.1845     367.0573      1.801     3.47     1228.768     64.70625     120.2212         5     0.794     0.439  68.52   3
        75    630.2289    863.1715 307.6463825  +6.3396217     2214.231      4620.48     5444.761     91.43523     183.3095     366.8017      2.195     5.57     1236.626     64.70625     231.8756        29     1.489     1.333  66.16   0
        76   1021.1290    861.7341 307.4839299  +6.3532603      4443.75     7301.938     8039.269     92.01949     180.2879     320.0652      1.819     3.56     1221.434     64.70625     564.2885        28     1.357     1.112 -87.18  24
        77    818.3550    861.8040 307.5682234  +6.3464711     1380.533     2505.128     2225.582     91.28858     183.2364     366.7286      1.903     5.47     1229.975     64.70625      164.809        17     1.224     1.067 -55.21   0
