#   1 NUMBER                 Running object number                                     
#   2 X_IMAGE                Object position along x                                    [pixel]
#   3 Y_IMAGE                Object position along y                                    [pixel]
#   4 ALPHA_J2000            Right ascension of barycenter (J2000)                      [deg]
#   5 DELTA_J2000            Declination of barycenter (J2000)                          [deg]
#   6 FLUX_APER              Flux vector within fixed circular aperture(s)              [count]
#   9 FLUXERR_APER           RMS error vector for aperture flux(es)                     [count]
#  12 FLUX_RADIUS            Fraction-of-light radii                                    [pixel]
#  13 FWHM_IMAGE             FWHM assuming a gaussian core                              [pixel]
#  14 BACKGROUND             Background at centroid position                            [count]
#  15 THRESHOLD              Detection threshold above background                       [count]
#  16 FLUX_MAX               Peak flux above background                                 [count]
#  17 ISOAREA_IMAGE          Isophotal area above Analysis threshold                    [pixel**2]
#  18 A_IMAGE                Profile RMS along major axis                               [pixel]
#  19 B_IMAGE                Profile RMS along minor axis                               [pixel]
#  20 THETA_IMAGE            Position angle (CCW/x)                                     [deg]
#  21 FLAGS                  Extraction flags                                          
         1    464.9086     22.3727 307.7476855  +6.6792553     1654.707     2569.972     2258.619     78.01846     155.1731     310.6246      1.665     4.22     817.3598     54.77442     223.3807        18     1.315     0.905 -35.44   0
         2    712.2193     16.4930 307.6451306  +6.6899725     6920.156     10826.68     11006.02     77.77197     155.1731     310.5937      1.683     4.02     813.6448     54.77442     860.3464        33     1.510     1.044 -40.55   0
         3    632.5005     15.7141 307.6782786  +6.6876244     3584.954     5610.992     5035.941     77.89531     155.9138       310.81      1.695     4.07     813.9656     54.77442     454.0883        27     1.470     0.990 -41.37   0
         4    334.4693     15.6368 307.8021052  +6.6776559     844.5225     1401.262     2378.406     77.77197     155.4822     310.8409      1.994     6.33     823.7246     54.77442      109.858        10     1.240     0.908 -33.52   0
         5    432.6202     11.9431 307.7614510  +6.6824779     5824.115     9627.142     9564.618     77.52467     155.3586     310.5627      1.754     3.90      818.533     54.77442     741.9096        36     1.534     1.139 -39.54   0
         6     33.5471     11.5119 307.9272635  +6.6692304     8065.206     13056.45     13807.23     77.89532     155.2968     310.8717      1.785     3.93     825.1117     54.77442      1007.43        38     1.550     1.166 -34.69   0
         7    679.4523     10.7937 307.6589359  +6.6912287     822.9371      1255.52     1180.121     77.40073      155.235     310.4081      1.533     5.37      813.839     54.77442      118.944         9     1.295     0.628 -29.80   0
         8    329.1701      6.8658 307.8046020  +6.6810994     12035.19     20029.18     21763.97     77.64841     155.4204     302.2595      1.778     4.08     823.8541     54.77442     1525.882        47     1.648     1.155 -42.35  16
         9    508.2778      9.2055 307.7301092  +6.6861473     790.5217     1271.933     1567.636     77.52467     154.9255     310.5318      1.639     5.48     815.7256     54.77442     127.7655         9     1.451     0.604 -51.55  16
        10    424.3327      7.6105 307.7650399  +6.6839886     810.3707     1163.382     1213.161     77.40073      155.235     307.3309      1.451     4.31      818.863     54.77442     129.6794         9     1.144     0.562 -45.90  16
        11    102.7550      7.1489 307.8986586  +6.6733640     2398.853     3998.837     4019.422     78.01846     155.3586     304.3171      1.725     4.08     825.4737     54.77442     297.9044        23     1.467     0.894 -35.77  16
        12    395.3682      4.7509 307.7771700  +6.6841967     2241.781     3721.683      3343.82     77.64841     155.4204     281.6066      1.736     4.06     820.3389     54.77442     300.3025        22     1.528     0.859 -45.49  16
        13     94.0853      5.9654 307.9023003  +6.6735606     1352.636     2344.222     2694.241     77.89531     155.2968     294.3094      2.014     4.21     825.3724     54.77442     165.3854        16     1.309     0.806 -32.45  16
        14    797.4597      5.7382 307.6100745  +6.6972654     851.6627     1381.383     1573.572     77.89531     155.3586     292.2471      1.747     5.20     811.4903     54.77442     122.9232         9     1.199     0.636 -37.59  16
        15    655.8439      1.5437 307.6690552  +6.6942574     6119.967     7806.741     8323.122     70.24806     126.5467     237.1928      1.293     3.26     813.6299     54.77442     1223.659        21     1.463     0.710  -3.09  24
        16    990.5979      1.7912 307.5299579  +6.7053483     552.6816     598.2313     349.8068     72.40176      129.768     240.8082      1.266     5.26     807.2202     54.77442     78.66248         5     1.050     0.745  12.93  24
        17    820.3919      1.5267 307.6006873  +6.6997713     733.6652     1085.925     1182.207     69.56136      125.862     236.8283      1.435     4.20     811.0893     54.77442      142.691         6     1.011     0.574  30.01  24
        18    533.3035      1.2127 307.7199800  +6.6902870     615.8727     623.1702     519.4274     66.31099     121.5943     231.8298      1.185     3.68     814.5909     54.77442      139.504         6     1.061     0.368 -10.38  24
        19    532.8700    996.0529 307.6867726  +6.2794883     3733.504     6362.841     7301.043     77.77197     155.2968     310.6864      1.900     4.27     849.0608     54.77442     461.3157        31     1.633     1.127 -22.47   0
        20    960.4183   1022.0778 307.5084021  +6.2830392     5192.717     9496.302     9674.131     77.40073     143.7388     258.0521      1.908     4.41     842.8864     54.77442       571.99        39     1.641     1.266 -20.11  24
        21    720.1642   1020.5598 307.6081961  +6.2756394     2453.397     4374.521     4550.073     77.64841     155.4204     277.8311      1.912     4.18     848.0848     54.77442     313.4672        29     1.558     1.143 -42.26  26
        22    714.6691   1022.9092 307.6103987  +6.2744854     931.8206     1340.416     1705.717     75.89767     134.2767     245.7803      1.489     5.80     848.1579     54.77442     141.0546        10     1.242     0.763 -31.94  27
        23    244.8100   1022.3392 307.8054745  +6.2589679      1105.12     1800.576     1516.225      77.2766     141.2458     253.9265      1.581     5.40     850.3338     54.77442     164.5418        15     1.467     0.722 -36.01  24
        24    642.2702    995.2955 307.6413801  +6.2834651     1197.006     2023.023     2317.847     77.77197     155.4822     310.7482      1.760     4.20     847.9332     54.77442     171.2815        13     1.223     0.760 -22.75   0
        25    485.8314    992.8423 307.7064083  +6.2792373     2050.145     3481.324     3430.002     77.40073     155.2968     310.5937      1.790     4.38     849.1292     54.77442      254.851        23     1.436     1.022 -36.76   0
        26     67.9151    994.3625 307.8798492  +6.2645702     819.9769     1308.543     1153.414     77.89531     155.4204     310.7482      1.745     5.18     846.3041     54.77442     113.4315         8     1.311     0.579 -28.20   0
        27    920.3734    984.6809 307.5262764  +6.2971449     37083.29     67249.52     72465.06     77.77197      155.235     310.7791      1.949     4.06     843.5172     54.77442      4128.54        81     1.785     1.468 -33.34   0
        28    227.4551    983.0579 307.8140001  +6.2746042     1529.998     2584.913     2586.201     78.01846     155.4822     310.7791      1.864     5.42     848.9813     54.77442     222.3175        21     1.533     1.085 -44.17   0
        29    818.1404    978.6853 307.5689211  +6.2962060     1956.422     3417.891     3324.652     77.89531     155.4822     310.8409      1.816     4.64     844.4327     54.77442     224.8042        25     1.431     1.187 -37.96   0
        30    626.4970    981.1214 307.6484033  +6.2887899     870.9462     1355.626     1154.081     77.64841     155.6673     310.8409      1.578     5.73     847.9454     54.77442     131.7264        11     1.320     0.832 -25.91   0
        31    115.9779    981.2308 307.8603394  +6.2716099     574.0793     869.2831     742.5205     77.40073      155.235     310.5937      1.537     3.89     846.7766     54.77442     83.40924         5     0.845     0.512 -54.81   0
        32    766.5903    976.3492 307.5904012  +6.2954475     5772.632      10062.7     10974.09     77.40073     155.2968     310.4391      1.923     4.01     845.5857     54.77442     670.7551        43     1.703     1.267 -47.83   0
        33    553.1696    975.6089 307.6790306  +6.2886101     905.4324     1550.023     1562.117     77.40073      155.235     310.5627      2.101     4.06      848.708     54.77442     154.0847        12     1.281     0.737 -10.18   0
        34    236.0367    975.2203 307.8107012  +6.2781289     1405.072     2335.513     2421.887     77.52467     155.1731     310.5009      1.825     4.12     848.7151     54.77442     183.4985        17     1.220     0.943 -26.08   0
        35     60.7198    973.3658 307.8835435  +6.2729976     2529.482     4291.217     4300.531     77.77197     155.4822     310.7791      1.843     4.49      845.945     54.77442     296.1656        27     1.559     1.026 -44.28   0
        36    200.8661    974.5434 307.8253246  +6.2772262     743.2159     1596.583     1417.185     78.01846     155.3586     310.7482      1.959     6.22     848.3894     54.77442     127.9193        11     1.569     0.693 -29.51   0
        37    954.7413    971.4193 307.5124506  +6.3037681     5658.592      10513.2     11174.49     77.52467     155.2968     310.5627      1.983     4.13     841.6188     54.77442     607.2291        45     1.684     1.328 -34.28   0
        38    788.0856    959.6940 307.5820342  +6.3030435     1129.937     1906.156     1805.873     77.89531     155.8522     310.8409      1.778     4.42     844.5041     54.77442     172.1656        14     1.118     1.078  38.17   0
        39    649.2184    958.9361 307.6397133  +6.2987113     4184.919     7025.677     7176.596     77.52467     155.4204     310.5937      1.771     3.93      847.128     54.77442     479.4896        32     1.581     1.053 -33.06   0
        40     29.9904    956.7375 307.8968605  +6.2788288     2076.269     3612.334     3987.012     77.40073      155.235     310.5627      1.805     4.51     845.3692     54.77442      265.793        26     1.547     1.131 -53.34   0
        41    471.3193    957.4936 307.7136192  +6.2933468     997.9676     1557.644      1513.91     77.64841     155.6673       310.81      1.665     5.14     848.5728     54.77442     127.0996        10     1.344     0.554 -37.52   0
        42    881.2585    955.6797 307.5434850  +6.3078142     810.7651     1485.638     1291.735     78.01847     155.4204     310.7173      1.886     5.36     843.0211     54.77442     116.3074        10     1.279     0.849  32.60   0
        43    928.3561    963.2889 307.5236768  +6.3062447     1789.983     3228.099     2920.447     77.89531     155.3586     310.7791      1.886     4.08     842.2139     54.77442     216.8834        24     1.320     1.161   7.91   0
        44    261.3817    959.2433 307.8007167  +6.2855776     3925.477     6831.941     7335.671     77.40073     155.2968     310.5318      1.842     4.13     848.3208     54.77442     495.1547        33     1.684     1.037 -41.52   0
        45    573.9200    951.6588 307.6712188  +6.2991948     1494.777     2443.337     2528.318     78.01846     155.4204     310.7173      1.760     4.12      848.236     54.77442     189.4174        20     1.326     0.969 -29.49   0
        46    297.3961    952.7632 307.7859832  +6.2894632     819.2626     1018.729     1103.071     77.02772      155.235     310.5627      1.514     5.61     848.4049     54.77442     118.0156        10     1.167     0.761 -46.34   0
        47   1005.5778    950.6678 307.4920370  +6.3140331     617.2886     1328.343     1424.018     77.52467     155.3586     310.7173      2.255     5.57     839.8475     54.77442     108.2663         9     1.371     0.637 -37.80   0
        48    613.1588    948.0386 307.6550494  +6.3020038     1115.209     1831.334     1645.635     77.64841     155.4822     310.6246      1.752     5.28     847.7956     54.77442      139.203        20     1.348     1.141 -33.01   0
        49     62.6734    948.7662 307.8835613  +6.2832206     603.5828     1112.569     1188.694     77.77197     155.3586     310.7482      1.516     4.74     845.5562     54.77442     97.52997         7     1.435     0.445 -55.39   0
        50    292.9295    945.3830 307.7880856  +6.2923605       1446.9     2119.096     2244.569     77.40073     155.2968     310.6555      1.519     4.95     848.1937     54.77442     173.5501        19     1.464     0.957 -37.25   0
        51    561.1292    943.8719 307.6767901  +6.3019816     673.4198     955.7266     1291.343     78.01846     155.5439     310.6555      1.698     4.99     848.2532     54.77442     109.4996         7     1.152     0.612 -56.12   0
        52    897.4553    938.3527 307.5373394  +6.3155098     6038.808     10715.39     11170.38     77.89531     155.4204       310.81      1.893     4.07     841.8946     54.77442     724.3771        41     1.662     1.238 -34.36   0
        53    759.3492    941.5108 307.5945732  +6.3095910     920.8994     1518.397     1777.299     77.89532      155.235     310.8717      1.764     5.55     844.7951     54.77442     114.4388        11     1.354     0.641 -36.32   0
        54    433.1027    935.5401 307.7302221  +6.3011301     1913.809     3198.258     3502.666     77.64841     155.4204     310.8717      1.847     4.50      848.008     54.77442     232.2387        19     1.390     0.917 -39.95   0
        55    334.9271    933.8040 307.7710392  +6.2985521     8739.251     14607.71     15459.92     77.40073     154.9874     310.5937      1.782     4.02     848.2257     54.77442     1113.601        43     1.659     1.124 -36.67   0
        56    254.9278    932.7664 307.8042864  +6.2962933     6601.854      10706.2      11444.4     77.77197     155.4204     310.7173      1.753     3.91     847.4554     54.77442     824.0792        36     1.589     1.059 -35.99   0
        57    582.9209    927.2384 307.6683004  +6.3095799     1214.857     1908.254     1699.828     77.77197     155.4822     310.7482      1.644     4.54     847.8362     54.77442     153.7493        15     1.151     0.970 -69.54   0
        58    767.7647    926.6725 307.5915757  +6.3159995     656.2959     1162.878     1043.615     77.77197     155.4204     310.7482      1.801     5.05      844.136     54.77442     92.60052         5     1.047     0.690 -76.98   0
        59    912.8458    923.7714 307.5314366  +6.3220448     1054.427     1772.148     2185.751     77.40073     155.4822     310.6555      1.734     5.76     840.8593     54.77442     117.6807        14     1.329     0.834 -23.41   0
        60    868.8657    922.5902 307.5497363  +6.3210638     735.3544     1418.353      1211.17     77.40073      155.235     310.6246      2.140     6.36     842.4202     54.77442     107.1192        12     1.774     0.640 -10.98   0
        61    411.0872    921.9371 307.7398189  +6.3060084     517.0192     899.5834     894.8344     77.89531     155.6056     310.7791      1.704     3.75     847.6325     54.77442     83.90753         5     1.042     0.387 -57.20   0
        62    217.1095    922.4447 307.8203340  +6.2992842      688.316     1182.458     1638.682     77.89531     155.3586     310.8717      2.025     3.19     846.8074     54.77442     128.7998         5     0.832     0.666 -63.87   0
        63    980.4681    918.5138 307.5035358  +6.3264727      725.598     1278.175     1720.119     78.01847     155.6673     310.7791      2.648     5.56     839.7434     54.77442     98.03046        10     1.146     0.830 -44.13   0
        64    749.4015    916.4266 307.5995428  +6.3196162       1446.6      2506.09     2804.768     77.52467     155.1113     310.5318      1.867     4.54     844.3472     54.77442     169.3254        21     1.402     1.045 -38.25   0
        65    573.1923    917.3842 307.6726699  +6.3133231     597.8016     789.7253     292.9138     77.52467     155.1731     310.5937      1.748     5.32     847.5728     54.77442     75.44678         8     1.344     0.595 -42.00   0
        66     40.7065    916.9114 307.8937540  +6.2956339     474.0667     466.9244     712.5764     77.89531     155.8522       310.81      1.153     4.63     844.7676     54.77442     92.55176         6     0.827     0.736 -88.35   0
        67    980.4742    912.1057 307.5037472  +6.3291191     1136.891     1965.327     2097.677     77.64841     155.6056     310.7482      1.833     5.55     839.4482     54.77442     170.0298        18     1.510     0.867 -25.47   0
        68    613.0883    912.6205 307.6562655  +6.3166263     693.6749     1259.284     508.4699     77.77197     155.1731     310.6555      1.979     6.51     847.0544     54.77442     98.42889        11     1.600     0.743 -19.25   0
        69    534.8127    911.9781 307.6887856  +6.3142694      1209.44     1878.737     1969.173     77.64841      155.235     310.6555      1.687     5.27     847.6239     54.77442     163.1849        15     1.325     0.800 -29.97   0
        70      1.3169    912.8915 307.9102419  +6.2959671     509.1764     575.1325     620.0195     67.31685     123.5524     233.5626      0.988     2.21      844.177     54.77442      141.804         5     0.742     0.407 -68.68  24
        71    668.2930    909.7965 307.6334399  +6.3196405     2292.843     3762.063     3790.222     77.52467     155.1113       310.47      1.713     4.04     845.5331     54.77442     285.1004        25     1.465     1.042 -29.65   0
        72    957.6875    907.6019 307.5133586  +6.3302184     564.7941     974.9325     890.7426      77.2766     155.0493       310.47      1.882     3.90     839.6833     54.77442     88.65637         5     1.063     0.410  15.86   0
        73    945.3402    904.5490 307.5185872  +6.3310670     619.7914     1370.777      1403.38     77.89531     155.3586     310.7482      2.145     6.02     839.8738     54.77442     101.1315         8     1.750     0.582 -27.84   2
        74     81.9698    905.1745 307.8770191  +6.3018693     1820.355     3038.922     3274.573     77.40073      155.235     310.5937      1.667     5.44     845.2071     54.77442     227.0913        18     1.523     0.795 -43.26   0
        75     64.6530    905.8126 307.8841867  +6.3010229     2700.487     4665.689     4704.263      77.2766     155.3586       310.47      1.816     4.14     845.0043     54.77442     338.5347        28     1.485     1.086 -37.22   0
        76    829.0733    905.8098 307.5668189  +6.3266635     701.5471     963.2148     1407.846     77.40073     155.0493     310.6246      1.490     3.90     842.5684     54.77442      99.7804         6     0.922     0.473 -30.96   0
        77    207.9400    904.8271 307.8247335  +6.3062504      2113.51     3415.323     3486.006     77.52467     155.4822     310.6246      1.702     4.03     846.6403     54.77442     299.2256        22     1.413     1.017 -29.12   0
