#   1 NUMBER                 Running object number                                     
#   2 X_IMAGE                Object position along x                                    [pixel]
#   3 Y_IMAGE                Object position along y                                    [pixel]
#   4 ALPHA_J2000            Right ascension of barycenter (J2000)                      [deg]
#   5 DELTA_J2000            Declination of barycenter (J2000)                          [deg]
#   6 FLUX_APER              Flux vector within fixed circular aperture(s)              [count]
#   9 FLUXERR_APER           RMS error vector for aperture flux(es)                     [count]
#  12 FLUX_RADIUS            Fraction-of-light radii                                    [pixel]
#  13 FWHM_IMAGE             FWHM assuming a gaussian core                              [pixel]
#  14 BACKGROUND             Background at centroid position                            [count]
#  15 THRESHOLD              Detection threshold above background                       [count]
#  16 FLUX_MAX               Peak flux above background                                 [count]
#  17 ISOAREA_IMAGE          Isophotal area above Analysis threshold                    [pixel**2]
#  18 A_IMAGE                Profile RMS along major axis                               [pixel]
#  19 B_IMAGE                Profile RMS along minor axis                               [pixel]
#  20 THETA_IMAGE            Position angle (CCW/x)                                     [deg]
#  21 FLAGS                  Extraction flags                                          
         1     33.4476     23.3244 307.9273687  +6.6691291     9438.458     13147.53     13515.28      79.4429     158.8227     317.4246      1.500     2.88      874.604     55.95125     1313.503        35     1.344     1.056 -59.46   0
         2    329.1537     18.6308 307.8046711  +6.6810239     14101.07     20075.71     21673.58      79.0637     158.7596     317.3299      1.519     3.01     872.1252     55.95125     2027.315        40     1.405     1.068 -54.33   0
         3    395.2545     16.8150 307.7772688  +6.6839951     2540.272     3655.071       3222.2     78.93689     158.7596     317.1405      1.492     3.02     868.6606     55.95125     380.6142        19     1.150     0.917 -50.05   0
         4    656.0347     12.2021 307.6690720  +6.6946494      11982.2      17034.1     17891.76     78.68266     158.5702     317.2036      1.465     3.02     857.1608     55.95125     1780.596        36     1.318     1.059 -59.34   0
         5    533.6171     11.8822 307.7199470  +6.6906770     1444.036     1942.873     2148.233      79.1903     158.4438     317.3615      1.579     3.65     859.1191     55.95125     239.7925        13     1.129     0.772 -64.31   0
         6    820.7087     11.5010 307.6006726  +6.7004520     1738.466     2406.085     2614.925      79.5689     159.2007     317.3931      1.625     3.67     855.2128     55.95125     258.9164        14     1.213     0.734 -52.78   0
         7    256.5251      8.8581 307.8351771  +6.6826156     6768.737      10617.2     11733.52      79.6947     158.7596     317.3931      1.739     4.04     872.8403     55.95125     1023.016        43     1.879     1.121 -33.35  16
         8    891.0175      9.6238 307.5715216  +6.7035779     1612.969     2173.044     1963.866      79.3167     158.6334     317.3299      1.432     3.11     854.1723     55.95125     263.3734        13     1.012     0.792 -48.61   0
         9    958.6908      8.9661 307.5434244  +6.7061107     494.9916     603.2985     1065.862      79.6947     158.6334     317.4246      1.365     4.54     850.9521     55.95125     79.20325         6     1.103     0.531 -40.34   0
        10    677.5016      6.9875 307.6603281  +6.6975215     9407.004     12955.43     14384.16      79.3167      158.507     309.5313      1.491     3.38     856.3623     55.95125     1254.816        20     1.197     0.878 -42.47  19
        11    680.8375      4.3014 307.6590324  +6.6987422     15031.38     21452.05     23142.53      79.5689      158.064     282.3848      1.520     3.16     856.1578     55.95125     2082.028        42     1.495     1.164 -46.21  19
        12    647.6531      7.5919 307.6727098  +6.6962719     10146.11     14121.35      15058.5      79.0637     158.6334     313.5508      1.501     2.95     857.1987     55.95125     1402.369        34     1.294     1.051 -57.81  16
        13    417.5110      7.5836 307.7683332  +6.6885539     8883.947     12196.58     12163.36      79.3167      158.507     313.6146      1.479     2.95     867.4192     55.95125     1198.364        29     1.261     1.015 -55.32  16
        14    733.0844      6.3709 307.6372538  +6.6996375     2202.494       2850.6      3014.61      79.5689      158.507     304.4406      1.362     3.05     855.4839     55.95125     312.4456        14     1.051     0.792 -75.77  16
        15    657.1122      3.6328 307.6689129  +6.6982234     3436.067     4776.568     5442.191      79.6947     154.0195     273.7383      1.516     3.07     856.7528     55.95125     518.3519        23     1.239     0.976 -72.18  25
        16    196.2936      4.0929 307.8603630  +6.6825556     1285.862     2220.642     2518.435      79.5689     157.6198     279.6399      2.079     4.00     872.5524     55.95125     238.5335        16     1.322     1.061  -3.52  16
        17     63.8703      1.5572 307.9154667  +6.6791410     2368.571     2712.982     2696.021     72.03602     129.4978     242.5369      1.134     2.75      873.944     55.95125     552.9672        14     1.029     0.740  -3.43  24
        18    485.4413   1004.3466 307.7065114  +6.2793194     2496.868     3275.834     3264.727      79.4429     158.8227     317.4877      1.443     3.55     892.6546     55.95125     322.7078        17     1.199     0.843 -49.38   0
        19    617.6118   1023.5599 307.6509925  +6.2758170     431.8695     436.7736     568.7847      70.4897     127.6277     240.3378      1.019     3.33     892.1733     55.95125      101.008         5     1.079     0.298 -22.51  24
        20    920.0494    996.4380 307.5263390  +6.2971297     45073.09     69099.23     73106.02      79.3167     158.6965     317.2984      1.654     3.21     886.0805     55.95125     5878.053        75     1.540     1.338 -59.27   0
        21    325.1246    997.9496 307.7732838  +6.2765795     515.9214       899.55     788.0348      79.5689     158.8227     317.4246      2.147     5.26     894.8435     55.95125     85.62909         6     1.133     0.690 -26.88   0
        22    227.4417    994.6440 307.8139487  +6.2746614     2084.452      2927.49     2948.651      79.3167     158.7596     317.2668      1.525     2.98     895.3007     55.95125     347.3116        16     1.068     0.926 -61.90   0
        23    115.3638    993.6260 307.8605116  +6.2713113     773.6888     809.7412     498.5872      79.1903     158.5702     317.2036      1.197     3.90     892.9809     55.95125     137.7954         6     0.832     0.570  45.76   0
        24    626.2342    993.0978 307.6484374  +6.2886823     857.9101     1145.115     717.7783      79.5689     158.6334     317.5508      1.365     3.62     891.7543     55.95125     117.8211         9     0.933     0.791 -30.71   0
        25    817.9804    990.2805 307.5689231  +6.2962615     2292.062     3348.036      3535.77      79.1903     158.4438     317.3615      1.542     3.59      888.126     55.95125     325.2627        17     1.263     0.823 -44.95   0
        26    766.2001    988.1014 307.5904945  +6.2954297     7188.358      10571.5     11146.24      79.0637     158.3806     317.0141      1.558     3.24     889.3041     55.95125     1015.849        35     1.525     1.023 -61.67   0
        27    552.9749    987.5320 307.6790398  +6.2885256     1105.946     1516.601     1673.364      79.1903     158.6334     317.3299      1.438     3.00     892.0414     55.95125     208.7129        10     1.019     0.678 -69.67   0
        28    235.7168    986.9197 307.8107740  +6.2781286      1577.53     2119.691     2092.097      79.4429     159.0118     317.4877      1.424     3.19      895.035     55.95125      239.852        13     1.077     0.810 -40.76   0
        29    200.0802    986.8888 307.8255696  +6.2769430     818.1015     1315.338     1406.043      79.3167     159.0118     317.5193      1.492     4.71     894.2104     55.95125     115.3724         9     1.224     0.515 -56.80   0
        30     60.5278    985.1142 307.8835641  +6.2729791     3022.044     4188.703     4090.641      79.6947     159.0118     317.4562      1.451     3.13     893.3837     55.95125     476.5624        18     1.208     0.855 -61.81   0
        31    954.4307    983.1784 307.5125089  +6.3037521     6766.205     10465.14      10996.6      79.0637     158.5702     317.2984      1.634     3.15     884.1234     55.95125     884.5355        35     1.359     1.186 -54.71   0
        32    210.5123    978.8240 307.8215111  +6.2806234     740.4985     1242.931     1530.451      79.5689     158.5702     317.2984      2.029     4.28     894.3381     55.95125     129.6309         6     1.047     0.499  88.42   0
        33    928.1111    974.9863 307.5237112  +6.3062555     2079.177     3378.787      3550.52      79.3167     158.5702     317.2984      1.705     4.02     885.3166     55.95125     253.5944        24     1.397     1.061 -79.46   0
        34    636.4577    977.2048 307.6447273  +6.2955863     740.0658     1054.107     427.9488     78.93689     158.6334     317.1405      1.353     3.38     891.4265     55.95125     118.6008         6     0.894     0.693   5.41   0
        35    787.6505    971.5934 307.5821431  +6.3029626     1544.938     2458.967     2504.565      79.0637      158.507     317.0457      1.681     3.57     888.3447     55.95125     243.4623        17     1.186     0.957 -45.66   0
        36    648.8496    970.8057 307.6397976  +6.2986432     5008.598     7038.645     7274.285      79.0637     158.5702     317.0457      1.455     3.06     891.1627     55.95125     770.5311        26     1.340     0.921 -48.35   0
        37    997.9958    970.7417 307.4948377  +6.3103409     745.3792     1511.626     1913.069     78.93689     158.6334     317.1721      2.424     6.49     881.2885     55.95125     108.2498        11     1.192     0.992 -39.77   0
        38    261.1371    970.9562 307.8007596  +6.2855736      4780.75     6493.559     6693.534      79.5689     158.6965     317.4877      1.451     3.08     894.6381     55.95125      719.438        23     1.361     0.872 -45.22   0
        39    471.4061    968.8512 307.7135340  +6.2935031     1267.043     1818.792     1931.757      79.0637     158.5702     317.0773      1.517     4.10     892.2219     55.95125     187.8359        16     1.249     0.932 -33.60   0
        40     29.8839    968.2563 307.8968559  +6.2789066      2336.05     3286.635     3123.245      79.5689     158.7596     317.5193      1.467     3.22     893.6841     55.95125     361.6024        17     1.211     0.806 -35.63   0
        41    880.5488    967.2975 307.5437167  +6.3078413     942.1119     1410.886      1078.24      79.4429     158.7596     317.6455      1.734     5.46     885.8419     55.95125      118.173        10     1.047     0.803 -42.31   0
        42    971.7576    965.3943 307.5059110  +6.3116730     620.3587     934.2051     1076.183     78.93689     158.4438     317.1405      1.471     4.60     882.5872     55.95125     103.5826         5     0.845     0.710  40.81   0
        43    952.3950    964.4418 307.5139822  +6.3114199     782.2337     1242.546       1185.5     78.93689     158.4438     317.1405      1.876     5.20     883.6535     55.95125     112.2726         8     1.124     0.679 -87.63   0
        44    297.2060    964.6187 307.7859991  +6.2894022     1033.025     1191.099      1632.47      79.1903     158.4438     317.2352      1.349     4.63     894.5222     55.95125     177.5892         9     0.965     0.702 -71.41   0
        45   1004.8170    962.5226 307.4922810  +6.3139619     829.2984     1613.986     1807.439      79.0637      158.507     317.2984      2.176     7.09     880.7372     55.95125     111.8035        13     1.857     0.757 -72.19   0
        46    573.6471    963.1813 307.6712768  +6.2992718     1836.712     2680.593     2374.446      79.0637     158.6965     317.2352      1.481     3.18     891.7638     55.95125     256.2603        18     1.210     0.867 -44.98   0
        47     62.3231    960.4499 307.8836530  +6.2832220     791.7977     1159.609     1171.363      79.4429     158.8227     317.4246      1.651     3.78     893.2514     55.95125     121.8513         7     0.885     0.633 -67.60   0
        48    612.9054    959.6551 307.6550961  +6.3020430     1289.179     1927.594     1871.957      79.4429     158.7596     317.6455      1.437     3.69     891.5311     55.95125      217.592        13     1.240     0.734 -40.27   0
        49    292.6808    957.3469 307.7881232  +6.2922523     1417.849     2235.157     2779.147      79.5689     158.7596     317.4877      1.707     3.35     894.4222     55.95125     246.0526        14     1.181     0.859 -58.92   0
        50    560.7109    955.8062 307.6768958  +6.3018832     640.8954      822.545     766.7062      79.0637     158.4438     317.2036      1.286     4.24     891.7609     55.95125     97.70538         6     0.767     0.670 -12.59   0
        51    759.6324    953.3082 307.5943900  +6.3095748      980.233     1435.617     1667.958      79.6947     158.6334     317.4562      1.554     4.02     888.3953     55.95125     145.6886         9     1.102     0.547 -44.97   0
        52    897.0953    950.0932 307.5374238  +6.3154972     7473.968     10822.49     11002.32      79.5689     159.3265     317.3615      1.530     3.12     885.2255     55.95125     1089.117        31     1.344     1.047 -47.85   0
        53    433.0379    947.2579 307.7301910  +6.3011308     2461.371     3462.592     3284.062      79.5689     158.8227     317.4246      1.468     3.06     892.1558     55.95125     389.6905        19     1.162     0.909 -61.34   0
        54    334.6862    945.5692 307.7710812  +6.2985260     10687.97     14927.25     15864.32      79.6947     158.5702     317.3299      1.526     2.96     893.4095     55.95125     1491.933        39     1.412     1.047 -56.61   0
        55    254.7267    944.4851 307.8043146  +6.2962867     8202.989     11312.14     11766.22      79.6947     159.0748     317.4562      1.484     3.03     893.8427     55.95125     1157.376        30     1.350     0.957 -55.94   0
        56    173.0176    943.0234 307.8382867  +6.2941424     514.1926     760.3289     421.6292      79.1903     158.5702     317.2984      1.534     4.82     892.8774     55.95125     111.2635         6     1.256     0.524 -83.98   0
        57    582.8704    939.1379 307.6682565  +6.3095074     1224.717      1707.44     1925.816      79.6947     158.7596     317.4877      1.569     3.35     891.5209     55.95125     220.9035        13     1.176     0.757 -34.37   0
        58    767.2109    938.5730 307.5917384  +6.3159119     761.7933     1138.221     1064.105      79.1903     158.5702     317.2984      1.559     4.28     887.7712     55.95125     110.4398         7     0.858     0.631 -76.40   0
        59    912.8267    935.1950 307.5313918  +6.3221736     1186.539     1811.461       1911.2      79.0637     158.5702     317.2668      1.655     3.72     884.3994     55.95125     184.5767        13     1.106     0.857 -37.55   0
        60    216.6698    934.5837 307.8204489  +6.2990949     730.5081     1014.844     1218.707      79.0637     158.6334     317.3299      1.563     4.15      893.127     55.95125     128.4589         6     0.946     0.657 -69.38   0
        61    145.5397    934.7083 307.8499754  +6.2966507     802.7582     948.0959     501.4146      79.4429     158.7596     317.5193      1.340     4.57     892.7031     55.95125     121.5672         9     0.996     0.686 -61.91   0
        62    869.2272    934.1610 307.5495292  +6.3211440     816.2434     1285.338     1107.681      79.1903     158.5702     317.2668      1.537     3.71     885.8354     55.95125     152.6474         9     1.046     0.714   3.12   0
        63    980.0571    931.1752 307.5036120  +6.3260779     801.2483     1290.128     1396.658      79.1903     158.7596     317.2668      1.753     4.90     881.2968     55.95125     116.8897         9     1.093     0.676 -44.31   0
        64    749.1144    928.3363 307.5995959  +6.3195329     1885.957     3001.741     2981.553      79.6947     158.8858     317.4246      1.579     3.40     888.0566     55.95125     289.1827        18     1.322     0.822 -52.13   0
        65    572.9575    928.7438 307.6727220  +6.3134665     823.0116     1062.437     332.0734      79.4429     158.6965     317.4562      1.401     3.26     891.4857     55.95125     120.1554         7     0.711     0.690 -27.19   0
        66    980.5356    924.0639 307.5036517  +6.3290299     1301.679     1857.442     2622.821      79.5689     158.7596     317.4562      1.543     4.22     880.9916     55.95125     182.1847        13     1.101     0.937 -49.83   0
        67    624.7188    924.4261 307.6513763  +6.3169833     741.6848     861.2358      980.481      79.4429     158.5702     317.4246      1.223     4.15     890.7316     55.95125     129.0647         7     0.954     0.536 -54.24   0
        68    613.1646    924.5830 307.6561683  +6.3165315     857.8242     1261.665     1271.888      79.1903     158.5702     317.2036      1.505     4.58     891.0398     55.95125     131.0718        10     1.089     0.782 -24.00   0
        69    534.3665    923.8946 307.6889079  +6.3141751     1282.891     1881.747     1809.152      79.6947     158.6334     317.5193      1.541     3.90     891.5281     55.95125     209.1966        13     1.274     0.631 -44.72   0
        70    350.4222    925.6450 307.7652200  +6.3072802     351.3446     431.0813     535.1718      79.0637     158.7596     317.2668      1.082     3.85     892.6804     55.95125     86.77765         5     1.000     0.425 -14.06   0
        71    667.7474    921.6572 307.6336040  +6.3195674     2865.379     4015.555     4219.015      79.5689     158.7596     317.4246      1.484     2.91     889.6982     55.95125     424.8196        19     1.127     0.909 -40.58   0
        72   1018.8296    920.9012 307.4878575  +6.3316136     651.4048     1081.737     1199.377      79.5689      158.507     302.7247      1.522     4.19     879.0142     55.95125     96.06451         6     1.186     0.422 -61.60  16
        73    564.7105    918.5314 307.6764898  +6.3174064     568.9389     979.9787     549.1502      79.6947     158.9488     317.4246      1.750     6.24     891.2359     55.95125     84.61731         7     1.412     0.775  70.44   0
        74    957.6899    919.5665 307.5132883  +6.3301242     712.3225     1080.043     1187.448      79.6947     158.6334     317.4246      1.482     4.08     881.9507     55.95125     110.5961         7     0.987     0.482  -7.78   0
        75     64.3581    917.5536 307.8842590  +6.3009999     3303.049     4914.302     5389.417      79.4429     158.7596     317.3299      1.625     3.31     892.9572     55.95125     473.4768        21     1.349     0.828 -68.11   0
        76    828.7319    917.4982 307.5669024  +6.3266700      857.732     940.7834     730.6937      79.5689     158.8858     317.4562      1.323     3.99     885.8781     55.95125     129.5977         9     1.006     0.649 -79.63   0
        77    207.8864    916.5876 307.8247033  +6.3062291     2547.792     3316.514     3414.823      79.1903     158.5702     317.2984      1.364     2.80     892.8536     55.95125     403.8439        17     1.092     0.890 -67.18   0
