#   1 NUMBER                 Running object number                                     
#   2 X_IMAGE                Object position along x                                    [pixel]
#   3 Y_IMAGE                Object position along y                                    [pixel]
#   4 ALPHA_J2000            Right ascension of barycenter (J2000)                      [deg]
#   5 DELTA_J2000            Declination of barycenter (J2000)                          [deg]
#   6 FLUX_APER              Flux vector within fixed circular aperture(s)              [count]
#   9 FLUXERR_APER           RMS error vector for aperture flux(es)                     [count]
#  12 FLUX_RADIUS            Fraction-of-light radii                                    [pixel]
#  13 FWHM_IMAGE             FWHM assuming a gaussian core                              [pixel]
#  14 BACKGROUND             Background at centroid position                            [count]
#  15 THRESHOLD              Detection threshold above background                       [count]
#  16 FLUX_MAX               Peak flux above background                                 [count]
#  17 ISOAREA_IMAGE          Isophotal area above Analysis threshold                    [pixel**2]
#  18 A_IMAGE                Profile RMS along major axis                               [pixel]
#  19 B_IMAGE                Profile RMS along minor axis                               [pixel]
#  20 THETA_IMAGE            Position angle (CCW/x)                                     [deg]
#  21 FLAGS                  Extraction flags                                          
         1    630.8730     26.0652 307.6804588  +6.6761983     3264.765     5565.152      6583.56     78.37322     156.1271     312.1612      1.910     6.05     822.5312     55.02348     457.7341        32     2.033     0.901  71.28   0
         2    449.8160     27.1511 307.7556581  +6.6696821     22914.27     34803.11     36368.97     77.75268     156.1892     311.8817      1.620     3.61     824.3237     55.02348     3067.954        49     1.511     1.114  60.24   0
         3    258.3072     24.0513 307.8353397  +6.6645312     3126.469     4651.585     4808.078      78.1256      156.003     312.3473      1.599     3.70     831.9209     55.02348     418.8825        25     1.550     0.936  63.68   0
         4    699.7279     16.6435 307.6521633  +6.6823924     1862.371     2944.848     3402.027      78.1256     156.1271     312.1922      1.724     3.68     821.6034     55.02348     274.6503        20     1.328     0.987  73.32   0
         5    265.5534     12.3623 307.8327233  +6.6696002     783.2594     1383.637      1772.07     78.00149     156.0651      312.037      1.953     5.64     831.7254     55.02348     108.7892         8     1.145     0.784  62.33   0
         6    210.9403     12.3956 307.8554152  +6.6677505     745.3281     1160.253     1037.885     77.62798      156.003     311.9438      1.813     5.77     831.6458     55.02348     110.8649        10     1.272     0.738  57.73   0
         7    187.8857      9.6086 307.8650891  +6.6681256     10921.88     16365.59     17101.04     77.87718     155.8165      312.006      1.616     3.59     831.6135     55.02348     1391.368        37     1.400     1.109  59.68   0
         8      1.5997      9.9165 307.9424831  +6.6617265     857.8453     1040.224     789.1733     70.97816     127.8062     239.0427      1.272     4.34     832.2112     55.02348     149.3784         9     1.114     0.605  83.52  24
         9    532.1094      7.7910 307.7221143  +6.6804339     3003.181     4399.868     4437.524     77.87718     155.8165     309.5118      1.548     3.48     822.5152     55.02348      386.434        24     1.352     0.969  63.87  16
        10    933.4753      7.3403 307.5553408  +6.6940444     4408.064     6564.031      6993.11     78.49674     156.1271     306.9975      1.650     3.63     818.8908     55.02348     576.3324        29     1.428     1.008  56.35  16
        11    734.3240      6.0456 307.6381431  +6.6879249     2056.062     3102.609       3158.3      78.1256     156.1892     296.6618      1.605     4.14     820.3912     55.02348     275.5321        18     1.341     0.868  65.55  16
        12    470.3722      5.9739 307.7478299  +6.6791141     1971.807     2934.877     2817.293     77.75268     155.9409      295.746      1.682     3.76     823.4233     55.02348     294.9138        18     1.333     0.845  50.68  16
        13    998.2631      3.6318 307.5285417  +6.6977371     1973.652     3017.784     3114.687     78.00149     151.5934     269.1273      1.623     3.55     817.5181     55.02348      256.965        18     1.238     0.868  55.66  24
        14    718.0302      1.4074 307.6450699  +6.6892947     3802.564     4388.515      4660.92     68.75954     125.1249     235.9423      1.006     1.99     820.5081     55.02348     1021.013        11     0.954     0.534  -2.37  24
        15    638.3427      1.2709 307.6781888  +6.6866843     1124.268      1188.38     1367.074     67.33579      123.174     233.8802      0.870     1.91     821.8691     55.02348     332.9189         6     0.792     0.411  14.42  24
        16    372.2727   1001.7110 307.7550398  +6.2647491     1618.742     2823.189     2870.072      78.2495     156.3752     312.1922      1.775     5.53     854.7971     55.02348     228.0938        20     1.482     1.200  58.01   0
        17    802.2997   1023.0845 307.5757702  +6.2703195     5120.613     6863.694     7084.953     74.44252      132.788      244.215      1.409     3.77     852.9204     55.02348     807.1523        21     1.286     0.878  18.69  24
        18    590.9384   1024.0000 307.6634991  +6.2628743     7487.597     9460.263     10568.98     63.02531     118.6876     229.1092      1.147     3.33     858.0909     55.02348     2447.238        13     1.531     0.297   5.15  27
        19    593.2645   1019.8467 307.6626728  +6.2646668     69919.45     114577.5     122404.3      78.1256     156.0651     287.4396      1.769     3.67     857.9197     55.02348     8529.717        90     1.668     1.397  58.15  18
        20    623.6053    996.1565 307.6508707  +6.2754625     416.8616     513.1697    -241.2753     77.62798     155.8165     311.8506      1.097     3.40     856.3386     55.02348     74.14728         5     0.758     0.442 -70.15   0
        21    759.1860    991.0469 307.5947462  +6.2821057       7368.9     12060.51     12729.53     77.62798     155.9409     311.9438      1.722     3.76     853.2828     55.02348     944.5826        38     1.517     1.141  58.23   0
        22    554.6179    991.6962 307.6796653  +6.2749947     4101.413     6744.594     6855.035      78.1256     155.9409     311.9749      1.766     3.77     856.6834     55.02348     550.0145        32     1.519     1.138  66.19   3
        23    551.7684    983.7789 307.6811146  +6.2781678     8136.163     12702.45     13784.93     77.75268     155.9409      312.037      1.687     3.62     856.3607     55.02348     1045.851        38     1.523     1.091  58.76   2
        24    524.9787    992.8254 307.6919340  +6.2735359       1134.8       1623.2     1514.375     77.87718     155.9409     312.0991      1.567     3.90     856.6752     55.02348     143.2012        12     1.092     0.717  72.53   0
        25    305.0133    990.1521 307.7833554  +6.2672641     14451.02     23725.48     26802.73     77.62798      156.003     311.8817      1.816     5.32     854.5583     55.02348     1918.437        65     1.807     1.489 -29.52   0
        26    429.3353    990.9056 307.7317108  +6.2711235     1031.018     1495.076     1236.682      78.1256     156.1892     312.1922      1.561     3.90     855.1411     55.02348     144.8833        11     1.137     0.651  61.56   0
        27    820.0887    990.1014 307.5694895  +6.2845306     1018.331     1962.084     2223.772      78.2495     156.5609     312.1612      2.002     5.31      852.371     55.02348     129.9772        14     1.380     0.855  33.98   0
        28      1.6758    991.1301 307.9092657  +6.2566637     590.4966     794.5986     1016.083     72.33025     129.1635     240.5376      1.561     5.02     851.1091     55.02348     112.2668         7     1.096     0.649  73.15  24
        29    275.6831    987.8286 307.7956116  +6.2672387     811.0209     1414.384     1631.035      78.1256     155.9409     312.0991      1.784     4.04     854.4497     55.02348     144.8162         8     1.127     0.749  69.00   0
        30    920.4601    984.4365 307.5280020  +6.2902198     7871.572      13533.1     14646.84      78.2495     156.1271     312.1301      1.884     3.87     850.7056     55.02348     878.4208        44     1.649     1.229  59.04   0
        31    894.1841    980.6723 307.5390388  +6.2908971     11134.36     19611.52     21488.28     77.75268      156.003      312.068      1.882     3.91     851.1379     55.02348     1397.772        53     1.618     1.413  38.78   0
        32    606.7035    981.4609 307.6583823  +6.2809638     1299.947     2247.655     2236.612     78.00149     156.1271     312.2542      1.889     4.69     856.1766     55.02348     196.4639        17     1.398     0.943  80.82   0
        33   1015.8773    980.0709 307.4885276  +6.2952042     4194.363     7437.519      7496.75     78.49674     156.3752     312.1612      1.906     3.93     847.0538     55.02348     549.3041        37     1.608     1.270  53.73  16
        34      3.3967    982.7567 307.9088342  +6.2601783     613.1933     885.5339     796.0964     77.62798     149.1451     265.6124      1.579     4.06     850.9659     55.02348      97.7196         7     1.002     0.470  81.13  16
        35    538.5957    979.7261 307.6867203  +6.2793999     3992.717     6678.312     7856.648     77.87718     155.6922      312.037      1.979     4.10     856.1979     55.02348     562.9968        37     1.816     1.194  24.45   0
        36    647.7322    978.9472 307.6414307  +6.2833744      1368.52     1906.321     1895.835      78.1256     156.0651      312.068      1.532     3.93     854.9744     55.02348     208.5382        17     1.152     1.002  75.77   0
        37     72.9662    978.2654 307.8801015  +6.2643736     963.8436     1476.158      1893.96      78.1256     156.1271     312.1612      1.778     5.99     851.0497     55.02348     144.5671        13     1.421     0.768  57.66   0
        38    491.4591    976.2868 307.7064080  +6.2792408     2190.838     3385.942     3311.825      78.2495     156.1892     312.2853      1.638     3.72     855.9736     55.02348     297.1827        21     1.365     0.929  50.90   0
        39    399.2149    975.1509 307.7447474  +6.2766176     529.6792      1008.27     1022.852     77.62798     156.0651     311.8817      2.186     5.65     854.6782     55.02348     81.66241         6     1.373     0.655  -1.36   0
        40    925.8273    968.2203 307.5263164  +6.2970937     39752.24     67915.06     72725.14     77.75268     155.9409      312.068      1.824     3.80     850.0378     55.02348     5081.272        81     1.703     1.379  56.73   0
        41    233.0125    966.3787 307.8140517  +6.2746609     1651.883     2720.735     3246.712     78.00149     155.8787      312.037      1.749     3.85     853.8326     55.02348     220.2636        18     1.227     0.960  43.50   0
        42    121.0230    965.4783 307.8605804  +6.2712689     725.8934      1167.27      1882.51     77.87718     155.9409     312.1301      1.924     3.74     851.2214     55.02348     114.8632         7     1.213     0.529  63.36   0
        43    823.8369    962.0215 307.5688745  +6.2962485     2158.585     3688.897     3855.361     77.87718     155.8787     311.9128      1.792     4.59     851.9093     55.02348     245.6748        26     1.508     1.101  70.42   0
        44    771.9381    959.9630 307.5904938  +6.2953646     6218.118     10216.92     11671.15      78.2495     156.1892     312.1612      1.839     3.83     852.5439     55.02348     833.6066        42     1.705     1.234  80.93   0
        45    631.5666    964.3436 307.6486335  +6.2888626     844.3954     1285.308     644.1862      78.1256     156.1271     312.1612      1.583     6.96     854.8727     55.02348     116.6035        12     1.449     0.945  46.06   0
        46    558.7789    959.4109 307.6790227  +6.2884627      944.668     1284.709     1437.854     77.87718     155.8165      312.006      1.617     3.63     855.3284     55.02348     137.5116        10     0.990     0.805  50.10   0
        47    241.4278    958.9066 307.8108096  +6.2780283     1524.997     2305.598     2738.117     78.37322     155.8787      312.068      1.672     3.46      853.812     55.02348     201.0179        15     1.142     0.840  52.57   0
        48    205.3765    957.8920 307.8258125  +6.2772361     848.3005     1391.252     1522.693      78.2495     155.9409      312.006      1.714     5.33     852.9379     55.02348      128.819        12     1.323     0.722  69.21   0
        49    960.1685    955.0178 307.5124986  +6.3036899     6022.014     10435.74     11106.13     77.87718     155.9409      312.037      1.845     3.85     848.5057     55.02348      762.343        38     1.637     1.150  54.85   0
        50     66.3165    956.9156 307.8835835  +6.2729637     2622.501     4379.862     4495.986     78.00149     156.2512     312.2232      1.782     3.68     850.7225     55.02348     326.0763        22     1.268     1.052  79.20   0
        51    216.4137    950.6228 307.8214750  +6.2806078     636.6667     967.7524     1086.931     78.00149     155.9409      312.068      1.631     3.36     853.1318     55.02348     99.10126         5     0.997     0.328  22.27   0
        52    933.8795    946.8825 307.5236874  +6.3061716     1926.372     3337.222     3530.756     78.37322     156.3751     312.2853      1.904     4.31     849.0826     55.02348     232.5121        21     1.307     1.096  73.72   0
        53    266.8255    942.8361 307.8008059  +6.2855157     4311.168     6741.067     7034.334     77.87718     155.9409     311.9438      1.661     3.45     854.0564     55.02348     576.7729        30     1.431     1.110  81.45   0
        54    793.5886    943.0765 307.5820699  +6.3030595     1246.114     2036.505     2060.922     77.87718     155.7544      312.006      1.848     5.77     852.0884     55.02348     140.9398        16     1.331     0.879  57.26   0
        55    654.5926    942.4372 307.6398081  +6.2986768     4548.024     7063.272     6729.453     77.50307     155.9409     311.9128      1.676     3.69     853.7252     55.02348     564.9086        30     1.402     1.069  58.59   0
        56    476.9290    940.9728 307.7136290  +6.2933329     1111.795     1834.662     2106.182     77.87718      156.003     312.0991      1.847     6.29     854.6877     55.02348     127.0649        14     1.401     0.793  61.70   0
        57   1004.4644    942.0889 307.4945376  +6.3105046     659.3094      1000.52     461.8173      78.1256     156.3752     312.1922      1.587     4.89     846.8436     55.02348     111.2994         6     1.027     0.658  34.47   0
        58     35.4884    940.1381 307.8969501  +6.2788524     2091.823     3230.145     3337.207      78.2495     156.3132     312.2232      1.649     3.41     850.3317     55.02348     293.0097        18     1.240     0.850  50.17   0
        59    886.2753    939.0798 307.5437162  +6.3078044     825.1254     1222.642     1035.906     78.49674     156.3752     312.2853      1.637     4.37     850.1959     55.02348      108.915        10     0.940     0.758   4.02   0
        60    302.9367    936.6419 307.7860207  +6.2892852     748.5361      907.001     795.3215      78.2495     156.0651     312.2232      1.623     5.98     854.4955     55.02348     99.90613        11     1.439     0.699  82.48   0
        61    978.6584    936.9497 307.5054255  +6.3117659     594.8817     874.9529     443.4077      78.2495     156.1271     312.1612      1.639     4.54     847.4661     55.02348     114.9133         5     0.853     0.686 -56.91   0
        62   1011.1386    934.9290 307.4920056  +6.3136830     822.5717     1487.534      1831.29     78.37322     156.1271     312.2232      2.120     5.78     846.5244     55.02348     117.1001        12     1.283     0.935 -67.17   0
        63    958.2349    936.1975 307.5139315  +6.3113953     642.7543     1136.339      1215.23     77.37796     155.9409     311.9438      1.885     4.36     848.0348     55.02348     85.17584         5     0.773     0.700 -57.47   0
        64    579.4092    935.0792 307.6712741  +6.2991985     1711.492     2484.495     2712.154     77.87718     155.7544      312.006      1.624     4.45     854.2329     55.02348     237.4944        15     1.227     0.838  45.72   0
        65    618.3766    931.2446 307.6552222  +6.3020858     1149.554     1603.108     1221.081     77.75268     156.1271      312.006      1.520     5.09     853.7919     55.02348     183.0877        12     1.272     0.669  57.19   0
        66     68.4845    932.1382 307.8835202  +6.2832654     724.0387     1054.429      1270.18     78.37322     156.1892     312.1922      1.565     5.07     850.3636     55.02348     91.12756         8     0.997     0.729  24.69   0
        67    298.5335    929.1583 307.7881011  +6.2922269     1456.553      2196.03     2348.166      78.2495     156.0651     312.2232      1.603     3.83      854.485     55.02348     199.5804        15     1.240     0.777  69.24   0
        68    566.4849    927.5004 307.6768954  +6.3018946     613.4404     795.5336     741.7162      78.2495     156.6228     312.2542      1.264     4.66     854.0383     55.02348     92.84808         7     1.213     0.509  49.84   0
        69    765.7444    925.3579 307.5942263  +6.3094442     839.7368     1344.729     1491.968      78.1256     156.0651     312.1922      1.651     4.24     852.0011     55.02348     142.7691        10     1.067     0.707  55.60   0
        70    902.9203    921.8564 307.5373813  +6.3154706     6661.742     10965.94     11171.42     78.37322     156.1271     312.1612      1.737     3.56     849.2325     55.02348     855.7816        38     1.532     1.161  59.74   0
        71    438.6865    918.9828 307.7302483  +6.3011294     2115.373     3146.905     3248.169     77.87718     155.8787     312.0991      1.597     3.53     854.1085     55.02348     301.6702        20     1.233     0.951  56.34   0
        72    340.4211    917.3239 307.7711071  +6.2985184     9858.194     14949.56     15563.28     77.87718     155.9409     312.0991      1.654     3.63     854.2589     55.02348     1235.011        38     1.427     1.133  56.84   0
        73    260.5515    916.2678 307.8043066  +6.2962732     7092.456     10775.03     11152.16      78.2495     156.0651     312.1612      1.672     3.54     853.5864     55.02348      915.631        34     1.441     1.102  60.62   0
        74    588.2945    911.0169 307.6683932  +6.3094298     1152.782     1865.325     2084.562      78.1256     155.9409      312.006      1.649     3.85     853.6678     55.02348     172.5907        13     1.091     0.990  29.52   0
        75    773.1647    910.8791 307.5916307  +6.3156697     512.1531     1002.456     1137.479      78.1256     156.1892     312.1612      1.997     4.86     851.7474     55.02348     83.84174         6     1.065     0.629 -80.95   0
        76    918.4832    906.8330 307.5314220  +6.3221923     1064.808     1975.708     1660.662      78.2495     155.9409     312.0991      1.933     5.49     848.3748     55.02348     131.5856        16     1.299     1.165  12.53   0
        77    152.1264    907.0450 307.8496382  +6.2964375     528.9956     769.8802     1185.019      78.1256     156.1892     312.1922      2.333     4.05     850.7198     55.02348     99.96783         6     1.036     0.750  20.80   0
