#   1 NUMBER                 Running object number                                     
#   2 X_IMAGE                Object position along x                                    [pixel]
#   3 Y_IMAGE                Object position along y                                    [pixel]
#   4 ALPHA_J2000            Right ascension of barycenter (J2000)                      [deg]
#   5 DELTA_J2000            Declination of barycenter (J2000)                          [deg]
#   6 FLUX_APER              Flux vector within fixed circular aperture(s)              [count]
#   9 FLUXERR_APER           RMS error vector for aperture flux(es)                     [count]
#  12 FLUX_RADIUS            Fraction-of-light radii                                    [pixel]
#  13 FWHM_IMAGE             FWHM assuming a gaussian core                              [pixel]
#  14 BACKGROUND             Background at centroid position                            [count]
#  15 THRESHOLD              Detection threshold above background                       [count]
#  16 FLUX_MAX               Peak flux above background                                 [count]
#  17 ISOAREA_IMAGE          Isophotal area above Analysis threshold                    [pixel**2]
#  18 A_IMAGE                Profile RMS along major axis                               [pixel]
#  19 B_IMAGE                Profile RMS along minor axis                               [pixel]
#  20 THETA_IMAGE            Position angle (CCW/x)                                     [deg]
#  21 FLAGS                  Extraction flags                                          
         1    457.9856     28.8686 307.7477407  +6.6789445     1684.624     2398.182      2410.91     77.56311     155.6226     311.3072      1.535     3.33     824.7302     54.88933     265.4353        17     1.180     0.906  69.19   0
         2    705.2435     22.5718 307.6452282  +6.6898529     7452.644     11301.49      11783.5     77.68732     155.8084     311.3072      1.638     3.24     822.7455     54.88933      1059.22        39     1.485     1.139  55.82   0
         3    625.3227     21.9321 307.6784535  +6.6874333     3806.301     5780.239     5900.883     78.18214     155.8702     311.3691      1.594     3.14     822.1676     54.88933       528.71        26     1.377     0.967  56.43   0
         4    425.5597     18.0516 307.7615761  +6.6823173     6267.258     9577.585     9790.127     78.05873     155.8084     311.4001      1.625     3.30     826.3721     54.88933      844.742        35     1.446     1.098  62.85   0
         5     26.5067     17.5399 307.9273732  +6.6690679     8361.076     12879.76     14098.56     77.93512     155.6846      311.462      1.729     3.56     829.1646     54.88933     1173.211        39     1.477     1.162  59.29   0
         6    501.3932     15.3431 307.7301622  +6.6859868     903.9704     1286.998     1281.833     77.56312     155.6226     311.1213      1.554     4.48     822.7981     54.88933     148.7694        10     1.185     0.752  46.14   0
         7    322.1634     12.9730 307.8047026  +6.6809308     12485.93     19827.52     21448.72     77.56311     155.5607     311.2143      1.671     3.39     830.3561     54.88933     1667.781        45     1.491     1.187  58.91   0
         8     95.8364     13.2533 307.8987170  +6.6731794     2449.462     3852.666         3993     77.93512     155.7465     311.4311      1.662     3.71     828.8743     54.88933     337.7931        23     1.413     0.969  50.25   0
         9    417.1413     13.7952 307.7652168  +6.6837905     834.0503     1199.048     1010.374     77.43871     155.6226     311.1833      1.404     3.60     826.9195     54.88933     153.7911         8     1.005     0.661  76.42   0
        10     86.9895     11.8991 307.9024380  +6.6734394       1482.9     2414.765     2591.619     77.81132     155.3746     311.1833      1.672     4.43     828.8297     54.88933     208.6522        18     1.248     1.097  50.21   0
        11    791.0000     12.0184 307.6099535  +6.6970855     738.5641     1089.354     1367.045     77.56311     155.2505     311.0594      1.556     4.94     820.9747     54.88933     95.73804         9     0.955     0.723  19.80   0
        12    388.3600     10.9885 307.7772684  +6.6839797     2204.875     3161.485     2876.566     77.43871     155.5607     311.1523      1.553     3.32     828.5037     54.88933     308.8401        19     1.203     0.939  50.83   0
        13    983.5345      8.4094 307.5300813  +6.7050250     736.5338     977.1124     964.5854     77.56312     155.5607     311.3072      1.447     3.73     816.2886     54.88933     135.7468         8     1.054     0.803  78.15   0
        14    649.1026      6.4410 307.6690944  +6.6946252     11126.18     16673.28     18186.22     78.05873     155.6226     299.6937      1.614     3.20     821.9741     54.88933     1668.622        48     1.520     1.192  59.61  18
        15    640.7615      2.2701 307.6727000  +6.6960664     9067.452     11897.39     12638.79     77.06431     136.9024     249.2145      1.425     3.13     821.7654     54.88933     1374.619        30     1.285     1.001  21.69  27
        16     67.0653      7.4993 307.9108636  +6.6745821     720.5284       926.81     932.9485     78.05873     155.8702     307.2548      1.432     4.02     828.5396     54.88933     102.6859         8     0.980     0.626  42.26  16
        17    813.6476      5.7142 307.6007555  +6.7004466     1607.677     2349.857     2505.185     78.05873     155.6846     292.6626      1.599     4.34     820.5231     54.88933      241.238        17     1.391     0.750  65.60  16
        18    526.9044      6.3873 307.7198647  +6.6905408     1372.479     2094.985     1977.268     77.81132     155.4987     298.7916      1.596     3.26     821.9464     54.88933     239.5763        15     1.156     0.829  42.03  16
        19    249.5035      3.3383 307.8352133  +6.6824575      6148.29     10098.07     10992.69     77.81132     148.6518      264.455      1.831     3.67      829.617     54.88933     770.5682        43     1.640     1.367  -3.37  24
        20    884.1171      3.7765 307.5715422  +6.7036081     1469.437     2061.288     2157.649     77.93512       151.86      270.118      1.485     3.58     820.9568     54.88933     265.4678        13     1.188     0.737  81.12  24
        21    410.7090      2.3172 307.7682756  +6.6883108     7756.434     10322.58     10424.43     77.06431     137.6749     249.7555      1.464     3.37     827.3802     54.88933     1063.816        28     1.277     1.015  23.34  24
        22    671.1741      1.7616 307.6600816  +6.6972976     6810.487     9633.373     10671.27     72.42065     129.8919     241.0335      1.497     5.18     822.1046     54.88933     1102.314        30     1.813     0.834  -3.95  24
        23    726.3846      1.4886 307.6371526  +6.6992635     1328.616     1595.729     1443.595     69.56885     126.0496     236.6335      1.072     2.78     822.0418     54.88933     261.2888        10     1.025     0.582  10.52  24
        24    546.1921    981.9163 307.6790694  +6.2885822     846.6802     1188.377     1187.787     77.68731     155.4367     311.2452      1.561     4.98     854.5034     54.88933      113.665         9     1.114     0.630  46.07   0
        25    712.1911   1023.6284 307.6087585  +6.2769390     421.7539     536.0996     605.7061     67.88548      124.045      234.834      1.086     3.00     853.6512     54.88933     99.48865         5     0.745     0.435 -20.31  24
        26    359.6185   1023.3086 307.7551291  +6.2652260      1306.15     1707.511     1924.055     72.02016     128.9233      239.911      1.294     3.31     854.2224     54.88933     252.6672        12     0.998     0.861   3.80  24
        27    228.7483    981.8398 307.8108508  +6.2779331     1385.985     2012.802      1450.75     77.93512     155.8084     311.4001      1.502     3.46     854.2368     54.88933     187.3418        13     1.022     0.876   6.22   0
        28    193.3573    981.6864 307.8255472  +6.2768037     649.8931     1264.688     1106.434     78.05873     155.6226     311.4001      2.111     4.51     852.9963     54.88933     96.48395         7     0.982     0.657  -7.33   0
        29     53.7112    979.6697 307.8835834  +6.2729255     2582.641     4265.737     4474.169     78.05873     155.9939     311.3691      1.787     4.01     850.2968     54.88933     341.8575        24     1.405     1.019  45.59   0
        30    947.6406    977.5522 307.5125563  +6.3038430     6225.417     10602.14     11939.11     77.93512     155.7465     311.2762      1.878     3.58     849.5553     54.88933     757.8474        43     1.675     1.270  50.74   0
        31    203.8431    973.6364 307.8214656  +6.2804794      632.709     921.3235     1140.802     77.81132     155.6846     311.2453      1.399     3.44     853.1221     54.88933     94.22046         5     0.757     0.452  15.79   0
        32    629.5259    971.8547 307.6448120  +6.2955330     752.0797     1262.701     618.4359     77.93512     155.6846     311.3382      1.644     4.58     854.1333     54.88933     129.2966        10     1.239     0.572  38.39   0
        33    921.5529    969.2664 307.5236639  +6.3063896     1887.711     3337.226     3422.705     78.05873     155.6846      311.462      1.842     4.27     850.0844     54.88933      232.067        22     1.443     0.963  54.71   0
        34    642.0111    965.1680 307.6398532  +6.2987118     4362.159      6754.43     6940.667     77.56311     155.4987     311.2762      1.606     3.36     853.8434     54.88933     588.1458        30     1.448     1.025  52.33   0
        35    254.2531    965.2809 307.8008209  +6.2856264     4176.412     6360.375     6606.005     78.05873     155.7465      311.462      1.676     3.46     853.8294     54.88933     562.0636        29     1.375     1.059  49.08   0
        36    992.3028    965.4123 307.4944204  +6.3103475     681.9517     1168.158     1788.599     77.81132     155.4987     311.1833      1.823     3.90     847.5981     54.88933     98.02002         6     0.956     0.456  86.24   0
        37    780.8857    965.8509 307.5821768  +6.3030878     1224.493     1682.938     1600.682     78.05873     155.6846      311.462      1.494     3.21      851.966     54.88933     177.9436        10     0.903     0.746  27.60   0
        38    464.2260    963.6556 307.7137098  +6.2933638     1088.985     1644.657     1405.618     77.68732     155.7465     311.2453      1.626     3.81     854.0818     54.88933     181.4157        13     1.225     0.692  39.32   0
        39     22.9613    962.5129 307.8969268  +6.2789679     2013.056     3324.912     3001.284     78.05873     155.6846     311.4001      1.742     3.81     849.6871     54.88933     267.5809        22     1.286     1.085  51.58   0
        40    873.6304    962.0164 307.5438019  +6.3077775     811.8986     1222.654     1313.659     77.68731     155.4987     311.3382      1.646     4.81      850.988     54.88933     118.8432         8     1.119     0.586  54.45   0
        41    965.6293    959.5289 307.5056909  +6.3118834     562.9512     820.9308      766.611     77.93512     155.7465     311.4001      1.657     6.82     848.3475     54.88933     83.14203         7     1.381     0.944  65.47   0
        42    290.3069    958.7062 307.7860755  +6.2895542     663.9868     1010.779     1272.968     78.05873     156.2409     311.3691      1.706     4.83      854.291     54.88933     95.70844         8     1.196     0.553  65.33   0
        43    998.2302    957.6027 307.4922207  +6.3137689     673.7435       1119.2     1447.299     77.56311     155.5607     311.2143      1.985     5.36     847.1353     54.88933     85.87634         8     1.293     0.627  89.82   0
        44    945.3719    958.4540 307.5141369  +6.3116493     583.0876      697.974     553.0433     77.81132     155.8084     311.3072      1.386     4.06     849.0334     54.88933     98.78937         5     0.947     0.496   2.68   0
        45    566.4755    957.3671 307.6714732  +6.2993952     1615.892     2526.947     1809.322     77.93512     155.7465     311.3691      1.679     4.63     854.0076     54.88933     226.2113        19     1.400     1.007  37.52   0
        46     55.4713    955.0568 307.8836832  +6.2831425     655.5652     1080.509     1273.175     78.18214     155.7465     311.3691      1.892     5.36     849.8941     54.88933     122.5504         9     1.329     0.615  40.96   0
        47    605.3356    954.1721 307.6554479  +6.3020188      1162.59     2044.657     2232.769     77.68732     155.7465     311.3382      1.870     5.38     853.9481     54.88933     190.4774        15     1.431     0.808  25.59   0
        48    285.7299    951.9421 307.7882033  +6.2921916     1381.207     2487.518     2543.327     78.18214     155.7465     311.3691      1.907     3.70     854.1337     54.88933     206.0231        16     1.148     0.971  50.63   0
        49    553.5856    950.1730 307.6770659  +6.3019313     665.7735     1005.738     559.4183     77.68732     155.6226     311.3072      1.410     3.61     853.8688     54.88933     118.9155         5     1.011     0.370   4.66   0
        50    753.0877    948.3682 307.5943030  +6.3093714     806.7224     1310.294     1205.252     78.18214     155.5607     311.3691      1.688     3.74     852.0402     54.88933     113.3315         9     0.865     0.772  70.79   0
        51    890.1951    944.4673 307.5375122  +6.3155750     6510.075     10700.31     11179.52     77.56311     155.4367     311.2143      1.779     3.53     850.2298     54.88933     841.1462        40     1.611     1.168  53.37   0
        52    128.3377    945.9131 307.8537437  +6.2893748     572.2163     793.4247     451.7328     78.05873     155.9321     311.4311      1.489     3.94     850.6613     54.88933      79.3714         6     1.064     0.418  76.98   0
        53    426.0883    941.6306 307.7302825  +6.3011713      1982.65     2938.549     3043.113     78.18214     155.5607     311.3382      1.613     3.58     853.7564     54.88933     305.2978        22     1.407     0.925  58.13   0
        54    327.6910    939.8792 307.7711899  +6.2985829     9321.146     14427.45     15390.67     77.81132     155.9321      311.462      1.682     3.42     853.9307     54.88933     1359.518        40     1.482     1.158  50.86   0
        55    247.8316    938.7568 307.8043799  +6.2963565     6975.978     10805.93     11597.14     77.56311     155.7465     311.2452      1.678     3.52     852.7902     54.88933     951.5542        36     1.460     1.127  64.04   0
        56    760.3411    933.8315 307.5917788  +6.3156140     779.0578     1207.905     967.7449     77.81132     155.8084     311.3691      1.578     4.29     851.9478     54.88933     127.0266         6     0.880     0.595 -53.93   0
        57    576.0956    933.4789 307.6682814  +6.3095772     1075.113     1393.685     2102.608     77.81132     155.9939     311.4311      1.323     3.28     853.5317     54.88933     168.3069        12     1.001     0.864  56.78   0
        58    905.9886    929.6047 307.5314526  +6.3222378     976.1147     1475.955     1669.891     77.68731     155.4987     311.3072      1.583     3.53     849.4529     54.88933     192.1289        11     0.990     0.880 -69.83   0
        59    861.9630    928.5311 307.5497666  +6.3212067     651.3738     1133.448     1236.958     77.93512     155.7465      311.493      1.514     4.09     850.6976     54.88933     105.8417         6     0.997     0.480   9.03   0
        60    973.0572    925.3502 307.5037500  +6.3262382     669.7344     1166.868     1053.841     78.05873     155.7465     311.4311      1.689     3.61     846.9399     54.88933     94.74768         7     0.727     0.686  23.53   0
        61    835.8685    922.9998 307.5607854  +6.3226155     547.4438     992.0996     790.0936     77.56311     155.2505     311.1833      1.617     4.94     850.9048     54.88933     107.6188         7     1.252     0.552  79.39   0
        62    742.2827    922.4974 307.5996558  +6.3196863     1639.422     2598.966     3129.139     78.05873     156.1175      311.462      1.855     3.98     851.8141     54.88933     270.0501        17     1.320     0.954  82.13   0
        63    566.0718    923.5991 307.6727745  +6.3133180      625.512     996.0261     850.0255     77.43871     155.3126     311.2143      1.612     3.89     853.3387     54.88933     81.52832         5     0.885     0.490   0.04   0
        64    973.7943    918.2125 307.5036827  +6.3292087     1139.372      1833.22      2267.29     77.68731     155.5607     311.2762      1.775     4.56     846.7057     54.88933     144.5012        15     1.175     0.923  48.67   0
        65    617.8526    919.1008 307.6514283  +6.3169134     640.5594     826.7512     716.5816     77.93512     155.7465     311.6167      1.350     4.37     852.9387     54.88933     103.3232         6     0.809     0.671  87.14   0
        66    606.2216    919.2572 307.6562518  +6.3164583     742.9673     976.0106      560.501     77.68732     155.6846     311.2143      1.407     3.88     853.1143     54.88933     111.7839         6     0.780     0.554  38.90   0
        67    527.3683    918.2477 307.6890221  +6.3142264     1028.892     1648.264     1642.146     77.81132     155.7465     311.3072      1.649     3.69     853.2664     54.88933     162.7566         8     1.021     0.553  65.68   0
        68    660.8603    915.9607 307.6336786  +6.3196529     2543.291     3830.346     3797.532     78.05873     155.7465      311.462      1.559     3.14     852.0267     54.88933     409.4017        20     1.227     1.004  44.29   0
        69     57.3798    912.0871 307.8843409  +6.3009402     2809.147     4637.351     5030.199     77.81132     155.4987     311.2762      1.754     3.51     848.9592     54.88933     374.8462        25     1.421     1.000  54.67   0
        70    821.6814    912.4904 307.5670273  +6.3264777     744.5341     1078.208     1248.967     77.81132     155.9939      311.462      1.510     4.93     850.6652     54.88933     106.1313         8     1.067     0.646  37.70   0
        71    201.0837    911.0806 307.8247189  +6.3062031      2174.55     3479.206     3698.219     77.93512     155.9939      311.462      1.641     3.56     851.3844     54.88933     292.4603        19     1.249     0.942  61.59   0
        72    938.9865    910.9462 307.5183771  +6.3310430     637.7417     1032.989     865.3302     77.43871     155.6846     311.1523      1.552     4.97      847.748     54.88933     112.5332         8     1.234     0.568  59.53   0
        73     74.9958    911.2403 307.8770566  +6.3018843     1855.583     3124.604     2981.672     77.31412     155.4987     311.1213      1.694     3.75     849.0909     54.88933     274.6637        20     1.344     0.912  52.21   0
        74    956.9020    909.5121 307.5109869  +6.3322344     490.6496     825.4205     1436.299     78.05873     156.1792     311.4311      1.633     4.25       847.08     54.88933     96.93774         5     1.185     0.434 -64.09   0
        75    339.7733    906.6309 307.7672929  +6.3127114     887.4715     1677.426      2084.67     77.56311     155.4987     311.2453      1.876     5.12     853.2925     54.88933     171.7466        11     1.707     0.495  81.68   1
        76    655.5233    905.0499 307.6362603  +6.3239768     6755.322     10667.64     11187.04     77.93512     155.8084     311.4001      1.687     3.30     851.7108     54.88933     934.7875        40     1.529     1.130  63.62   0
        77    235.1371    907.7640 307.8106938  +6.3087195     844.3444     1170.288     1370.803     77.93512     155.7465     311.4001      1.533     5.14     851.9203     54.88933     130.6791         9     0.995     0.751  32.20   0
