#   1 NUMBER                 Running object number                                     
#   2 X_IMAGE                Object position along x                                    [pixel]
#   3 Y_IMAGE                Object position along y                                    [pixel]
#   4 ALPHA_J2000            Right ascension of barycenter (J2000)                      [deg]
#   5 DELTA_J2000            Declination of barycenter (J2000)                          [deg]
#   6 FLUX_APER              Flux vector within fixed circular aperture(s)              [count]
#   9 FLUXERR_APER           RMS error vector for aperture flux(es)                     [count]
#  12 FLUX_RADIUS            Fraction-of-light radii                                    [pixel]
#  13 FWHM_IMAGE             FWHM assuming a gaussian core                              [pixel]
#  14 BACKGROUND             Background at centroid position                            [count]
#  15 THRESHOLD              Detection threshold above background                       [count]
#  16 FLUX_MAX               Peak flux above background                                 [count]
#  17 ISOAREA_IMAGE          Isophotal area above Analysis threshold                    [pixel**2]
#  18 A_IMAGE                Profile RMS along major axis                               [pixel]
#  19 B_IMAGE                Profile RMS along minor axis                               [pixel]
#  20 THETA_IMAGE            Position angle (CCW/x)                                     [deg]
#  21 FLAGS                  Extraction flags                                          
         1    987.3765     18.6518 307.5285130  +6.6978054     1915.553     3207.439     2937.767     77.45895     155.5373     310.8891      1.750     4.80     815.7353     54.81561     274.2084        24     1.646     0.977 -29.45   0
         2    706.7985     15.1300 307.6452043  +6.6898764     7328.534     11283.31     11561.07     77.45895      155.104     310.8272      1.635     3.98     820.3928     54.81561     894.8506        34     1.560     0.969 -27.89   0
         3    626.9576     14.3811 307.6784007  +6.6875105     3786.097     5756.464     5989.088     77.45895     155.3517     310.7654      1.635     4.17     822.1465     54.81561     487.4993        27     1.498     0.952 -33.08   0
         4    329.1922     13.9152 307.8021252  +6.6777066     978.0542     1540.517     2262.287     77.58298     155.2279     310.8272      1.757     5.93     832.1303     54.81561     123.4802        12     1.254     0.790 -41.77   0
         5    427.2922     10.5354 307.7614831  +6.6823988     6225.087     9671.806      10425.1      77.9539     155.7227     311.0128      1.720     4.14     825.5681     54.81561      780.993        32     1.525     1.025 -30.56   0
         6     28.1273     10.1169 307.9273269  +6.6691364     8280.532     13382.51     23196.89      78.2002     155.8461     311.0128      2.837     4.03     831.5677     54.81561     6593.711        38     1.546     1.092 -26.33  16
         7    503.2784      7.6189 307.7300121  +6.6861543      747.077     1125.017     1258.239     77.45895     155.2279      307.687      1.410     4.57     822.5302     54.81561     129.8607         9     1.400     0.425 -33.17  16
         8    323.7332      5.4926 307.8046767  +6.6810006     12730.11     20298.86     21542.06     77.83045     155.7227     290.0238      1.740     4.08     832.3487     54.81561     1499.311        42     1.601     1.083 -27.82  16
         9     97.5283      5.6235 307.8986473  +6.6733315      2543.51     3944.381     4650.509     77.58298     155.4136     291.4789      1.737     4.05     832.3585     54.81561     332.7828        24     1.506     0.919 -20.80  16
        10    418.5224      5.9937 307.7652793  +6.6839794     864.5497     1200.542       1626.8     77.58298      155.042     294.8896      1.486     5.40     826.0049     54.81561     122.7404        10     1.058     0.777 -23.13  16
        11    792.4374      4.4829 307.6099806  +6.6971395     757.4354      1380.92     1797.904      77.9539     155.4755     278.7653      2.380     3.94     819.0631     54.81561     103.4604         8     0.907     0.701 -43.68  16
        12     88.6596      4.5088 307.9023693  +6.6734928     1484.419     2307.757     2907.981     77.83045     155.5373     279.0755      1.851     4.24     832.1738     54.81561     217.2495        16     1.351     0.885 -21.84  16
        13    458.7126      3.8077 307.7486556  +6.6862318     669.7524     937.4518     1230.481     77.58298      152.036     270.2893      1.684     3.57     823.7241     54.81561     108.3801         6     0.876     0.668  17.31  16
        14    390.1014      3.3358 307.7771764  +6.6841220     2322.798      3673.13     3508.656      77.9539     148.3874     264.0634      1.669     4.47      828.212     54.81561     261.4645        20     1.324     0.925 -35.08  24
        15    675.1034      9.1073 307.6585747  +6.6913015     833.4429     1399.787     1755.756      77.9539     156.0311      310.951      1.688     4.17      820.814     54.81561     115.3075         9     0.901     0.833 -33.34   0
        16    650.0020      1.2244 307.6692682  +6.6937153     1256.253     1753.449     1784.883     66.07044     121.6067     232.0041      1.373     4.26      821.243     54.81561     324.6644        10     1.651     0.392   5.13  24
        17    596.0396    995.8099 307.6583123  +6.2812356       1263.1     2193.489     2055.152     77.33471     155.3517     310.7344      1.818     5.24     856.3771     54.81561     177.1048        18     1.487     0.893 -33.33   0
        18    954.9855   1020.9649 307.5084568  +6.2828537     5818.949        10654     11267.09     77.58298     153.5464       273.05      1.903     4.46     851.0466     54.81561     660.7678        41     1.663     1.245 -29.55  24
        19    713.5964   1019.4523 307.6087178  +6.2754097     2175.753     4673.866     6013.908     77.33472     155.3517     290.2889      2.546     7.71     856.0137     54.81561      362.207        38     2.644     0.989 -29.72  24
        20    527.2705    994.6572 307.6868994  +6.2794067     3882.624     6246.783     7102.953     78.07714     155.5373      310.951      1.809     4.30     856.6801     54.81561     554.4948        28     1.504     1.035 -18.66   0
        21    636.9545    994.0451 307.6413861  +6.2833349     1374.528     2124.702     2277.071      77.9539     155.5373     310.9819      1.626     5.25     855.9641     54.81561     194.0792        16     1.408     0.759 -34.60   0
        22    792.8352    992.4752 307.5767256  +6.2891997      582.067     977.8744     1037.617     77.83045     155.5991     310.9819      1.500     3.58     853.1507     54.81561     88.48053         5     1.020     0.362  85.04   0
        23     62.1035    992.9379 307.8800575  +6.2644858     977.4101     1161.052     1696.672     77.70682     155.5991     311.0437      1.358     4.47     854.4285     54.81561     164.8112        12     1.085     0.834 -24.05   0
        24    480.3547    991.1912 307.7064921  +6.2792646     2204.255     3525.258      3259.25     77.45895     155.4136     310.6725      1.667     4.10     856.6397     54.81561     287.6562        22     1.414     0.941 -22.41   0
        25    914.7995    983.2842 307.5263992  +6.2970708     39420.34      68503.3     73518.62     77.21028      155.042     310.6725      1.846     4.08       851.42     54.81561     4881.632        74     1.722     1.335 -28.46   0
        26    516.1577    985.6322 307.6918156  +6.2827606     419.3251     749.8919     1039.889     77.45895     155.5373     310.8272      1.730     2.99     856.5589     54.81561     98.05078         5     0.752     0.428 -21.13   0
        27    221.9264    981.5300 307.8140973  +6.2745746     1634.613     2747.755     3384.268     78.07714     155.6609     311.0128      1.876     5.39     856.4786     54.81561     211.8378        16     1.451     0.766 -36.69   0
        28    621.0577    979.6707 307.6484673  +6.2887378     772.6965     1323.574     1134.107     78.07714     155.5373     310.9819      1.800     4.83     855.8146     54.81561      132.837        10     1.183     0.729  -2.46   0
        29    110.2944    980.2839 307.8604795  +6.2713332     638.9059     954.7365     893.9945     77.83045     155.9078     311.1055      1.575     4.10     854.4044     54.81561     96.28491         6     0.925     0.520 -47.02   0
        30    760.9973    974.9419 307.5905300  +6.2953746      6287.05     10499.41     11721.27     77.33471     155.3517     310.7344      1.792     4.10     854.0858     54.81561     796.9708        40     1.642     1.225 -38.56   0
        31    812.8214    976.9281 307.5689485  +6.2962876     2172.465     3402.631     4188.181     77.58298     155.4136      310.951      1.801     3.87      852.413     54.81561     275.7979        22     1.321     1.043 -20.17   0
        32    194.9104    973.3616 307.8255871  +6.2770387     870.9976     1553.395     1111.731      77.9539     155.4755     311.0128      1.755     6.71     855.4777     54.81561     115.3094        15     1.497     0.844 -49.83   0
        33    230.4783    973.7202 307.8108101  +6.2780868     1562.454     2177.509     2231.971      78.2002     155.7844     311.1364      1.577     4.53     856.2887     54.81561      199.184        16     1.399     0.740 -24.71   0
        34    949.1923    970.0233 307.5125639  +6.3036950     6117.808     10736.58     11421.42     77.45895     155.3517     310.8272      1.861     4.13     850.0912     54.81561     733.5688        39     1.613     1.187 -33.79   0
        35     55.4245    971.8575 307.8835406  +6.2729648     2735.653     4309.707     4433.904     77.58298     155.5373     310.8272      1.703     3.73     854.1595     54.81561     385.6116        22     1.416     0.883 -31.41   0
        36    548.0902    974.1053 307.6789459  +6.2885907     881.9438     1619.579      1553.46      77.9539     156.0311     310.9819      1.708     3.99     856.2281     54.81561     126.7299        10     1.116     0.620 -30.13   0
        37    631.5573    963.6710 307.6446448  +6.2956959     599.1245      921.171     592.9147     77.83045     155.5373     311.0128      1.469     3.35     855.3494     54.81561     108.9092         5     0.996     0.327 -66.55   0
        38    922.6611    961.8213 307.5238528  +6.3061958     1028.313     1923.754     2407.174     77.58298     155.5373       310.92      1.350     4.83     850.6002     54.81561     246.5712        21     1.520     0.996  -5.16   0
        39    643.7010    957.5197 307.6398095  +6.2986425     4620.188     7283.584     6747.023     77.83045     155.9078     311.0437      1.694     3.91     855.0976     54.81561     569.2609        33     1.565     1.051 -33.20   0
        40    782.6623    957.9318 307.5821050  +6.3031230     1393.914     2098.566     1759.649      77.9539     155.4755     311.0128      1.641     5.55     852.9644     54.81561     165.0009        16     1.335     0.917 -33.26   0
        41    255.8553    957.6964 307.8008146  +6.2855562     4331.929      6957.44     6751.168     77.83045     155.4755     311.1673      1.684     4.04     855.8038     54.81561     566.3978        28     1.524     0.950 -26.82   0
        42    992.8499    957.5632 307.4948550  +6.3102973     623.1432     994.4321     1465.998     77.70681     155.4755     310.8582      1.784     4.21     848.4475     54.81561     90.42993         5     0.943     0.537 -48.82   0
        43    466.1587    956.0380 307.7135656  +6.2933034     1192.331     1787.373     1356.569     77.70682     155.5991     310.8582      1.577     4.58     856.4755     54.81561     149.8265        14     1.254     0.754 -10.75   0
        44     24.6745    955.2088 307.8968667  +6.2788031     2223.113     3422.528     3562.826     77.58298      155.104     310.8272      1.657     4.09     853.9234     54.81561      304.144        20     1.349     0.867 -35.40   0
        45    875.3925    954.1593 307.5437331  +6.3077805     841.8575     1469.224     1415.641     77.33471     155.2898     310.6725      1.809     6.07     851.0167     54.81561     124.7541        12     1.126     0.920  15.14   0
        46    291.9898    951.1870 307.7860330  +6.2894584     914.9845     1430.375     1604.582     77.70681     155.2898       310.92      1.611     5.81     855.7286     54.81561     138.3059        12     1.403     0.678 -26.98   0
        47    568.1818    950.0959 307.6714104  +6.2991778     1620.996     2646.753     3044.408     77.83045     155.3517     310.7654      1.829     4.17     855.5727     54.81561     253.1648        19     1.382     0.864 -23.12   0
        48    999.7744    949.8845 307.4922367  +6.3136991     747.6898     1131.335     1307.918     78.07714     155.2898     310.8582      1.759     2.90     848.2712     54.81561      144.314         6     0.869     0.464 -56.80   0
        49     57.1755    947.2437 307.8836435  +6.2831866     672.7407     1034.932     1308.805     77.45895     155.4755     310.8582      1.470     5.01     853.8643     54.81561     119.3973         8     1.370     0.517 -33.38   0
        50    607.5123    946.3506 307.6552078  +6.3020422     1285.094     2018.101     1578.571      77.9539     155.3517     311.0437      1.698     5.63     855.1838     54.81561     185.7647        16     1.501     0.776 -33.13   0
        51    287.7884    944.0312 307.7880178  +6.2922718     1397.348     2266.574     2620.648     77.45895     155.2898     310.8582      1.723     4.55     855.4889     54.81561     207.7996        14     1.326     0.731 -35.06   0
        52    754.4351    940.2061 307.5944172  +6.3094980     865.8648     1220.664     1057.458     77.21028     155.2898     310.7654      1.541     5.76     853.6552     54.81561     98.09839        12     1.266     0.737 -16.25   0
        53    891.8557    936.8807 307.5374759  +6.3154652     6736.839     11116.85     11668.38     78.07714     155.5373     311.0128      1.760     4.25     850.3076     54.81561      833.532        32     1.564     1.045 -27.44   0
        54    427.7376    933.9538 307.7302576  +6.3011328     2096.736     2830.585     2631.227     77.83045     155.4136     311.0437      1.472     3.62     856.1844     54.81561     308.8869        19     1.340     0.864 -26.21   0
        55    329.4173    932.3245 307.7711297  +6.2985043     9759.819     14981.11     16106.07     77.45895     155.2898       310.92      1.688     4.03      855.744     54.81561     1362.986        38     1.532     1.045 -25.61   0
        56    249.5496    931.2300 307.8043228  +6.2962722     7082.188     10985.97     12010.25     77.58298     155.6609     310.8891      1.682     3.90     854.8696     54.81561     969.4791        33     1.497     1.007 -32.45   0
        57    762.2466    925.6690 307.5916609  +6.3157619     674.5007      975.776     1145.492      77.9539     155.4755     310.9819      1.544     5.11     853.1185     54.81561     116.5323         8     1.266     0.584 -41.17   0
        58    577.7255    925.9146 307.6682593  +6.3094824     1065.323     1616.207     1449.028     78.07714     155.8461     311.0128      1.597     5.81     854.9966     54.81561     156.3556        12     1.432     0.664 -32.47   0
        59    907.5104    922.2245 307.5314665  +6.3220399     1036.631     1892.819      2155.43     78.07714     155.3517     310.8272      2.337     6.00     849.6108     54.81561     150.2218        12     1.364     0.743 -48.36   0
        60    864.3363    921.0280 307.5494314  +6.3210915     781.8531     1265.121     1463.595     77.58298     155.5373       310.92      2.027     5.35     850.6122     54.81561     97.51495        10     1.113     0.725   3.50   0
        61    211.9753    921.2178 307.8202583  +6.2991427     514.1224     808.6769     786.3655     77.70681     155.4136       310.92      1.630     3.74     854.5909     54.81561     79.47498         5     0.816     0.492 -54.07   0
        62    140.4660    921.5424 307.8499335  +6.2966028     563.4177     773.7169      298.663     78.07714     155.4755     311.0128      1.384     3.98     854.0737     54.81561     99.26508         5     0.994     0.456 -13.18   0
        63    406.4170    919.9509 307.7395793  +6.3061991     522.6185      579.042     1202.549     77.45895     155.5991     310.7344      1.362     4.66     855.8688     54.81561     84.24823         5     1.039     0.592 -18.23   0
        64    837.3558    915.6179 307.5608140  +6.3224237     634.6006     740.5844     667.1013     77.58298     155.4136     310.7344      1.470     5.21     851.0115     54.81561     103.6271         6     1.110     0.690   3.00   0
        65    744.1008    915.0884 307.5995488  +6.3195236     1559.324     2331.094     2757.833      77.9539     155.9695      310.951      1.496     4.40     853.5316     54.81561     203.3366        14     1.257     0.826 -21.30   0
        66    567.5444    915.5347 307.6728343  +6.3134271     671.8586      1265.35     1297.624     78.07714     155.4136     310.9819      1.697     4.40     854.9108     54.81561     112.7418         8     1.263     0.437 -35.66   0
        67    975.3163    910.9810 307.5036906  +6.3289468     1175.758     1965.231     2366.042     77.58298     155.2279      310.951      1.875     5.44     847.9879     54.81561     150.9172        14     1.180     0.884 -65.08   0
        68    608.1536    911.6781 307.6561041  +6.3163803     843.0021     1164.754     836.8043     77.83045     155.5991     310.9819      1.526     5.00     854.5925     54.81561     109.6658        10     1.204     0.636 -32.16   0
        69    529.3422    910.6204 307.6888593  +6.3141757     974.9538     1695.996     1906.685     77.58298     155.4136     310.7963      1.842     5.24      855.206     54.81561     152.4919        10     1.324     0.586 -31.44   0
        70    662.5131    908.3718 307.6336466  +6.3195662     2529.314      3760.06     3922.668     78.07714     155.2898     310.8582      1.615     4.03     854.1386     54.81561     368.0213        21     1.470     0.807 -32.26   0
        71    952.8992    906.4131 307.5131504  +6.3300845     651.5649     1149.843     931.7883     77.70681     155.2898     310.7344      1.857     3.83     848.3027     54.81561     118.4421         6     0.925     0.786 -70.19   0
        72    823.4312    905.0997 307.5669470  +6.3263013     812.7504     1526.066     1987.048      77.9539     155.2898     311.1364      2.427     7.19      851.076     54.81561     98.92609        12     1.603     0.905 -72.03   0
        73     59.0547    904.4017 307.8843077  +6.3009391     2914.034     4481.422     4669.411     77.33471     155.2898     310.6416      1.644     4.01     852.5063     54.81561      392.671        20     1.276     0.935 -27.05   0
        74    940.7633    903.5056 307.5182862  +6.3308799      776.045     1389.347     1270.236     78.07714     155.4136     311.0746      1.934     5.49      848.533     54.81561     101.0437        12     1.342     0.734 -58.92   0
        75    202.7897    903.2427 307.8246767  +6.3062556     2271.866     3662.065     3620.088     77.45895     155.3517     310.7344      1.692     4.06     854.4283     54.81561     312.5715        21     1.395     0.891 -25.81   0
        76     76.6281    903.6920 307.8770364  +6.3018240     1997.948      3056.85     3208.642     78.07714     155.2898     310.8582      1.632     4.38     852.6783     54.81561     267.8716        17     1.391     0.780 -24.59   0
        77    657.1859    897.4844 307.6362232  +6.3238833     6760.182     10430.63     11176.74     77.58298     155.2898     310.8272      1.694     4.23     854.1057     54.81561     944.3255        33     1.552     0.988 -25.57   0
