#   1 NUMBER                 Running object number                                     
#   2 X_IMAGE                Object position along x                                    [pixel]
#   3 Y_IMAGE                Object position along y                                    [pixel]
#   4 ALPHA_J2000            Right ascension of barycenter (J2000)                      [deg]
#   5 DELTA_J2000            Declination of barycenter (J2000)                          [deg]
#   6 FLUX_APER              Flux vector within fixed circular aperture(s)              [count]
#   9 FLUXERR_APER           RMS error vector for aperture flux(es)                     [count]
#  12 FLUX_RADIUS            Fraction-of-light radii                                    [pixel]
#  13 FWHM_IMAGE             FWHM assuming a gaussian core                              [pixel]
#  14 BACKGROUND             Background at centroid position                            [count]
#  15 THRESHOLD              Detection threshold above background                       [count]
#  16 FLUX_MAX               Peak flux above background                                 [count]
#  17 ISOAREA_IMAGE          Isophotal area above Analysis threshold                    [pixel**2]
#  18 A_IMAGE                Profile RMS along major axis                               [pixel]
#  19 B_IMAGE                Profile RMS along minor axis                               [pixel]
#  20 THETA_IMAGE            Position angle (CCW/x)                                     [deg]
#  21 FLAGS                  Extraction flags                                          
         1    183.3104     19.7203 307.8650151  +6.6681264     11534.43     16446.47     17008.74       78.061     156.4944     312.4925      1.521     3.27     834.8544     55.06546     1624.408        36     1.439     0.973  67.68   0
         2    928.8771     17.4598 307.5553035  +6.6940549      4384.94     6337.916     6542.362     78.43301     156.3083     312.3682      1.539     3.66     821.0989     55.06546     755.2059        24     1.405     0.824  64.01   0
         3    729.7293     15.9638 307.6381038  +6.6880150     2034.599      3101.87     3088.631      78.1852     156.2462     312.4614      1.531     3.68      822.666     55.06546     304.9014        16     1.339     0.710  65.60   0
         4    465.6766     16.4988 307.7478024  +6.6789454     1956.743     2872.472     2508.345     77.93659     156.4324     312.3993      1.550     3.29     825.9089     55.06546     287.8242        15     1.207     0.712  70.36   0
         5    993.6884     13.6678 307.5284999  +6.6977840     2125.212      3287.99     3552.784     78.43301     156.4324     312.3993      1.626     3.43     816.6416     55.06546     292.8018        19     1.227     0.909  81.70   0
         6    788.6413     13.0380 307.6137231  +6.6911937     534.3527     759.0433     668.7778     78.06099     156.3083      312.275      1.827     5.17     821.4657     55.06546     102.1825         6     1.375     0.549  69.60   0
         7    713.0323     10.1924 307.6452358  +6.6898388     7908.805     11203.59      11486.7       77.812      156.122     312.2129      1.466     3.56      822.834     55.06546     1218.857        26     1.391     0.847  68.89   0
         8    633.2260      9.5120 307.6784195  +6.6874474     4077.457     5769.374     6127.232     78.43301     156.0598      312.244      1.541     3.77     823.8495     55.06546     545.3906        23     1.372     0.834  61.72   0
         9    335.3203      9.2957 307.8022085  +6.6775418     1053.822     1529.373     1618.419       78.061     156.4944     312.4925      1.505     4.33       834.92     55.06546     150.1788        10     1.164     0.580  81.55   0
        10    389.0593      7.4918 307.7799408  +6.6800917     845.2183     1083.672     686.9996      78.1852     156.1841      308.398      1.465     3.85     831.7142     55.06546     125.7511         9     1.087     0.559  63.32  16
        11    433.3874      5.6291 307.7615851  +6.6823491     6730.869     9759.333      10181.7       77.812     155.9976     292.6417      1.560     3.52      827.898     55.06546     944.2222        27     1.407     0.906  64.82  16
        12     34.3790      5.1754 307.9273853  +6.6691146      9008.92     13161.81     13895.61     77.93659     156.0598     287.9623      1.528     3.42     835.4055     55.06546     1290.532        35     1.461     0.991  70.21  24
        13    680.2656      4.6933 307.6590359  +6.6910121     1006.293     1453.365     1485.357      78.3092     156.4324     282.4509      1.576     4.31     823.4673     55.06546     153.2415        10     1.099     0.761  49.44  16
        14    509.2260      2.7827 307.7301696  +6.6860690     946.4327     1623.598     1459.858     77.93659     143.1532     257.4709      1.689     5.28     824.3217     55.06546     142.2277        14     1.292     0.789  65.93  24
        15    330.3209      1.6661 307.8045432  +6.6805235     9347.305     10955.48     11633.61     72.25125     129.1869     240.5598      1.113     2.44     834.8209     55.06546     2107.802        19     1.051     0.759  11.84  24
        16    103.6310      1.7354 307.8987288  +6.6728681     1954.054     2369.876     2213.518     72.51935     130.0851     241.4455      1.135     2.54      836.251     55.06546     450.4596        12     0.852     0.841  56.46  24
        17    425.0868      1.8150 307.7651627  +6.6836450     761.0867     914.5446     1347.696     73.58195     131.1992     242.9279      1.199     3.78     828.4102     55.06546     129.5072         6     0.932     0.441  50.35  24
        18     95.2419      1.2597 307.9022304  +6.6727819     596.8643     582.4201     440.3819     67.38716     123.1892     234.0172      0.964     1.81     836.4285     55.06546       168.98         5     0.683     0.425  11.53  24
        19    547.1076    993.9583 307.6810709  +6.2781420     8801.211     13196.92     14329.62      78.3092     156.1841     312.4925      1.572     3.65     858.4813     55.06546     1219.037        39     1.504     1.073  66.39   1
        20    753.8548   1022.1334 307.5942868  +6.2734298     1217.483     1682.154     1719.632      78.3092     144.2337      258.674      1.480     3.69     856.6831     55.06546     206.9579        15     1.238     0.830  61.65  24
        21    577.1362   1023.6835 307.6676043  +6.2668761     1423.184      1823.06     1863.562      68.1033     124.0526      234.845      1.193     2.82      858.606     55.06546     318.3149         8     1.019     0.464   2.42  24
        22   1011.1219    990.1766 307.4885427  +6.2952142     4289.825     7671.873     7814.124     77.93659     156.0598     312.3372      1.896     4.25     851.0547     55.06546      520.671        35     1.648     1.162  65.07   0
        23    889.3467    990.7933 307.5390831  +6.2908958     11922.38      19891.7     21255.44       77.812     156.0598     312.1196      1.790     3.81     852.7535     55.06546     1539.712        47     1.581     1.267  56.91   0
        24    533.4266    989.8162 307.6868904  +6.2793936     4288.291     6637.326     7582.611     77.93659     156.0598     312.3061      1.724     3.58     858.5929     55.06546     570.2893        30     1.486     1.091  62.64   0
        25    602.1074    990.9144 307.6583383  +6.2812409     1567.981     2423.784     2559.741      78.1852     156.6803     312.4925      1.692     3.89     857.9904     55.06546     274.6036        17     1.397     0.775  61.33   0
        26    318.8130    992.1970 307.7759126  +6.2712119     1601.593     1479.555     867.0075     77.93659     155.9354      312.275      0.865     2.66     858.5418     55.06546     480.0845         5     0.876     0.326  52.81   0
        27    642.9688    988.7615 307.6414455  +6.2834977     1353.597     2046.721      2732.76     77.93659     155.9976      312.244      1.801     3.46     857.8044     55.06546     204.5298        13     1.134     0.722 -89.18   0
        28    799.0905    987.7678 307.5766585  +6.2891297     710.6426     1219.746      1263.64     78.43301     156.0598     312.4304      1.702     5.46     853.3997     55.06546     102.1151         9     1.267     0.664  33.20   0
        29     67.7421    987.8937 307.8802929  +6.2645476     979.8584     1562.946     1444.987      78.1852     156.2462     312.5856      1.696     3.76     855.1745     55.06546     136.7413         9     0.873     0.765  15.24   0
        30    486.5626    986.0872 307.7064728  +6.2793624     2426.796     3315.853     3074.482      78.3092     156.1841     312.3993      1.475     3.65     859.0951     55.06546     315.8575        18     1.273     0.823  65.15   0
        31    921.1125    978.3358 307.5263114  +6.2970994     42192.34     68730.32     73531.19      78.3092     156.4324     312.4304      1.748     3.77     851.9464     55.06546     5402.088        79     1.743     1.264  63.13   0
        32    228.4023    976.3546 307.8139825  +6.2747150     1712.861     2407.425     2210.442     77.68719     155.8732     312.0264      1.521     4.11     857.9981     55.06546     240.9164        15     1.223     0.766  62.22   0
        33    116.6532    975.4922 307.8604060  +6.2713132     759.3253     1002.755     1134.936      78.1852     156.1841     312.5546      1.561     5.39     855.5565     55.06546     112.1034        10     1.169     0.990  69.69   0
        34    627.4263    974.6779 307.6483718  +6.2887917     849.9613     1432.803      1090.54      78.1852     156.1841     312.3682      1.610     4.80     857.6271     55.06546     121.6876         9     1.188     0.559  60.37   0
        35    819.2339    972.1904 307.5688175  +6.2962339     2362.574     3860.551     3696.802     77.81199     156.0598      312.244      1.690     4.00     853.2139     55.06546     365.4741        23     1.400     0.996  55.07   0
        36    767.2628    969.9178 307.5904722  +6.2954351     6697.133     10703.17     12095.19     78.43301     156.2462     312.3993      1.753     3.69     854.7355     55.06546     876.2369        38     1.579     1.085  64.35   0
        37    553.8191    969.0208 307.6791230  +6.2886621     934.5754     1734.843     2219.371     78.06099     156.1841     312.3061      2.093     4.71      858.101     55.06546     147.7103         9     1.287     0.563  70.30   0
        38    236.7086    968.7493 307.8107905  +6.2781338     1519.177     2125.367     1983.606      78.1852     156.0598     312.5856      1.534     4.21     857.9099     55.06546     207.1919        15     1.134     1.031  83.34   0
        39    201.0296    968.2410 307.8256206  +6.2771445     819.7287     1117.085     337.0094     77.93659      156.122      312.275      1.594     5.93     857.2861     55.06546     119.3553        10     1.141     0.866  74.00   0
        40     61.6761    967.1514 307.8835121  +6.2729064     2898.031     4378.615      4492.57      78.1852     156.3083     312.3993      1.578     3.22     854.9991     55.06546     412.7739        23     1.299     1.018  59.16   0
        41    955.5096    965.0847 307.5124734  +6.3037181     6490.875     10783.53     11495.31     78.06099     156.5564     312.5235      1.756     3.72     851.1443     55.06546     833.3356        36     1.577     1.117  54.98   0
        42    211.4283    960.9488 307.8215494  +6.2805045      511.188     853.2303     892.1172     77.93659     156.3704     312.3061      1.525     3.95      857.376     55.06546     83.45312         5     0.906     0.493  87.13   0
        43    638.1764    959.8155 307.6444078  +6.2952875     702.8134     1151.844     784.0221     78.06099     156.0598     312.3061      1.465     3.91      857.272     55.06546     95.75629         6     0.779     0.563 -40.45   0
        44    929.3496    956.8436 307.5236113  +6.3062474     2169.818     3495.378     2095.999     78.43301     156.2462     312.4304      1.686     4.35     851.5965     55.06546      248.135        21     1.418     0.949  66.32   0
        45    788.7676    953.4362 307.5820963  +6.3029584     1315.822     2217.943     2725.869     77.93659     155.9976     312.1507      1.887     4.60     853.6903     55.06546     176.3802        16     1.452     0.770  58.31   0
        46    649.9952    952.7440 307.6397383  +6.2986025     4812.739     7083.235     7554.953     77.68719     156.0598     312.1196      1.559     3.73     856.9969     55.06546      695.142        29     1.497     0.948  57.54   0
        47    262.1134    952.8947 307.8007778  +6.2855328     4532.583     6517.662     6687.331      78.3092     156.6184     312.4614      1.505     3.46     857.7363     55.06546     664.9446        24     1.424     0.859  66.28   0
        48    999.4322    952.3094 307.4946641  +6.3104578     677.4564     1135.281     1203.812     78.43301     156.0598     312.4304      1.838     4.74     849.8599     55.06546     95.86664         9     1.326     0.481  84.45   0
        49    472.2206    951.3412 307.7135967  +6.2932261     1210.643     1608.299     1691.583     77.93659      156.122     312.2129      1.413     3.40     858.5321     55.06546     189.9472        12     1.047     0.742  58.03   0
        50     30.6477    949.9667 307.8969747  +6.2789560     2232.396     3330.125     3435.416     78.06099     156.2462     312.3372      1.634     3.32     854.8507     55.06546     349.2584        22     1.437     0.932  76.69   0
        51    881.6462    949.1151 307.5436773  +6.3078454     890.9627     1060.266      801.363      78.3092     156.1841     312.3993      1.383     4.24     852.3743     55.06546     115.8961         9     0.877     0.778   0.41   0
        52    973.7944    946.9998 307.5054870  +6.3117946     584.9578     772.9693     692.1924     77.68719     155.9354     312.2129      1.296     3.91     850.3369     55.06546     80.30023         6     0.952     0.461 -53.85   0
        53    297.9106    946.1441 307.7861431  +6.2895222     863.5377     1383.078     1679.876      78.3092      156.122     312.5235      1.856     3.85      857.767     55.06546     130.4185        10     1.046     0.673  82.21   0
        54    953.1343    946.0671 307.5140966  +6.3114903     678.9905     1108.138     965.0817      78.3092     156.2462     312.4304      1.835     1.98     850.8654     55.06546     113.8312         5     0.901     0.695  87.66   0
        55    574.4149    945.2840 307.6713699  +6.2991516      1667.37     2400.521     2421.459     77.93659     155.9976     312.3061      1.491     3.69     857.6458     55.06546     238.7548        16     1.190     0.834  60.34   0
        56    449.9010    946.4719 307.7230275  +6.2944879     2758.102     2727.793     2821.241     78.06099     156.3704     312.3993      0.687     0.88     858.2665     55.06546     1216.221         5     0.506     0.374  75.93   0
        57   1006.1718    944.1675 307.4921383  +6.3140440     695.8315     1430.018     1844.119       77.812     155.9976     312.2129      2.350     5.68     849.3929     55.06546     99.13147        10     1.139     0.966  56.41   0
        58    614.0698    941.6724 307.6550266  +6.3019707     1466.876     2034.472     1675.115     78.43301     156.3704     312.3993      1.485     3.91     857.2825     55.06546      184.726        14     1.117     0.808  72.55   0
        59     63.7353    942.7178 307.8834828  +6.2830626     730.4752     1172.319     1658.601     78.43301     156.3704     312.4304      1.535     3.55     854.8062     55.06546     126.4171         6     0.768     0.532  41.99   0
        60    293.6967    939.1756 307.7881276  +6.2922575     1492.621     2160.689     2624.593     78.43301     155.9976      312.275      1.612     4.66     857.6417     55.06546     227.8961        13     1.367     0.644  68.06   0
        61    561.4777    937.2382 307.6770120  +6.3020399     663.2336      964.035     870.9279      78.1852     156.3083     312.3993      1.649     4.67     857.6384     55.06546     80.88245         9     1.255     0.492  85.69   0
        62    760.5786    935.1912 307.5944128  +6.3095485     1022.246     1281.715     1453.472     77.93659     156.0598     312.1818      1.409     3.14     854.1896     55.06546     162.9952        11     1.034     0.675  43.52   0
        63    898.0623    931.8923 307.5374384  +6.3155040     6986.267     10933.51     11521.45      78.3092     156.3083     312.4614      1.650     3.75     851.8925     55.06546     948.1097        34     1.490     1.048  63.09   0
        64    107.4054    930.5307 307.8657640  +6.2895635     530.7125     659.3565     652.8712       77.812     155.8732      312.244      1.152     4.73     854.7731     55.06546     88.15918         6     1.337     0.474  50.26   0
        65    434.0031    929.0165 307.7302159  +6.3011610      2159.31     3170.246     3084.783     77.93659     155.8732      312.244      1.507     3.69     857.8809     55.06546     339.0814        18     1.302     0.808  67.62   0
        66    335.6402    927.4144 307.7711096  +6.2985215     10045.35     14543.15     15221.55       77.812     156.0598     312.1507      1.559     3.44     857.6523     55.06546     1375.222        35     1.467     0.998  64.83   0
        67    255.7582    926.4565 307.8043081  +6.2962339     7634.936     10832.39     11398.07      78.1852     156.1841     312.4304      1.544     3.43     857.2764     55.06546       1009.5        29     1.436     0.920  67.29   0
        68    768.5939    920.9030 307.5915643  +6.3157153     623.5129     1005.204     1331.533     78.06099     155.9354     312.2129      1.610     4.37     853.8848     55.06546     111.4875         7     1.329     0.409  56.47   0
        69    583.6910    920.8373 307.6683403  +6.3095550     1211.416     1692.869      1511.55     78.43301     156.1841     312.4304      1.527     4.76     857.1522     55.06546     173.4664        16     1.387     0.823  55.79   0
        70    913.9234    916.9470 307.5313533  +6.3222038     1050.818     1790.474     1962.217     78.43301     156.2462     312.3993      1.645     5.28      851.442     55.06546     180.8765        13     1.312     0.693  46.45   0
        71    870.4268    915.9865 307.5494463  +6.3211479     897.5338     1724.645     1471.313     78.06099     156.0598     312.3372      1.802     5.00     852.2076     55.06546     123.8947        14     1.452     0.800  49.18   0
        72    146.5413    916.9991 307.8499725  +6.2964664     611.5016     965.0867     1165.483     77.68719     155.9354     312.0885      1.739     5.35      854.884     55.06546     93.34235         8     1.075     0.750  62.43   0
        73    412.6634    914.7255 307.7395574  +6.3063451     580.3233     950.3237     1389.125     78.55663     156.2462     312.3682      1.719     2.74     857.2958     55.06546     103.7025         5     0.734     0.440  72.82   0
        74    981.1038    912.3465 307.5036125  +6.3263451     807.8958     1424.878     1462.118      78.1852     156.2462     312.6477      1.742     5.95     849.1736     55.06546     127.2626        11     1.339     0.745  66.98   0
        75    750.0703    910.0442 307.5996201  +6.3195789      1777.96     2881.065     2956.493      78.3092     156.2462     312.4304      1.698     3.81     854.1903     55.06546     244.4171        22     1.432     0.973  69.74   0
        76    574.4742    911.0214 307.6724973  +6.3132987     769.5598     1238.069     1126.964     77.93659      156.122     312.3372      1.814     4.94     856.9238     55.06546     120.1437        10     1.305     0.574  64.66   0
        77      1.3247    907.5533 307.9105827  +6.2954778     747.5955     873.0954     1401.636     67.81776     124.0526     234.8863      1.215     3.87     854.5354     55.06546     141.0925         6     0.919     0.467 -87.89  24
