#   1 NUMBER                 Running object number                                     
#   2 X_IMAGE                Object position along x                                    [pixel]
#   3 Y_IMAGE                Object position along y                                    [pixel]
#   4 ALPHA_J2000            Right ascension of barycenter (J2000)                      [deg]
#   5 DELTA_J2000            Declination of barycenter (J2000)                          [deg]
#   6 FLUX_APER              Flux vector within fixed circular aperture(s)              [count]
#   9 FLUXERR_APER           RMS error vector for aperture flux(es)                     [count]
#  12 FLUX_RADIUS            Fraction-of-light radii                                    [pixel]
#  13 FWHM_IMAGE             FWHM assuming a gaussian core                              [pixel]
#  14 BACKGROUND             Background at centroid position                            [count]
#  15 THRESHOLD              Detection threshold above background                       [count]
#  16 FLUX_MAX               Peak flux above background                                 [count]
#  17 ISOAREA_IMAGE          Isophotal area above Analysis threshold                    [pixel**2]
#  18 A_IMAGE                Profile RMS along major axis                               [pixel]
#  19 B_IMAGE                Profile RMS along minor axis                               [pixel]
#  20 THETA_IMAGE            Position angle (CCW/x)                                     [deg]
#  21 FLAGS                  Extraction flags                                          
         1     38.7549    122.3893 307.9369063  +6.6312899     429005.6      1912072      2749192     93.29999     187.1971     374.2451      3.327    10.38     1269.812     66.02589     58113.73       413     2.717     2.585  66.03   4
         2    679.8353     20.5107 307.6732551  +6.6947627     3067.645     6336.833      8211.42     94.04461     187.2716     374.5804      2.247     8.59     1231.804     66.02589     355.3931        30     2.310     0.908  35.73   3
         3    682.1567     17.7080 307.6723818  +6.6959970     2748.662     7852.593     12312.74     93.89616     187.3461     374.7294      3.208     9.97     1231.751     66.02589     287.8254        51     2.685     1.345  33.59   3
         4    687.8654     23.9586 307.6697941  +6.6936065     3463.345     8929.978     11973.56     93.89616     187.2716     374.6921      3.495    17.14     1231.858     66.02589     380.1995        74     5.144     1.720 -81.97  19
         5    691.3136     22.2610 307.6684143  +6.6944222     2683.174     5506.159     7417.213     94.04461     187.4949     374.6549      2.896     8.25     1231.822     66.02589     295.4872        30     2.436     1.015  72.46   3
         6    291.0990     19.7485 307.8352372  +6.6821089     2132.942     5393.744     8194.186     93.89616     187.3461      374.841      3.020    10.74     1261.022     66.02589     261.2802        46     2.686     1.682  32.61   3
         7    453.1871     18.1940 307.7677608  +6.6881644     2295.082     4952.981     7457.006     93.44939     187.1226     374.4314      2.768    11.27     1243.775     66.02589     236.3926        40     3.113     1.137  32.89  18
         8    712.5510     16.1089 307.6597719  +6.6976689     6401.122     18077.47     31428.21     93.89616     187.1226     374.7666      3.641     8.57     1231.715     66.02589     686.3999       121     3.020     2.367 -34.18  16
         9     96.5488     14.7316 307.9164563  +6.6776699     1051.478      2177.77     3183.556     93.74747     187.1971      374.506      2.324     6.73     1264.104     66.02589     135.8085        13     1.452     0.875  19.43   2
        10     98.8344     11.4216 307.9156156  +6.6791129      1065.25     2192.446     3777.422     93.29999     187.1226     374.2824      3.337     7.26     1263.931     66.02589     148.6464        14     1.785     0.826  23.08  18
        11    187.3943     12.0376 307.8787006  +6.6818236     1547.914     3732.268      6710.38     92.85034      187.048     374.2824      3.974    15.66      1260.22     66.02589     180.6249        48     3.502     1.947  79.71  18
        12    190.0211     10.0000 307.8776749  +6.6827527     1518.449     2830.138      4665.59     93.29999     186.8988     374.1706      2.543     5.60     1260.208     66.02589     169.0072        15     1.259     1.018 -21.95   3
        13    920.4694      6.5443 307.5734636  +6.7085297     853.1553     2359.358     3942.084     93.89616     187.1971     361.1562      3.555     8.18      1226.52     66.02589     142.9415        12     1.620     1.154  43.26  18
        14    295.3268    981.6716 307.8011753  +6.2851290     2100.702     5419.686     6283.218     94.19283     187.4949     374.6177      2.579     6.96     1291.752     66.02589     229.2971        39     1.688     1.673  46.59   0
        15    948.3670   1022.3403 307.5279524  +6.2900761     5952.303     10531.26     11052.05     93.74747     170.4236     306.5422      1.883     4.50     1289.301     66.02589     661.1985        33     1.649     1.185  17.24  24
        16    579.9871   1021.9932 307.6813222  +6.2779748     4292.427     9127.204     10392.66     93.44939     174.6282     312.4469      2.247     5.81     1291.824     66.02589     485.4172        44     1.992     1.364  12.55  24
        17    820.6469    981.5370 307.5824855  +6.3026819       834.18     1654.744     2057.514     93.74747     187.1971     374.6549      1.995     5.14     1287.675     66.02589     131.4875         8     1.233     0.736  75.79   0
        18     64.9502    978.9623 307.8971684  +6.2785455     985.9111     2405.033     2983.966     93.59855     187.1971     374.3942      2.433     6.26     1288.794     66.02589     142.1302        12     1.637     0.717  40.86   2
        19   1006.5282    975.1834 307.5053102  +6.3114745     589.7513     816.8165     521.8524     93.29999     187.2716     374.4687      1.493     4.72     1286.793     66.02589     83.79919         6     0.967     0.653  12.42   0
        20    607.8135    972.3257 307.6713994  +6.2994067     747.4479     1648.033     2468.249     93.29999      187.048     374.3569      2.432     5.09     1290.026     66.02589     105.7587         7     1.239     0.590  19.71   0
        21    328.2674    967.1375 307.7879500  +6.2922292     617.2427     1180.674     1729.309     93.89616     187.2716     374.5804      2.475     5.84     1291.399     66.02589      95.7655         6     1.438     0.668  61.43   0
        22    930.7448    960.3052 307.5373571  +6.3151032     4525.642     9669.053     10431.63     93.74747     187.3461      374.841      2.273     5.17     1285.993     66.02589      510.401        45     1.828     1.449  49.71   0
        23    368.7187    956.2994 307.7714735  +6.2980538     4303.405     12224.83     14766.14     93.89616     187.8666     374.6921      2.701     7.01     1291.197     66.02589     489.7239        62     2.121     1.846  56.83   0
        24    467.1664    956.9851 307.7304660  +6.3010544     1033.276     2612.774     2408.733     93.44939      187.048     374.4314      2.660     7.54     1290.946     66.02589     139.0356        17     1.902     0.836  17.14   0
        25    288.7844    955.4036 307.8047803  +6.2957551     3062.491     8821.917     10677.76     93.44939     186.8988     374.3942      2.696     7.09     1290.718     66.02589     394.4615        55     2.042     1.788  40.33   0
        26    618.2895    948.2084 307.6678448  +6.3097124     593.7776     1113.243     1226.352     93.44939     186.9734     374.2824      1.707     2.92     1288.842     66.02589     108.6967         5     0.827     0.626  38.68   0
        27    946.0615    946.1707 307.5314515  +6.3214471     533.6726      1278.96     1865.376     93.59855     187.3461      374.506      2.483     5.00     1285.245     66.02589     90.91626         5     1.520     0.465 -24.49   0
        28    783.1292    937.7330 307.5995675  +6.3195201     887.2236     1932.778      2809.72     93.89616     187.4205     374.5804      2.580     4.34     1286.425     66.02589     138.4293         9     0.988     0.690 -24.46   0
        29   1014.1384    934.4577 307.5034986  +6.3285410     810.3636      1605.25     2115.683     94.04461     187.2716     374.6177      2.039     4.14     1284.605     66.02589     125.2664         6     1.028     0.476 -55.27   0
        30    701.6652    932.0558 307.6336733  +6.3191554     1318.135      3308.07      3893.11     94.04461     187.2716     374.5804      2.568     8.50     1287.249     66.02589     168.7833        25     1.739     1.448 -76.23   0
        31     98.9493    928.4854 307.8847123  +6.3005220     1475.794     3682.618     4519.079     93.89616     187.2716     374.6177      2.612     9.03     1288.043     66.02589     177.5564        29     1.979     1.296  46.06   0
        32    242.9584    926.7028 307.8248212  +6.3060732     983.5439     2215.947      2976.29     93.89616     187.1971      374.841      2.329     6.60     1289.104     66.02589     138.0012        13     1.724     0.709  47.90   0
        33    116.3663    927.5561 307.8774929  +6.3014884     878.2172     2096.297     1876.582     93.44939     187.3461     374.4314      2.320     7.79     1288.065     66.02589     133.5388        13     1.667     1.019   2.09   0
        34    696.0490    921.1045 307.6363775  +6.3234900     3283.378     8665.829      10104.8     93.74747     187.1971     374.7666      2.495     6.09     1286.696     66.02589     371.9022        54     1.931     1.776  22.70   0
        35    933.5703    917.2344 307.5376168  +6.3329793     1823.279     3972.653     4150.856     93.29999      187.048     374.3569      2.219     5.97     1283.775     66.02589     191.5007        27     1.574     1.286  55.61   0
        36    379.2391    914.6605 307.7684899  +6.3155954     6488.848     19895.09     24152.84     93.89616     187.3461     374.6549      2.788     7.02     1290.141     66.02589     839.0708        73     2.189     1.944  43.00   0
        37    115.2734    915.3515 307.8783582  +6.3064904      524.002     1447.253     1651.538     93.89616     187.4205     374.6177      2.342     6.62     1287.478     66.02589      103.415         7     1.846     0.665  50.54   0
        38     69.7266    916.3965 307.8972841  +6.3045348     504.0073     1211.771     1623.491     93.29999     186.8241     374.3942      2.140     4.11     1286.743     66.02589      103.924         6     1.450     0.332  44.35   0
        39    143.6398    904.1709 307.8669250  +6.3120551     692.9025     1463.037     1954.682     93.44939      187.048     374.4314      1.774     5.18     1287.259     66.02589     118.8357         7     1.672     0.453  23.96   0
        40    127.4362    898.4338 307.8738635  +6.3138815     1231.239     2791.656     3926.247     93.59855      187.048     374.2824      2.659     6.48     1286.851     66.02589     164.5392        19     1.667     1.075  49.46   2
        41    923.7427    898.7864 307.5423237  +6.3402696     1202.395     2882.499     3383.457     93.15034     187.1971     374.2078      2.395     5.99     1283.013     66.02589     150.9402        16     1.306     1.076 -46.05   0
        42    895.0893    898.4124 307.5542661  +6.3394729     1170.185      2497.07     2353.436     93.59855      187.048     374.4687      2.113     5.43     1283.133     66.02589     169.6519        14     1.413     0.704 -81.84   0
        43    858.4460    897.8017 307.5695429  +6.3385083     1586.984     3920.991     4469.186     93.15034     186.9734     374.1333      2.470     6.73     1283.383     66.02589     191.7786        28     1.609     1.488 -85.65   0
        44    594.2593    889.6320 307.6798089  +6.3330959     139403.3     409763.8     507643.2     93.59855     187.4205     374.5432      2.790     6.59     1287.659     66.02589     15335.93       179     2.320     2.130  36.81   0
        45    438.6308    892.3799 307.7445104  +6.3267751     2982.827     9170.673     11054.65     93.29999     187.1226     374.4314      2.719     7.18     1289.156     66.02589     382.7098        56     2.033     1.864  44.67   0
        46    381.8465    890.7934 307.7682046  +6.3255358     4549.784     14779.78     19027.46     93.29999     187.1226     374.1706      2.912     6.97     1289.517     66.02589     586.0436        70     2.235     1.930  37.31   0
        47    700.2513    886.5303 307.6357835  +6.3379039     1699.037     4618.378     5492.283     93.74747     187.1971     374.5804      2.665     8.96      1284.62     66.02589     195.8931        35     1.816     1.651  24.35   0
        48    932.2084    885.2780 307.5392494  +6.3461277     3096.543     7408.726     8807.407     93.44939     186.7494     374.3942      2.533     6.42     1282.304     66.02589     336.5575        42     1.920     1.510  20.77   0
        49    675.0763    880.8011 307.6464565  +6.3394317     1528.734     4381.587     5459.463     93.00047     186.6747     374.3942      2.839     8.83     1284.824     66.02589     182.3365        32     1.883     1.553  -8.18   0
        50    864.5623    879.1976 307.5676172  +6.3463924     741.6591     1739.964     1500.893     92.85035     187.1226     374.3569      1.912     3.46     1282.344     66.02589     111.3247         5     1.233     0.280  35.72   2
        51    665.6438    878.5397 307.6504594  +6.3400515     767.6743     1668.085     3563.287     93.74747     187.3461     374.7294      4.277     5.47     1285.047     66.02589     127.4701         9     1.291     0.742 -35.08   3
        52    667.8353    874.5484 307.6496804  +6.3417723     920.2823     2236.502     3852.357     93.74747     187.3461      374.506      3.359     7.44     1284.768     66.02589      112.942        15     1.668     0.930   0.62   2
        53    950.9927    872.9269 307.5318402  +6.3518503     1774.402     4025.918     4091.935     93.44939     186.8241     374.4687      2.304     5.81      1281.36     66.02589     246.3519        27     1.567     1.278 -69.58   0
        54    410.3310    869.0384 307.7570749  +6.3354677     972.2501      3053.43     3746.348     93.74747     187.3461     374.7294      2.858    10.10     1288.697     66.02589     143.3754        23     2.071     1.374   2.82   2
        55    545.3292    861.5482 307.7011205  +6.3430606     927.9154     2231.657     3297.194     93.74747     187.3461     374.6177      2.556     7.41     1287.347     66.02589      119.662        12     1.991     0.772  19.20   3
        56    546.7850    858.3763 307.7006205  +6.3444186       1226.1     2907.019     4167.237     93.59855     187.1226     374.4687      2.776     8.61     1286.945     66.02589     152.2596        24     1.826     1.134  23.19   2
        57    592.8196    855.4129 307.6815532  +6.3471754     2525.918     7472.286     10145.56     93.59855      187.048     374.4687      2.989     7.77     1286.249     66.02589     283.6838        56     2.125     1.852   2.12   0
        58    511.9916    853.8466 307.7152584  +6.3451294     674.4463     1475.691     2054.263     93.29999     187.2716     374.1706      2.473     5.76     1286.935     66.02589       79.073         7     1.376     0.680  47.56   0
        59    928.0485    853.1635 307.5420524  +6.3592485     625.2622     1666.032     1905.928     93.74747     187.2716     374.4314      2.759     3.77     1280.722     66.02589     113.2687         5     0.806     0.506 -50.09   0
        60    563.3273    849.3516 307.6940353  +6.3486956     7660.997      23724.4      30121.4     93.89616     187.4205     374.6177      2.846     7.27     1285.921     66.02589     825.7928        87     2.221     2.067  39.90   0
        61    152.6813    852.8624 307.8648852  +6.3335397      650.112     1607.927     1987.689     94.04461     187.3461     374.5432      2.563     5.72     1285.666     66.02589     108.6555         7     1.443     0.639  32.53   0
        62    976.6722    847.2011 307.5220057  +6.3633235     2203.289      5209.09     5771.267     93.15034     186.8241     374.3942      2.396     6.29     1279.183     66.02589     268.1281        36     1.805     1.448  31.79   0
        63    355.5588    840.9985 307.7808189  +6.3452162     967.9459     1862.681     2625.849     93.15034     186.9734     374.2078      1.848     3.80     1287.508     66.02589     148.7592         6     1.228     0.338  40.36   2
        64    356.7625    837.3442 307.7804403  +6.3467651     1367.327     3089.171     4352.973     93.89616     187.4205     374.6177      2.879     8.24     1287.234     66.02589     171.8373        22     1.928     0.984  24.93   2
        65     75.6664    839.5151 307.8973970  +6.3364731      722.223     1278.018     792.7278     94.04462     187.6437     374.6549      1.741     4.01     1284.271     66.02589     135.7157         6     1.110     0.415  53.14   0
        66    821.3583    833.5640 307.5871289  +6.3637976     25816.46     69135.52     82578.69     93.59855     187.3461     374.3942      2.656     6.16     1280.006     66.02589     2780.851        98     2.138     1.959  43.15   0
        67    278.3367    810.7113 307.8139862  +6.3551415     675265.4      2498802      3374652     93.74747     187.5693     374.6177      3.140     9.96     1285.922     66.02589     63544.58       592     2.878     2.478  66.96   4
        68     56.9749    835.6051 307.9053102  +6.3374616     972.6019     2282.868     2785.753     93.29999      187.048     374.3942      2.285     6.92     1284.073     66.02589      144.359        13     2.083     0.645  35.27   0
        69    946.5938    828.6553 307.5351479  +6.3699825      4363.54     11200.26     13549.69     93.29999      187.048     374.2078      2.559     6.49     1278.802     66.02589     471.1965        54     2.018     1.675  46.81   3
        70    943.6655    820.2673 307.5366469  +6.3733484     3624.887     8923.554      10513.4     93.89616     187.3461     374.6177      2.500     5.70     1278.324     66.02589     411.2251        51     1.872     1.681  55.65   3
        71    744.5811    825.4556 307.6193674  +6.3645933     32986.93     105956.4       157605     93.29999     187.3461     374.3569      3.267     8.67     1280.114     66.02589     3954.334       173     3.583     2.064  29.84   0
        72    386.5092    827.4937 307.7683858  +6.3518246     5461.973     10028.46     11097.96     93.89616     187.9408     374.5804      2.014     7.42     1286.446     66.02589     605.6746        23     1.730     0.915  52.23   3
        73    389.2816    825.0234 307.7673143  +6.3529369     8324.683     18830.37     25195.61     93.59855     186.9734     374.4687      2.632     7.60     1286.313     66.02589     882.1359        67     2.557     1.676  38.96   3
        74      1.9817    828.4848 307.9284447  +6.3385595     1435.337     2594.226      2239.89     89.95044     159.9517     294.1407      1.867     7.70     1283.461     66.02589     219.8169        18     1.751     0.947  88.09  24
        75    450.2867    823.8183 307.7419551  +6.3554695     7724.493      25498.7     32886.66     93.59855      187.048     374.4314      2.960     7.48     1285.623     66.02589     919.0786        88     2.289     2.119  43.60   0
        76    987.0047    821.7172 307.5185530  +6.3741876     1293.412     2781.147      2860.24     93.29999     186.8988     374.2824      2.039     8.04     1277.337     66.02589      170.374        19     1.789     1.011  54.14   0
        77    684.2158    819.3586 307.6447054  +6.3651027     2516.485     7575.692     9468.746     93.29999      187.048     374.3196      2.819     7.69     1281.168     66.02589     323.7913        53     2.014     1.870  24.24   0
