#   1 NUMBER                 Running object number                                     
#   2 X_IMAGE                Object position along x                                    [pixel]
#   3 Y_IMAGE                Object position along y                                    [pixel]
#   4 ALPHA_J2000            Right ascension of barycenter (J2000)                      [deg]
#   5 DELTA_J2000            Declination of barycenter (J2000)                          [deg]
#   6 FLUX_APER              Flux vector within fixed circular aperture(s)              [count]
#   9 FLUXERR_APER           RMS error vector for aperture flux(es)                     [count]
#  12 FLUX_RADIUS            Fraction-of-light radii                                    [pixel]
#  13 FWHM_IMAGE             FWHM assuming a gaussian core                              [pixel]
#  14 BACKGROUND             Background at centroid position                            [count]
#  15 THRESHOLD              Detection threshold above background                       [count]
#  16 FLUX_MAX               Peak flux above background                                 [count]
#  17 ISOAREA_IMAGE          Isophotal area above Analysis threshold                    [pixel**2]
#  18 A_IMAGE                Profile RMS along major axis                               [pixel]
#  19 B_IMAGE                Profile RMS along minor axis                               [pixel]
#  20 THETA_IMAGE            Position angle (CCW/x)                                     [deg]
#  21 FLAGS                  Extraction flags                                          
         1    656.8674     23.0865 307.6690130  +6.6945040     11603.36     16871.83     17947.45     80.15458     159.9294     319.2881      1.553     4.03     866.9604     56.27412     1727.815        33     1.452     0.934  69.18   0
         2    418.3811     18.5473 307.7682809  +6.6883886     8650.026     12478.47     12818.72     79.51994     159.7392     319.0658      1.595     3.88     872.9308     56.27412     1167.995        32     1.507     0.927  74.84   0
         3    257.2709     19.7539 307.8351957  +6.6824821     6462.378     10652.36     12611.99     80.02805     159.6758     319.2563      1.902     4.33     882.9978     56.27412     889.1469        44     1.627     1.491 -30.47   0
         4    648.4758     18.4913 307.6726553  +6.6961203     9823.448     14098.37     15445.16     80.02805     159.9294     319.2563      1.589     3.92     866.8051     56.27412     1363.959        33     1.472     0.924  66.25   0
         5    678.1579     17.6438 307.6603478  +6.6974632     8282.775        12497     13482.49      79.7744     159.6758     319.0976      1.608     4.08     866.6104     56.27412     1186.166        28     1.503     0.918  67.42   3
         6    681.7241     15.1241 307.6589505  +6.6986227     14127.52     20885.79     21964.36     80.28091     159.9294     319.3515      1.573     4.02      866.359     56.27412     2076.414        36     1.504     0.940  68.48   3
         7    733.8631     17.2531 307.6372093  +6.6994874     1963.423     3026.412     3319.062     80.02805     159.6123     319.2246      1.631     3.43     864.5394     56.27412     333.8952        17     1.290     0.787  75.98   0
         8    160.0833     17.2091 307.8756710  +6.6802657     688.2709     1031.983     946.0239     79.64726     159.3581     319.0976      1.655     5.34     882.8398     56.27412     117.2495         9     1.412     0.571  69.24   0
         9    657.9091     14.4346 307.6688714  +6.6981107     3391.305     4987.742     5926.892     80.15458     159.5488     319.2563      1.669     4.05     866.6705     56.27412     484.6287        22     1.373     0.851  71.43   0
        10    197.1380     14.5647 307.8603613  +6.6826034     1048.656     1900.481     2069.949     80.02805     159.6758     319.2246      1.959     5.14     882.7596     56.27412     143.5145        14     1.239     1.113 -31.93   0
        11     64.7195     11.4954 307.9154952  +6.6794156     3569.259     5003.871     4431.915      79.7744     159.9294     319.3515      1.524     3.88     885.5121     56.27412     500.0054        21     1.393     0.817  72.18   0
        12    947.1227     11.2999 307.5487752  +6.7090668     919.3423     1225.398     1092.393      79.7744     159.8026     319.2881      1.485     4.13     860.8018     56.27412     125.7217         9     1.069     0.577  62.95   0
        13    155.4338      8.9654 307.8778822  +6.6835125     5378.231     8152.752     8602.552      79.7744     159.4217     319.0023      1.623     4.33     882.7888     56.27412     739.4976        32     1.532     0.958  74.32  16
        14    782.7184      7.3391 307.6172379  +6.7052132     1306.872     2029.513     1942.213     80.15458     159.6758     314.0076      1.631     4.95     864.1337     56.27412     177.2147        16     1.389     0.851  73.40  16
        15     86.5345      7.7656 307.9065558  +6.6816897     576.6156     885.7324     947.3438     79.90133     159.6758     316.5788      1.522     3.49     884.7979     56.27412      101.627         5     0.760     0.463  71.94   0
        16    889.6451      5.3511 307.5728639  +6.7096049     2009.124     2909.455     2881.872     80.02805     159.5488     296.1366      1.522     3.78     862.6036     56.27412     313.6479        17     1.379     0.707  60.99  16
        17    635.7376      4.6547 307.6784154  +6.7014063     1272.605     1887.048     1629.799     80.15458     159.6123     288.3344      1.533     3.89     866.3932     56.27412     219.6028        11     1.188     0.597  73.35  16
        18    226.6966      4.7773 307.8484082  +6.6876374     1001.276     1551.914     1756.356     80.02805     159.4217     289.4569      1.636     4.43     882.5217     56.27412     167.9633        10     1.238     0.553  78.38  16
        19    974.9709      2.5272 307.5374953  +6.7136173     966.4225     1366.277     1618.523     79.90132     143.4979     259.2032      1.511     4.88     857.7546     56.27412     166.0167         9     1.343     0.503  72.32  24
        20    841.9081      3.0451 307.5927819  +6.7089632      872.198     1327.175     1154.175     80.02805     149.4478     267.0976      1.757     5.04     863.1925     56.27412     143.1028         9     1.242     0.579  63.70  24
        21    741.9303      2.6663 307.6343472  +6.7057791     1580.326     2094.799     2370.352     80.02805     145.2527     261.4222      1.448     3.98     863.6478     56.27412     243.3449        12     1.162     0.665  73.28  24
        22    788.7053    982.2982 307.5819919  +6.3028994     1334.282     2019.451     2730.644     80.02805     160.2459     319.0976      1.798     4.51      896.315     56.27412     169.9381        15     1.327     0.774  74.86   0
        23   1010.9662   1019.3762 307.4884462  +6.2950053     4494.536     7820.874      8421.76     79.51994     159.4853     298.8956      1.880     4.53     890.1511     56.27412     538.2765        37     1.720     1.151  73.95  24
        24    915.4266   1022.7537 307.5280090  +6.2904261     7623.471     9794.346     9869.499     78.75161     140.1395      254.946      1.428     3.50     897.0593     56.27412     930.6708        25     1.246     0.967  33.39  24
        25    889.1590   1019.7551 307.5390180  +6.2907879     11622.62     19458.76      20760.1     79.90133     159.6758     294.9365      1.804     4.28       896.62     56.27412     1375.339        49     1.639     1.232  67.71  24
        26    546.7795   1022.4742 307.6811080  +6.2782246     8634.112     11289.63     11507.94     79.64727     143.2859     259.1642      1.465     4.14     901.8945     56.27412     1158.128        24     1.251     0.942  52.32  24
        27    649.7148    981.7015 307.6397329  +6.2985013     4702.009     7200.499     7176.583     80.02805     160.1194     319.3198      1.648     4.55     900.0962     56.27412     612.1592        28     1.516     0.926  73.34   0
        28    261.9709    981.8518 307.8007480  +6.2854490     4505.405     7061.174      7510.17      79.7744     159.8026     319.1611      1.649     4.42     903.3873     56.27412     615.6839        27     1.477     0.977  74.75   0
        29    998.8674    980.7323 307.4947653  +6.3105566     639.5211     1195.756     1868.384     80.02805     159.7392     319.2881      1.942     3.73     890.9437     56.27412     106.9349         6     0.759     0.625 -79.49   0
        30    471.9496    979.8291 307.7136184  +6.2933249     1246.748     1921.957     1826.365     79.64727     159.8026     319.1611      1.508     4.77     902.5489     56.27412     176.4686        13     1.275     0.701  60.17   0
        31     30.6272    979.0127 307.8969108  +6.2788471     2167.613     3278.207     3487.129     79.64726     159.4853     319.1928      1.572     3.66     903.4346     56.27412     303.0791        17     1.285     0.808  65.41   0
        32    881.2966    977.8202 307.5436897  +6.3078387     844.0847     1473.384     1542.379     79.90133     159.4853     319.0658      1.858     5.46     895.3235     56.27412     125.3777         9     1.052     0.799   0.35   0
        33    297.7782    975.0877 307.7861067  +6.2894432     945.5242     1517.365     1704.297     80.02805     159.4853     319.1293      1.658     5.89     903.4938     56.27412     164.3037        12     1.342     0.728  76.26   0
        34    953.0071    975.2962 307.5139932  +6.3112723     872.9101     1355.427     1329.562      79.7744     159.2945     319.0341      1.517     3.30     893.4178     56.27412     151.3273        11     1.094     0.797  84.87   0
        35    574.2960    973.9603 307.6713135  +6.2991744     1685.411      2601.31      2328.98     80.02805     159.5488     319.3833      1.607     4.64     901.1413     56.27412     232.9078        15     1.397     0.715  80.48   0
        36   1005.7756    972.5806 307.4921694  +6.3141522     766.9247     1448.196     1836.039      79.7744     159.4853     319.1928      2.351     6.43     890.5262     56.27412     109.4987        10     1.359     0.855  87.93   0
        37    613.6586    970.5684 307.6550809  +6.3018917     1352.731     2000.174     1950.013      79.7744     159.6758     319.1928      1.643     4.78     900.2898     56.27412      194.253        14     1.158     0.814  69.65   0
        38     63.6226    970.9360 307.8834826  +6.2832912     807.9648     1172.426     1325.585     79.64726     159.6758     319.1293      1.476     5.05     903.1321     56.27412     144.9355         8     1.141     0.632 -82.32   0
        39    293.4624    968.0030 307.7881379  +6.2922232     1560.241     2314.225     2024.513      79.3924     159.4217     319.0023      1.535     5.46     903.5878     56.27412      234.879        12     1.245     0.674  78.00   0
        40    561.2304    966.3496 307.6769955  +6.3018793     565.9546       1095.3     1161.458     79.64727     159.8026     319.1611      1.791     5.47      901.425     56.27412     107.4394         7     1.408     0.599  71.77   0
        41    760.3581    964.3515 307.5943669  +6.3093621     958.1055     1358.731     1199.879     80.02805     159.6123     319.1928      1.641     4.34     897.1078     56.27412     173.4253        11     1.191     0.686  66.17   0
        42    897.9246    960.8853 307.5373521  +6.3153851     7072.754      10874.2     10581.68     80.15458     159.9928     319.3198      1.629     4.01     894.5375     56.27412     927.4771        29     1.517     0.956  72.47   0
        43    135.8179    961.7274 307.8538142  +6.2895200     603.5972     849.2127     519.4252     79.51994     159.6123     319.1928      1.328     3.70      903.163     56.27412      100.835         5     0.897     0.440  47.32   0
        44    433.8828    958.0663 307.7301598  +6.3010342     2183.914     3391.194     3559.096     80.28091     159.9294     319.3198      1.569     4.45     902.9091     56.27412     276.8079        20     1.535     0.785  64.60   0
        45    335.5612    956.3437 307.7710487  +6.2984491     10037.68     15137.96     15967.27     80.02805     159.7392     319.2246      1.662     4.18     903.4273     56.27412     1355.712        37     1.527     1.011  77.93   0
        46    602.1686    957.6329 307.6602876  +6.3068478     513.9591     799.8443     863.4832     79.51994     159.4217     319.0023      1.310     3.61     900.4894     56.27412     91.01343         5     1.192     0.314  79.79   0
        47    255.5626    955.3845 307.8043024  +6.2961606      7339.95     10977.61     11582.54      79.7744     159.4853     319.0023      1.652     4.21      903.629     56.27412     1002.755        32     1.491     0.985  68.65   0
        48    583.6562    949.9027 307.6682357  +6.3094198     1102.702     1767.874     2019.876     79.90133     159.6758     319.4785      1.716     5.57     900.8842     56.27412     175.1309        13     1.396     0.703  69.17   0
        49    768.0364    949.2032 307.5916868  +6.3158726     771.5224     1236.264     1173.241      79.1367     159.4853     319.0341      1.683     5.07      896.515     56.27412     99.85773        10     0.928     0.785 -88.23   0
        50    913.6664    946.1940 307.5313071  +6.3219756     1020.075     1795.563     1576.935     79.51994     159.4217     319.0658      1.906     5.97     893.5811     56.27412     131.6844        12     1.378     0.729 -88.79   0
        51    870.0454    945.1744 307.5494574  +6.3209413     942.8647     1709.587     1808.728     79.51994     159.7392     319.1293      2.091     5.94     894.6586     56.27412     139.8495        15     1.342     0.954  76.00   0
        52    217.9837    945.7717 307.8202324  +6.2988675     585.9094     1037.518     893.9871     79.64727     159.4217     319.1611      1.521     3.89     903.5329     56.27412     101.0389         5     1.273     0.340  65.44   0
        53    412.0298    944.4852 307.7396926  +6.3059088     687.3613     1224.605     934.1439     80.02805     159.4853     319.1293      1.500     3.58     903.0513     56.27412      136.993         6     1.122     0.330  51.64   0
        54    981.4365    941.9578 307.5033036  +6.3259840     724.6978     1303.694     1280.259      79.7744     159.6758     319.1293      1.718     4.49     891.3079     56.27412     132.7551         8     1.167     0.492  86.52   1
        55    573.7448    939.3528 307.6727068  +6.3134437     783.7665     1037.261     933.3475     80.02805     159.6758     319.3198      1.556     5.30     901.0881     56.27412     150.7244         8     1.338     0.594 -82.62   0
        56    750.0748    938.9778 307.5994897  +6.3194942     1770.803      2446.93     3033.701     79.64727     159.5488     319.1928      1.504     4.07     896.5714     56.27412     247.4006        15     1.281     0.738  64.84   0
        57    981.5114    934.8428 307.5035109  +6.3289240     1263.466     2155.634     2599.882     80.02805     159.5488     319.2881      1.948     6.27     891.1564     56.27412     154.7649        19     1.614     0.823  65.39   0
        58    625.8415    936.4257 307.6511697  +6.3163951     607.2984      1009.88     946.4554     79.64727     159.6123     319.0341      1.560     3.47     900.0364     56.27412     114.9139         5     0.975     0.357  85.28   0
        59      1.4463    936.1461 307.9104786  +6.2955620     730.7771      880.779     957.4329     71.18176      128.837     242.2691      1.270     3.67     901.4608     56.27412     141.8282         9     1.087     0.620  83.52  24
        60    614.2353    935.4268 307.6560233  +6.3164193     882.4944     1384.516     1226.833     79.51994     159.3581     319.0341      1.885     5.11     900.2442     56.27412     170.8886         9     1.259     0.587  71.39   0
        61    535.0995    934.9427 307.6889044  +6.3139709     1338.967      1886.84     2189.638      79.7744     159.6758     319.4785      1.453     4.28     901.8106     56.27412     204.2413        12     1.268     0.621  72.62   0
        62    668.6362    932.3574 307.6335338  +6.3195058     2658.568     3915.069      4164.19      79.7744     159.6758     319.1293      1.607     3.90     899.2267     56.27412     374.1963        21     1.376     0.911  78.89   0
        63    959.0231    930.1224 307.5130088  +6.3301232     698.8966     1308.661      1827.43     79.64727     159.4853     319.1928      2.269     5.83     891.6336     56.27412      90.7663         9     1.403     0.682  67.79   0
        64    566.2544    929.1032 307.6761624  +6.3174245     544.9774      944.486     722.6587     79.90133     159.6758     319.4785      1.593     4.32     901.2421     56.27412     82.79443         7     1.245     0.428  85.94   0
        65    208.7864    927.4415 307.8246708  +6.3061260      2297.59     3492.356     3549.162      79.3924     159.4853     319.0023      1.607     4.63     903.5817     56.27412     311.3782        18     1.493     0.749  77.33   0
        66     65.1893    928.4229 307.8842696  +6.3008948     2965.723     4561.764     4913.438     79.64727     159.4853     319.1293      1.679     4.21     902.2914     56.27412      400.894        24     1.467     0.919  81.57   0
        67    946.9136    927.9694 307.5181102  +6.3306084     835.5541     1315.791     819.4273     80.15458     159.4217     319.1611      1.646     4.98     891.8553     56.27412     109.2603         9     1.169     0.601  76.52   0
        68    829.5792    928.4467 307.5668246  +6.3264970     752.4787     1213.081      1669.32     79.64727     159.6758     319.0976      2.053     5.32     895.1509     56.27412     97.32678         9     1.268     0.630  75.18   0
        69     82.5966    927.7069 307.8770651  +6.3017758     2200.528     3295.306     3683.642     79.64727     159.3581     318.9705      1.703     4.74     902.6215     56.27412     299.1388        20     1.442     0.923  66.19   0
        70    965.7521    925.5254 307.5103682  +6.3322455     577.2402     817.9634     1488.114     79.90133     159.7392     319.2563      1.557     4.42     891.3171     56.27412      92.2218         5     1.160     0.480 -58.78   0
        71    242.5597    923.7324 307.8107706  +6.3087914     928.1218     1473.301     1218.308     79.90133     159.6123     319.3198      1.896     4.77     903.8214     56.27412     153.8729         9     1.346     0.479  63.99   0
        72    801.0297    922.7252 307.5788736  +6.3279060     761.7952      1272.71     925.5928     79.90133     159.6758     319.2563      1.662     5.35     895.6271     56.27412     104.1686         9     1.328     0.608  79.05   0
        73    663.2500    921.5295 307.6361347  +6.3237960     7419.208     10916.24      11286.1     80.02805     159.6123     319.2881      1.617     4.14     899.0086     56.27412      1011.54        28     1.473     0.888  73.29   0
        74    347.6370    923.3074 307.7671480  +6.3124929     1018.158     1536.459     2072.876     80.15458     159.5488     319.3198      1.836     4.74     903.3417     56.27412     169.8812        11     1.223     0.625  75.45   0
        75    900.9990    917.6824 307.5375242  +6.3333243     2874.434     4511.756      4405.22     79.26465     159.2309     318.9705      1.635     4.19     892.9439     56.27412     375.1121        24     1.506     0.938  67.42   0
        76     36.3013    918.4404 307.8966035  +6.3040443     1201.399     1996.849     1831.372     80.02805     159.5488     319.4785      1.616     4.85     901.7026     56.27412     176.8466        13     1.438     0.611  80.34   0
        77     23.2474    919.4452 307.9019904  +6.3031902     1279.789     1889.504     1783.843     80.02805     159.5488     319.2881      1.460     3.90     901.4866     56.27412     201.3798        11     1.160     0.655  63.91   0
