#   1 NUMBER                 Running object number                                     
#   2 X_IMAGE                Object position along x                                    [pixel]
#   3 Y_IMAGE                Object position along y                                    [pixel]
#   4 ALPHA_J2000            Right ascension of barycenter (J2000)                      [deg]
#   5 DELTA_J2000            Declination of barycenter (J2000)                          [deg]
#   6 FLUX_APER              Flux vector within fixed circular aperture(s)              [count]
#   9 FLUXERR_APER           RMS error vector for aperture flux(es)                     [count]
#  12 FLUX_RADIUS            Fraction-of-light radii                                    [pixel]
#  13 FWHM_IMAGE             FWHM assuming a gaussian core                              [pixel]
#  14 BACKGROUND             Background at centroid position                            [count]
#  15 THRESHOLD              Detection threshold above background                       [count]
#  16 FLUX_MAX               Peak flux above background                                 [count]
#  17 ISOAREA_IMAGE          Isophotal area above Analysis threshold                    [pixel**2]
#  18 A_IMAGE                Profile RMS along major axis                               [pixel]
#  19 B_IMAGE                Profile RMS along minor axis                               [pixel]
#  20 THETA_IMAGE            Position angle (CCW/x)                                     [deg]
#  21 FLAGS                  Extraction flags                                          
         1    118.0020     24.7509 307.8649736  +6.6682748     6970.888     14903.79     17210.29     83.50801     167.5522     335.3719      2.287     6.24     997.6942     59.19131     775.0119        53     2.183     1.228 -31.51   0
         2    647.7841     15.1214 307.6451337  +6.6899784     4734.496      9712.45     10513.91     83.77609      167.686     335.6393      2.197     6.16     982.0175     59.19131     558.1556        44     2.206     1.087 -30.87   0
         3    567.9713     14.4793 307.6783247  +6.6875793     2430.091     4997.141     5615.934     84.04332     167.8864     335.7729      2.180     6.29     983.6277     59.19131     261.4159        34     1.984     1.082 -29.02   0
         4    368.1375     10.6488 307.7615013  +6.6824808      3975.63     8596.418     9645.234     84.04333     167.8864      335.873      2.288     6.24     994.2625     59.19131     453.1143        42     2.114     1.152 -28.99  16
         5    614.7183     10.0284 307.6590468  +6.6909784     785.0962     1269.053     830.7192     84.04333     167.7528     335.7394      1.648     5.28      983.224     59.19131     123.3748         9     1.354     0.582 -15.46   0
         6     38.3681      5.7891 307.8987072  +6.6734330     1781.959     3710.038     4197.883     83.64216      167.686     316.3098      2.365     6.60     999.2585     59.19131     228.9177        29     1.962     1.104 -41.19  16
         7    443.2908      8.2709 307.7303492  +6.6859769     645.1719     1413.226      1564.68     84.04333     168.1533     335.3385      1.951     5.26     985.8431     59.19131     82.68982         7     1.456     0.536 -31.58  16
         8    264.7006      5.6420 307.8046561  +6.6810852     8330.883     17920.88     20757.06     84.17662     167.8196     315.1736      2.334     6.31     999.2616     59.19131     920.0371        59     2.222     1.296 -30.72  16
         9     29.8477      5.1494 307.9022696  +6.6734111     1047.438     2256.749     2422.586     84.17662     167.8196     309.1759      2.269     6.49     999.5284     59.19131     147.7224        16     1.816     0.652 -32.03  16
        10    732.0255      5.1794 307.6104576  +6.6968943     456.3982     946.8582     1286.314     83.77609     167.7528     309.5021      2.533     3.37     978.8417     59.19131     93.60706         5     1.511     0.217 -26.73  16
        11    330.6560      3.7804 307.7773094  +6.6840629      1489.74     2955.606     2909.489     83.64216     164.1724     291.2886      2.098     6.95     997.6107     59.19131     183.9314        22     1.799     0.961 -36.54  24
        12    589.7602      1.3055 307.6697127  +6.6937478     2305.416      3091.02     3477.934     72.89909     132.9263     252.2633      1.302     3.54     983.4661     59.19131     539.8682        12     1.383     0.444  -5.43  24
        13    358.7752   1005.9174 307.7318599  +6.2711037     853.0765     1407.506     1587.328     84.04332      167.686     335.8062      1.968     4.54     1015.507     59.19131      135.715        10     1.272     0.519 -25.57   0
        14    895.7516   1020.8928 307.5083744  +6.2828280     5493.928     10469.29     11277.33     84.04333     166.2085     296.0607      2.037     6.44      1008.83     59.19131     711.9225        36     2.066     0.905 -29.66  24
        15    206.7590   1002.6058 307.7950949  +6.2673841     605.4902     1390.761     748.6481     83.37365     167.6191     335.5056      2.129     5.47     1017.112     59.19131      105.587         9     1.646     0.512 -24.95   0
        16    850.4046    999.4105 307.5279250  +6.2901921     7049.604     13289.36     14784.98     83.64216      167.686     335.7061      2.022     6.43     1009.774     59.19131     959.6178        42     2.057     0.972 -30.92   0
        17    481.6878    998.7362 307.6810620  +6.2781775     6328.011     12067.09     13553.18     84.17662     168.1533     335.8062      2.043     6.33     1015.447     59.19131     820.8386        42     2.128     0.945 -33.37   0
        18    945.6321    995.2203 307.4885200  +6.2950905     4016.981     7476.342     8380.229     83.64216     167.7528     335.6393      2.034     6.57     1005.853     59.19131      542.006        37     2.072     0.959 -34.64   0
        19    823.9567    995.5643 307.5390369  +6.2909004      9739.57     18756.94     20626.54     83.90981     167.8864     335.6058      2.051     6.57     1009.945     59.19131       1412.8        52     2.190     1.013 -28.86   0
        20    537.0289    995.8424 307.6581785  +6.2812206     1205.006     2122.273      1740.23     83.77609     167.8864     335.6727      1.844     6.75     1015.427     59.19131     182.0602        18     1.770     0.723 -33.21   0
        21    468.4114    994.7149 307.6867103  +6.2793949     3371.594     6545.661     7762.202     83.77609      167.686     335.6393      2.211     6.19     1015.412     59.19131     469.2031        38     2.121     1.108 -15.49   0
        22    577.4608    993.9648 307.6414519  +6.2833456     1195.744     2129.276      2280.29     84.17662     167.9532     335.7729      1.952     6.66     1014.321     59.19131     191.8186        16     1.835     0.678 -28.82   0
        23    421.2509    991.1332 307.7064144  +6.2792985     1665.165     3174.654     3668.566     84.04333     167.8196     335.8062      2.060     7.02     1015.534     59.19131     205.5286        20     1.792     0.771 -38.64   0
        24      3.3050    992.9115 307.8799029  +6.2645674     736.8955     1390.751     969.2514     84.17662     160.2325      284.749      1.748     5.92     1015.485     59.19131     128.1633         9     1.717     0.574 -13.99  24
        25    855.7445    983.1337 307.5262528  +6.2970927     35440.21     65934.45     72606.55     84.30971     167.8196     335.8062      2.007     6.47     1008.988     59.19131     4463.039        73     2.158     1.041 -30.55   0
        26    163.1974    981.4819 307.8138958  +6.2746494     1330.647     2406.279     2298.477     83.50801     167.5522     335.4722      2.015     6.89     1016.644     59.19131     169.9523        18     1.636     0.813 -30.36   0
        27    562.0722    979.6901 307.6483217  +6.2887278     743.4846      1457.98     1270.303     84.17662       168.22     335.8062      1.857     5.03     1014.427     59.19131     124.5318        10     1.597     0.448 -28.86   0
        28    753.6296    976.8281 307.5688699  +6.2962971     1817.809     3295.906     3430.229     83.64216      167.686     335.5724      1.871     7.10     1009.985     59.19131     250.7842        21     1.863     0.758 -27.79   0
        29    701.9080    974.7770 307.5904173  +6.2954209     5136.563     9843.714     11327.43     84.17662     167.7528     335.6393      2.080     6.48     1010.731     59.19131     768.9089        37     2.074     0.970 -30.65   0
        30    488.6605    974.2960 307.6789883  +6.2885048     739.1502     1374.989     1096.388     83.90982     167.9532     335.9064      2.001     6.27     1014.988     59.19131     112.9946        10     2.121     0.521 -28.54   0
        31    171.5376    973.9647 307.8106861  +6.2780335     1180.072     2123.816     2070.056     84.04332     167.9532     335.7729      1.817     6.70     1016.637     59.19131     174.7469        15     1.701     0.753 -32.09   0
        32    135.4823    973.9601 307.8256581  +6.2768273     591.4431     1016.386     1282.006     84.17662     168.0199     335.7394      1.880     4.62     1016.127     59.19131     80.37939         7     1.504     0.403 -26.13   0
        33    890.1476    969.8912 307.5124095  +6.3037069     5581.499     10220.14     11055.35     84.04332     167.7528     336.0065      1.948     6.34     1007.203     59.19131      754.986        33     1.994     0.839 -29.93   0
        34    863.7994    961.5925 307.5236293  +6.3062578     1653.834     3096.103     3373.594     83.50801     167.6191     335.6058      2.057     6.20     1007.809     59.19131     238.1177        19     1.747     0.729 -37.39   0
        35    196.7756    957.7607 307.8007526  +6.2855715     3173.928     6328.668     6712.927     83.77609     167.7528     335.5724      2.061     6.44      1016.66     59.19131     431.2125        30     1.925     0.963 -29.59   0
        36    723.6052    957.7702 307.5819775  +6.3031682      961.855     1945.582      2591.88     83.64216     167.7528     335.6058      2.412     6.88     1009.928     59.19131     164.1663        15     2.071     0.641 -33.86   0
        37    584.5840    957.5280 307.6397178  +6.2986326     3380.691     6359.858     6477.975     83.64216     167.8864     335.7061      1.976     6.14     1013.154     59.19131     448.2173        31     2.053     0.853 -31.44   0
        38    404.4106    957.2273 307.7145484  +6.2927395     531.3652     727.0508     740.9712     83.77609     167.7528     335.6727      1.558     4.64     1015.575     59.19131     91.33008         6     1.016     0.601 -25.89   2
        39    407.7354    955.4506 307.7132275  +6.2935844     724.3422     945.1929     955.6341     84.17662     167.8864     335.8396      1.550     3.50     1015.568     59.19131     117.1891         5     0.798     0.445 -19.72   3
        40    816.2477    954.0134 307.5436307  +6.3078056     696.4297     1179.735     1079.791     83.50801     167.8196      335.539      1.689     5.10     1008.967     59.19131     98.65656         9     1.358     0.541 -16.27   0
        41    908.7719    951.6219 307.5052868  +6.3118722     554.6034     641.6653     166.9086     83.64216     167.7528     335.7061      1.431     4.54     1005.904     59.19131     68.31158         5     1.154     0.507 -58.84   0
        42    888.6385    950.9631 307.5136700  +6.3114746     863.1779     1370.261     1247.577     83.90981     167.8196     335.6727      1.651     4.95     1006.491     59.19131     124.7492         9     1.447     0.479 -25.16   0
        43    509.1882    950.1347 307.6712761  +6.2991695     1241.701     2312.996     2268.936     83.64216     167.7528     335.6727      1.932     7.21     1014.372     59.19131     155.6055        20     1.951     0.746 -29.23   0
        44    233.0218    950.9362 307.7859313  +6.2896039      734.588     1266.261     1978.954     83.77609     167.9532     335.6727      2.041     5.07     1016.761     59.19131     103.1472         8     1.463     0.497 -24.73   0
        45    940.5464    949.9072 307.4921487  +6.3136371     750.3608     1472.721     2268.879     84.04332     167.8864     336.0065      2.628     6.48     1005.046     59.19131     108.6666        12     1.387     0.851 -25.36   0
        46   1020.3350    945.5252 307.4591598  +6.3180990     4862.583     9178.744      9644.93     84.30971     167.9532     303.3184      1.975     6.91     1003.784     59.19131     627.0466        35     2.073     0.846 -30.55  24
        47    548.4643    946.5649 307.6550857  +6.3019552     930.3681      1734.44     1589.406     84.04333     167.9532     335.8396      1.971     5.21     1013.901     59.19131      138.756        10     1.260     0.609 -27.02   0
        48    228.3083    944.1699 307.7881167  +6.2922407     1061.054     2080.348     2427.902     84.30971      167.686     335.7729      1.861     6.18     1016.724     59.19131     164.2595        13     1.906     0.564 -39.74   0
        49    695.2582    940.3968 307.5943323  +6.3093992     690.4735     1353.734     1859.931     83.50801     167.8196      335.539      1.960     4.87     1010.064     59.19131      113.946         9     1.591     0.423 -37.46   0
        50    832.7927    936.7020 307.5373399  +6.3155065     5407.338     10147.99     10814.15     83.90981     167.5522     335.6058      1.997     6.45      1007.84     59.19131     769.1454        32     2.051     0.816 -30.36   0
        51    368.7180    934.0244 307.7301513  +6.3011294     1605.953      3104.91     3450.277     83.90981      167.686     335.7394      2.125     6.45     1015.708     59.19131     206.5251        22     1.848     0.886 -27.76   0
        52    270.4060    932.3038 307.7710351  +6.2985510     7328.296     14026.95     14923.02     83.90982     167.6191     335.6058      2.016     5.87     1016.509     59.19131     847.7372        44     2.085     1.007 -31.80   0
        53    190.4868    931.2443 307.8042583  +6.2963125     5485.141     10658.74     11729.86     84.17662     167.8196     335.8062      2.101     5.99     1016.373     59.19131     667.7966        40     2.060     1.016 -32.09   0
        54    518.6630    925.8628 307.6681574  +6.3095107     906.0175     1900.954     2515.203     84.17662     167.9532     335.8396      2.215     7.61     1013.739     59.19131     134.0824        16     1.823     0.889 -22.97   0
        55    702.6970    925.4008 307.5917463  +6.3158410     667.1982     1262.619       1610.6     83.64216     167.5522     335.4388      2.145     6.56     1009.633     59.19131     89.63287        10     1.827     0.661 -26.99   0
        56    848.4887    921.8738 307.5313184  +6.3221534     912.8429     1435.047     1701.683     84.17662       168.22      335.873      1.956     6.16      1006.73     59.19131      143.585        13     1.673     0.637 -33.72   0
        57    803.8459    921.0711 307.5498852  +6.3209988     637.9246     1382.152      1761.06     84.17662     167.9532     335.8062      2.351     6.14     1008.468     59.19131     137.5885         8     1.765     0.601 -24.66   0
        58    346.4273    920.5911 307.7398603  +6.3059322     517.7917     880.6385     798.9056      83.7761     167.7528     335.6727      1.741     4.13     1015.861     59.19131     87.95728         5     1.004     0.486  -4.93   0
        59    153.0225    921.0000 307.8201613  +6.2992883     509.0295     794.5574     1069.219     83.64216     167.5522     335.5056      1.430     3.81     1016.066     59.19131      63.7951         5     1.445     0.289   0.00   0
        60    916.7202    916.7879 307.5031523  +6.3265241     606.4377     1157.805     2213.255     83.77609     167.6191     335.6393      3.226     5.77      1004.87     59.19131     92.99438         8     1.176     0.798  35.95   0
        61    684.6413    915.1249 307.5995895  +6.3194833     1325.834     2458.922     2767.327     84.04333     167.9532     335.8396      1.971     6.71     1009.746     59.19131     180.8707        18     1.919     0.658 -32.12   0
        62    549.2327    911.3919 307.6559487  +6.3165082     651.3491     1118.062     1029.626     83.64216     167.8196     335.6058      1.741     4.61     1013.119     59.19131     100.6674         7     1.400     0.431 -31.19   0
        63    916.0434    910.5655 307.5036417  +6.3290717     877.9708     1723.105     2783.312     83.90981     167.9532     335.6393      2.463     5.30     1004.816     59.19131     143.5045        11     1.537     0.516 -30.03   0
        64    471.5552    909.7247 307.6882630  +6.3146028     580.5671     1472.892       2067.4     84.04333     168.0199     335.8396      3.385     5.51     1014.188     59.19131     152.1814         8     1.368     0.642 -54.48   2
        65    603.3273    908.3051 307.6335875  +6.3195884     1832.994     3452.129     3603.065     84.04333     168.0866     335.8062      1.978     6.31     1011.324     59.19131     254.2209        23     1.984     0.733 -30.74   0
        66   1005.4288    906.3882 307.4666594  +6.3337686     752.2354     1332.093     787.5775     83.64216     167.7528     335.6727      1.781     6.17     1002.956     59.19131     129.3899        12     1.531     0.699 -20.79   0
        67     17.6702    903.7155 307.8769512  +6.3018882     1464.828     2828.648     3097.965     84.30971       168.22     335.8396      2.101     7.07     1015.128     59.19131     189.2882        19     1.859     0.753 -28.61   0
        68    881.8781    903.5663 307.5180651  +6.3308261     608.6009     1059.292     541.0694     84.04333     167.9532     335.7729      1.998     4.67     1005.436     59.19131     132.5654         8     1.845     0.335 -24.46   0
        69    765.3223    904.2993 307.5664462  +6.3266431     587.3909     987.6183     907.2922     83.77609     168.1533     335.8396      1.220     3.44      1008.44     59.19131     109.6718         5     1.178     0.290 -35.81   0
        70    143.7324    903.3948 307.8246131  +6.3062481     1685.096     3182.024     3030.877     83.64216     167.6191     335.6058      1.989     7.03     1016.005     59.19131      219.304        21     1.714     0.808 -29.57   0
        71      1.8068    903.8049 307.8835356  +6.3013189     1478.057     1938.775      1886.55     78.66879     140.8703     260.7859      1.299     2.65     1015.029     59.19131     267.6727        10     0.883     0.692 -77.18  24
        72    177.7622    900.0302 307.8105951  +6.3087781     655.6758     1240.392     1540.593     83.77609      167.686     335.6727      2.401     6.11     1016.267     59.19131     116.3079        11     1.879     0.559 -30.76   0
        73    283.9149    898.8489 307.7665525  +6.3128206     614.9095     1414.199     2143.262     84.17662     167.9532      335.873      2.768     4.70     1016.528     59.19131       92.323         5     1.047     0.694 -23.94   2
        74    597.9759    897.3954 307.6361763  +6.3239158     5241.523     10149.45     11168.42     83.64216      167.686     335.6393      2.067     6.40      1011.17     59.19131     728.3157        37     2.095     0.916 -30.36   0
        75    835.5864    893.7460 307.5376192  +6.3333416     2237.422     4256.985     4428.696     83.50801     167.8864      335.539      2.047     5.86     1006.349     59.19131      336.186        26     1.917     0.863 -29.82   0
        76    281.0825    890.5718 307.7680077  +6.3161444     11925.39     23314.45     26572.08     84.04332     167.7528     335.7394      2.115     6.10     1016.551     59.19131     1462.286        56     2.159     1.090 -29.04   0
        77     16.1203    891.3864 307.8780114  +6.3069282     1042.178     1785.349     2044.221     83.77609      167.686     335.6059      1.829     6.38     1015.098     59.19131     122.1255        15     1.407     0.812 -21.18   0
