#   1 NUMBER                 Running object number                                     
#   2 X_IMAGE                Object position along x                                    [pixel]
#   3 Y_IMAGE                Object position along y                                    [pixel]
#   4 ALPHA_J2000            Right ascension of barycenter (J2000)                      [deg]
#   5 DELTA_J2000            Declination of barycenter (J2000)                          [deg]
#   6 FLUX_APER              Flux vector within fixed circular aperture(s)              [count]
#   9 FLUXERR_APER           RMS error vector for aperture flux(es)                     [count]
#  12 FLUX_RADIUS            Fraction-of-light radii                                    [pixel]
#  13 FWHM_IMAGE             FWHM assuming a gaussian core                              [pixel]
#  14 BACKGROUND             Background at centroid position                            [count]
#  15 THRESHOLD              Detection threshold above background                       [count]
#  16 FLUX_MAX               Peak flux above background                                 [count]
#  17 ISOAREA_IMAGE          Isophotal area above Analysis threshold                    [pixel**2]
#  18 A_IMAGE                Profile RMS along major axis                               [pixel]
#  19 B_IMAGE                Profile RMS along minor axis                               [pixel]
#  20 THETA_IMAGE            Position angle (CCW/x)                                     [deg]
#  21 FLAGS                  Extraction flags                                          
         1    645.3878     17.0911 307.6696294  +6.6972657     1280.045     3814.079     6051.651     91.73231     183.3185     366.8927      3.489    10.65     1177.535     64.70941     155.3422        34     1.879     1.688  12.95   3
         2    645.0238     25.7689 307.6694867  +6.6936764     4563.562     13538.94     18054.78      91.4397     183.4646     366.8927      2.926     7.39     1177.849     64.70941     497.1816        74     2.355     1.906  45.58   3
         3    636.6362     21.1695 307.6731305  +6.6952928     3698.238     11319.38     14888.96     91.58612     183.3185     366.9292      2.920     7.47     1177.774     64.70941     432.9553        65     2.217     1.899  41.15   3
         4    246.4001     21.7454 307.8353843  +6.6820210     2373.345     5298.233     7578.085     91.14615     183.1722      366.637      2.727     7.74     1202.743     64.70941     259.9259        41     2.386     1.278  15.83   3
         5    405.5582     23.0531 307.7691577  +6.6868044     2755.114     5188.447     6384.188     92.02398     183.6836     367.1483      2.173     8.62     1190.166     64.70941     360.8352        32     2.498     1.036  53.56   3
         6    407.5172     20.4714 307.7684308  +6.6879341     2898.336     6558.238      7506.94     92.31474     183.9751     367.1483      2.421     6.81     1190.122     64.70941     307.8271        34     2.013     1.177  43.51   3
         7    668.4000     18.8283 307.6600010  +6.6973165     7155.955     20218.68     32618.71     91.14615     183.3185     366.8562      3.439     7.89      1177.31     64.70941     801.9904       109     2.826     2.191 -30.15   0
         8    143.6917     12.1446 307.8784191  +6.6825390     1905.775     6108.167     8478.506     91.87826     183.4646     367.2577      3.107     9.21     1204.667     64.70941     230.2797        59     2.372     1.832  54.65  16
         9     53.4539     14.8832 307.9158478  +6.6783853     1301.331     3844.601     4754.797     92.02398     183.6106     367.2577      2.812     9.55     1207.625     64.70941     150.3751        34     1.956     1.587 -65.20   0
        10    877.2948      7.9426 307.5734994  +6.7087570     961.9591     2425.891     2642.094     91.87826     183.6106     365.2455      2.350     8.42     1172.582     64.70941     102.3745        18     1.630     1.214 -81.77  16
        11    963.2446      4.4009 307.5378757  +6.7130734     649.7138      1333.06     1616.918     91.29305     183.2454     327.5294      1.975     4.50      1166.66     64.70941     80.87109         5     1.189     0.485  -3.68  16
        12    729.9767      3.6710 307.6349075  +6.7056158     658.0242     1354.272      2436.85     91.58612      178.354     316.9256      3.093     6.06     1174.902     64.70941       96.505         6     1.147     0.899 -15.21  16
        13    787.0345      1.2960 307.6112599  +6.7084943     664.0338     965.0247     661.9586     79.52679     145.2262     275.6348      1.437     2.83     1174.474     64.70941     154.6793         5     0.775     0.396  19.94  24
        14    250.6076    984.3512 307.8009180  +6.2853630     2886.639     6259.038     7554.855      91.4397     183.3916     366.6735      2.271     5.76     1238.082     64.70941     348.5186        41     1.869     1.431  45.01   0
        15    999.4471   1021.2852 307.4885123  +6.2950830     4350.469     7308.684     8064.435     92.02399     178.8042     317.6435      1.834     4.09     1235.887     64.70941     529.2815        32     1.598     1.083  38.34  24
        16    903.3120   1023.7305 307.5283765  +6.2908829     2259.296      2717.78      2882.71     79.01971     145.0415     275.1482      1.116     3.15      1239.91     64.70941     551.2502        10     1.169     0.444  -0.01  24
        17    877.6317   1021.7427 307.5391143  +6.2908491     9382.724      17315.7     17835.36     91.87826     174.3267     310.3894      1.943     4.41     1239.368     64.70941     1036.625        41     1.713     1.243  23.81  24
        18    534.9297   1023.4802 307.6814537  +6.2787262      3407.82     4716.537     5677.845     83.15097     149.5894     279.7842      1.394     4.31     1239.456     64.70941     645.8772        17     1.403     0.653   8.34  24
        19    521.9250   1021.0416 307.6869398  +6.2792977     2754.867     5804.673     6161.189     91.87826     180.8162     321.2508      2.238     5.93     1239.377     64.70941     311.5785        38     1.922     1.299  26.11  24
        20    777.0449    984.2156 307.5821782  +6.3029749     929.7971     1899.599     1575.897      91.4397     183.3916     366.8196      2.040     6.53      1236.41     64.70941     145.5394        13     1.393     0.965 -85.08   0
        21    638.4331    983.8362 307.6397882  +6.2985176      3060.96     6528.992     7034.908     91.58612     183.3185     366.8196      2.159     5.08     1237.179     64.70941     344.9688        40     1.797     1.357  34.67   0
        22     19.5696    981.9958 307.8969931  +6.2786004     1406.149     3100.944     3215.813      91.4397     183.4646     366.8562      2.283     8.07     1236.135     64.70941     181.3668        22     1.670     1.126  55.12   0
        23    460.5154    982.5746 307.7137595  +6.2931064     756.6008     1430.804     1288.722     92.16948     183.3185     366.9657      1.894     4.37     1238.064     64.70941     107.9171         6     1.148     0.474 -81.21   0
        24    868.6367    980.7605 307.5442353  +6.3074444     696.3268     1242.852     1226.745     91.73231     183.4646     366.9657      1.674     3.69     1235.571     64.70941     119.6582         5     0.944     0.414  -6.99   0
        25    941.3496    977.3305 307.5141360  +6.3112739     631.5334     1179.835     931.6855     91.87826     183.5376     367.1483      1.882     4.92     1234.351     64.70941     116.4196         6     1.331     0.516 -52.57   0
        26    563.2600    976.3413 307.6712782  +6.2991024     1112.534     2148.111      2372.96     92.02399     183.5376     367.1483      2.144     5.63      1237.56     64.70941     186.8521        15     1.516     1.183  34.69   0
        27    994.2583    976.4556 307.4921797  +6.3133912     793.9356     1481.286     1735.056     92.16948     183.6106     367.1118      1.877     6.09     1232.399     64.70941     109.3142         8     1.451     0.719 -21.05   0
        28    602.3763    973.0881 307.6551345  +6.3017471      833.428     1476.788     1377.584     92.02398     183.3916     366.9657      1.900     6.41      1236.92     64.70941     117.1516         8     1.157     0.996  56.67   0
        29    282.7389    970.0883 307.7880515  +6.2923166     834.5872     1899.385     2353.039     92.02398     183.7565     367.1483      2.486     5.64     1237.883     64.70941     122.8442        10     1.835     0.488  32.33   0
        30    886.4618    963.0508 307.5374260  +6.3153373     5358.038     10298.04     10717.42     92.02398     183.5376     367.1118      2.057     4.48     1233.724     64.70941      609.541        43     1.789     1.307  33.33   0
        31    422.2043    960.3482 307.7304320  +6.3009901     1213.036     2803.843     3445.247     91.29305     183.3916     366.6735      2.463     7.87     1237.952     64.70941     156.2284        19     1.388     1.247 -58.32   0
        32    324.3388    958.9310 307.7711450  +6.2983060     5529.279     12929.42      14607.5     92.16947     183.6106     367.1483      2.362     5.57     1237.986     64.70941     641.2047        53     1.943     1.562  34.56   0
        33    244.3002    957.8904 307.8044374  +6.2960597     4341.514     9757.837     11142.42     92.02398      184.048     367.0753      2.329     5.34     1237.575     64.70941     537.1219        49     1.937     1.509  41.31   0
        34    902.7142    948.2543 307.5311718  +6.3219769     807.4681     1264.695     1360.544     92.02399     183.5376     367.2942      1.724     4.91     1231.912     64.70941     130.7614         7     1.119     0.610  68.50   0
        35    738.1873    941.0732 307.5997830  +6.3194668     1151.882     2433.212     1724.616      91.4397     183.2454     366.8562      2.070     7.64     1234.015     64.70941      123.485        18     1.483     1.102  65.52   0
        36    969.6926    936.6051 307.5037318  +6.3290035     1089.764     2062.897     2974.306     91.58612     183.2454     366.8196      2.144     6.34     1229.481     64.70941     117.1521        15     1.365     0.828  37.77   0
        37    657.3159    934.2751 307.6336185  +6.3195770     1439.058     2946.889     3045.389     92.16948     183.9751     367.2212      2.118     6.39     1234.821     64.70941     173.5526        22     1.402     1.295  19.91   0
        38    524.0858    935.9954 307.6889226  +6.3144280     674.1947     1516.408     2440.612      91.4397     183.2454     366.7831      2.763     3.88      1236.42     64.70941     110.8792         5     0.837     0.515 -29.81   0
        39     53.9448    931.2274 307.8844382  +6.3006794     2064.168     4526.701     4923.484     91.58612     183.6836     366.9292      2.252     5.88      1235.93     64.70941     247.2642        28     1.626     1.301  54.48   0
        40    197.9173    930.0941 307.8246545  +6.3059664     1199.603     3006.929     3537.359     91.73231     183.9751     367.2577      2.444     8.19     1236.535     64.70941      185.201        18     1.567     1.196  55.02   0
        41     71.4905    929.7922 307.8771967  +6.3018588     1155.733     2704.648     3421.711     91.58612     183.2454     366.8927      2.421     7.22     1235.922     64.70941     144.1531        18     1.793     0.814  30.00   0
        42    935.1125    930.1230 307.5183204  +6.3305274      687.559     1266.307     1703.582     92.02398     183.9751     367.2212      2.229     5.18     1229.202     64.70941     125.9078         7     1.311     0.579 -12.00   0
        43    651.8842    923.7729 307.6362309  +6.3237255     4261.102      9286.37     10207.93     92.16947     183.3185     366.9657      2.262     5.09     1234.395     64.70941     510.7908        46     1.917     1.429  41.70   0
        44    889.4360    919.8164 307.5376494  +6.3332588     1931.918     3475.968     3753.003     91.58612     183.3185     366.8562      1.885     5.60     1229.983     64.70941     205.0408        24     1.513     1.109  48.04   0
        45     11.1224    921.8904 307.9025490  +6.3030933     787.1832     1638.154     1710.345     91.73231     183.9023     367.1483      2.155     5.68     1235.558     64.70941      90.9043         7     1.137     0.800 -76.45   0
        46    334.9077    917.1779 307.7681704  +6.3158706     9004.685     21505.41     25426.62     92.02398     183.3916     366.9292      2.438     5.65     1237.761     64.70941     1032.141        63     2.110     1.578  39.02   0
        47    207.2478    917.8508 307.8211935  +6.3113255     664.1071     1275.344     1890.201     92.02398     183.4646     367.0753      2.158     5.15     1236.462     64.70941     99.72119         6     1.356     0.553  19.89   0
        48     70.2413    917.6682 307.8781283  +6.3068146     861.2299     1797.013      1831.39     91.87826     183.5376     367.2212      2.205     3.98     1235.526     64.70941     139.7013         6     0.913     0.497  47.18   0
        49     98.6155    907.6136 307.8666804  +6.3119095     1052.959     2198.098     2538.893     91.73231     183.2454     367.0388      2.273     5.71     1235.346     64.70941     139.0848        17     1.307     1.174 -44.30   0
        50    879.8698    901.5043 307.5422428  +6.3404898     1545.372     2950.385     3363.513     91.87826     183.6836     367.1118      1.992     5.62     1229.495     64.70941     172.5328        19     1.370     1.030  43.29   0
        51    850.1766    901.0798 307.5545966  +6.3396780     1346.663     2882.339     2987.445     91.58612     183.2454     367.0753      2.112     5.39     1230.002     64.70941     189.1322        20     1.377     1.142   1.91   0
        52    814.0154    900.7741 307.5696341  +6.3386018     2022.269     4026.612     4503.136     91.73231     183.4646     367.0388      2.158     5.30     1230.556     64.70941     244.8967        26     1.548     1.210  31.60   0
        53     81.7625    901.1375 307.8739034  +6.3140146     1511.099     3117.952     3667.804     92.02398     183.6836     367.1118      2.269     6.13     1235.023     64.70941     204.4722        24     1.599     1.206  24.06   0
        54    549.9584    892.2928 307.6796516  +6.3333061     188955.5     445273.4     517254.6     92.16947     183.5376     367.2212      2.446     5.56     1235.044     64.70941     21213.72       170     2.216     1.807  36.76   0
        55    394.2906    895.0579 307.7442451  +6.3269723     4092.199     9828.079     11316.43     91.87826     183.6106     367.2577      2.469     5.99     1237.117     64.70941     513.3531        53     1.985     1.618  44.49   0
        56    337.4971    893.4358 307.7679001  +6.3257440     6927.639     16810.94     19957.89     92.02399     183.4646     367.2942      2.513     5.82     1237.279     64.70941     786.1376        65     2.094     1.653  38.09   0
        57    637.2819    894.8800 307.6432765  +6.3351496     814.3195      1640.72     1289.219     92.16948     183.9023     367.2577      2.078     7.59     1233.335     64.70941     117.1416        13     1.430     1.127  20.82   0
        58    655.5983    889.4178 307.6358498  +6.3380113     2104.195     4935.539     5308.377     91.58612     183.0991     366.7831      2.283     6.18     1232.463     64.70941     220.2332        34     1.617     1.498  60.72   0
        59    888.0858    888.1675 307.5392788  +6.3462607     3745.414     7602.093     8758.674     92.02398     183.3916     367.1118      2.186     5.20      1228.79     64.70941     384.3988        40     1.845     1.297  29.97   0
        60    630.5126    883.4646 307.6464758  +6.3396299     2084.994     4910.076     5912.147     92.02399     183.8294     367.1483      2.520     6.88     1233.011     64.70941     227.8271        34     1.943     1.379  49.16   0
        61   1021.4454    882.3439 307.4840546  +6.3530897     3808.267     7037.525     7707.248     92.02399     177.2991     315.0172      1.965     4.47     1224.828     64.70941     445.1132        33     1.559     1.263  43.23  24
        62    818.4854    882.1686 307.5684050  +6.3464202     1159.478     2345.946      2397.24     92.02399     183.3916     367.0022      2.109     7.36     1229.323     64.70941     117.2516        19     1.330     1.141  38.32   0
        63    623.5474    878.0323 307.6495541  +6.3416371     1295.426      3079.85     4760.041     91.87826     183.6106     367.0022      3.015     7.31     1233.064     64.70941     163.3606        21     1.629     1.389 -45.36   2
        64    945.7988    880.2062 307.5155635  +6.3514598       689.65      936.892     1297.541     91.29304     183.2454     366.8927      1.421     3.97     1227.281     64.70941     108.9211         6     0.756     0.597 -37.98   0
        65    907.1562    875.9602 307.5317657  +6.3519266     2319.717       4848.1     5425.387     91.73231     183.6106     366.9657      2.232     5.53     1228.069     64.70941     276.5161        29     1.475     1.366 -13.54   0
        66    365.5220    872.3287 307.7569708  +6.3353810      1515.92     3620.777     4084.882     92.31474     183.9023     367.0753      2.480     6.72     1236.753     64.70941     192.7639        26     1.733     1.366  50.10   0
        67    501.8557    862.3202 307.7006563  +6.3440574     1711.107     3841.894     4485.093     92.16947     183.6106     367.1483      2.365     7.74     1235.096     64.70941     207.9023        29     1.738     1.465 -82.13   0
        68    548.6425    858.2326 307.6813521  +6.3473027     3291.677     8095.484     10751.69     91.58612     183.6106     366.9292      2.736     6.69     1233.598     64.70941     366.1711        51     2.235     1.536  16.97   0
        69    108.9828    857.5280 307.8640762  +6.3329025     771.9054     1462.659     1477.319      91.4397     183.5376     366.9657      1.859     4.83     1234.123     64.70941     120.3511         7     0.984     0.672  18.07   0
        70    466.2784    856.2137 307.7156477  +6.3453877     916.8915     1830.916     1628.365     91.58612     183.3185     366.8927      1.945     5.73     1235.089     64.70941      149.891        12     1.332     0.774  37.79   0
        71    883.0167    855.3484 307.5424932  +6.3596215     813.1472     1677.115     1885.944      91.4397     183.6836     366.7831      2.191     5.92     1227.472     64.70941     111.3085         7     1.148     0.859 -26.14   0
        72    519.0403    852.0244 307.6938639  +6.3488748     10307.04     25741.64     29887.72     91.58612     183.4646     366.8562      2.498     5.79     1233.654     64.70941     1235.896        72     2.098     1.707  35.46   0
        73    932.5271    849.9143 307.5221010  +6.3635064     2695.663     5378.017     5542.109     92.16947     183.9751     367.1118      2.080     5.34     1226.442     64.70941     295.7013        31     1.632     1.253  42.46   0
        74    311.6100    840.7168 307.7804469  +6.3466108     1780.283      4446.29     5033.975     91.58612     183.2454     366.9292      2.435     6.78     1235.813     64.70941     234.9633        33     1.753     1.483  48.37   0
        75     30.2109    842.3132 307.8973264  +6.3365355     974.8131     1954.853     2312.418     91.58612     183.3185     366.9292      2.209     5.44     1232.264     64.70941     154.9725         9     1.174     0.713  39.50   0
        76     12.4735    839.7243 307.9047850  +6.3370081     1176.399     2721.878     3693.949     92.31474     183.9023     367.1483      2.883     8.26       1231.9     64.70941     154.9124        19     2.105     0.906  69.82  16
        77    777.1044    836.3445 307.5871502  +6.3639341     33521.86     74626.53      85124.5     91.87826     183.5376     367.3672      2.313     5.25     1226.753     64.70941      3526.97        92     2.077     1.660  36.81   0
