#   1 NUMBER                 Running object number                                     
#   2 X_IMAGE                Object position along x                                    [pixel]
#   3 Y_IMAGE                Object position along y                                    [pixel]
#   4 ALPHA_J2000            Right ascension of barycenter (J2000)                      [deg]
#   5 DELTA_J2000            Declination of barycenter (J2000)                          [deg]
#   6 FLUX_APER              Flux vector within fixed circular aperture(s)              [count]
#   9 FLUXERR_APER           RMS error vector for aperture flux(es)                     [count]
#  12 FLUX_RADIUS            Fraction-of-light radii                                    [pixel]
#  13 FWHM_IMAGE             FWHM assuming a gaussian core                              [pixel]
#  14 BACKGROUND             Background at centroid position                            [count]
#  15 THRESHOLD              Detection threshold above background                       [count]
#  16 FLUX_MAX               Peak flux above background                                 [count]
#  17 ISOAREA_IMAGE          Isophotal area above Analysis threshold                    [pixel**2]
#  18 A_IMAGE                Profile RMS along major axis                               [pixel]
#  19 B_IMAGE                Profile RMS along minor axis                               [pixel]
#  20 THETA_IMAGE            Position angle (CCW/x)                                     [deg]
#  21 FLAGS                  Extraction flags                                          
         1     16.4145     83.7568 307.9362859  +6.6321110     702815.8      1827635      2184291     82.26078     165.5137     331.0603      2.612    13.38     983.5547     58.40123     61262.44       511     2.740     1.819 -28.01  20
         2    193.3996     10.7628 307.8651969  +6.6682337     7051.981     15539.92     17289.47       82.128     165.5137     331.1262      2.293     7.22     972.5446     58.40123     945.0622        51     2.290     1.097 -25.48  16
         3    939.0032      8.5731 307.5552384  +6.6942439     2824.399     5730.658     6463.331     82.52571     165.4477     331.1262      2.085     7.41     938.2563     58.40123     442.2993        26     2.131     0.722 -25.82  16
         4    537.5798      8.8409 307.7221513  +6.6806406     2078.349     4484.155     4786.526     82.65786     165.5137     331.0932      2.216     8.39     949.5262     58.40123     237.6234        28     2.047     0.961 -19.51  16
         5      8.6956     10.1269 307.9420156  +6.6622470     538.7727     751.2661     611.7124     82.92152      165.843     331.3239      1.508     4.44     980.5769     58.40123     89.53308         6     1.244     0.451 -41.01   0
         6    739.8014      7.2518 307.6381175  +6.6881009     1369.889     3090.776     3269.032     82.39335     165.3157     324.9712      2.212     7.65     945.6707     58.40123     229.1944        22     1.887     0.868 -26.22  16
         7    476.0048      7.3036 307.7478073  +6.6792006     1129.765      2272.67     2741.883     82.78979     165.3817     325.3405      2.223     7.18     950.6539     58.40123     178.5881        19     1.858     0.776 -18.57  16
         8   1001.7302      5.6883 307.5292520  +6.6975383     1130.994     1543.172     1497.794     83.05304     165.9746      311.107      1.339     2.64     932.9575     58.40123     223.8302         8     0.853     0.718 -68.60  19
         9   1004.7830      4.4187 307.5280256  +6.6981648     1172.194     1977.188     2170.001     82.78979     165.4477      296.043      1.919     4.83     932.5034     58.40123     193.9198        13     1.304     0.819 -15.59  19
        10    722.5032      1.9092 307.6454921  +6.6897251     4926.052     7799.852      8712.45     79.01235      140.862     259.0804      1.749     7.03      945.873     58.40123     637.3345        22     1.815     0.763 -18.65  24
        11    642.3611      1.5389 307.6788298  +6.6871827      2168.48     3059.031     3346.641     74.75357     134.8449     252.7687      1.499     5.32       947.59     58.40123     330.9534        15     1.524     0.662 -10.53  24
        12    723.8958   1008.2220 307.6107286  +6.2742943     776.3482     1235.647     1289.459     83.05304     165.5137     331.1591      1.618     6.62     989.4037     58.40123     131.0746        12     1.652     0.744  -5.83   2
        13    906.4889   1021.4984 307.5344121  +6.2749412     1047.095     2146.314     2360.582     83.05304     160.0151     283.7314      2.131     5.17     982.7161     58.40123     156.4324        13     1.127     0.939  -5.90  26
        14    809.3779   1023.7321 307.5746853  +6.2707610     2572.376     3526.604     3893.045     71.16328     130.5682     248.1496      1.340     4.27      986.377     58.40123     618.9084        13     1.622     0.424  -4.63  24
        15    598.7120   1020.9769 307.6623076  +6.2648203     52905.05     109031.6     119869.6     83.05303     163.5902     291.0233      2.166     8.65       991.45     58.40123     7723.409        89     2.275     1.117 -25.14  24
        16    728.6982   1005.7205 307.6088181  +6.2754885     1454.118     1837.553     2114.622     82.92152     166.1061     331.3568      1.106     3.35     989.3388     58.40123     325.0504         9     1.130     0.654 -55.83   3
        17    732.0441   1004.4724 307.6074703  +6.2761162     1811.217     2741.308     2806.561     82.92152     165.7772     331.3568      1.620     5.74     989.2538     58.40123     260.6967        15     1.501     0.693 -39.98   3
        18    255.6136   1006.9357 307.8053340  +6.2590585     918.6456     1876.103     1674.392     82.52571     165.5137     331.2251      2.128     7.16     997.7749     58.40123     133.9127        16     1.772     0.810 -20.40   0
        19    453.4152   1006.2538 307.7231762  +6.2660087     756.8485     1378.722     1284.348     82.39336     165.7114     331.0273      1.838     5.76     993.8707     58.40123     138.4485         9     1.570     0.594 -30.30   0
        20    746.3030   1004.5863 307.6015420  +6.2765480     768.6123     1358.099      748.341     82.92152     165.4477     331.0932      1.752     6.49     988.8167     58.40123     154.0621        11     2.146     0.552 -30.98   0
        21    377.2314   1002.7050 307.7549496  +6.2649069     1349.086     2565.726     2753.752     83.18435     165.5137     331.3898      2.053     7.42     996.3555     58.40123     198.1166        20     1.926     0.801 -28.75   0
        22    764.5325    992.0865 307.5943918  +6.2823211     5858.089     11671.72     12758.15     83.18434     165.9746     331.3568      2.101     7.85     987.1398     58.40123     869.8079        37     2.188     0.842 -25.42   0
        23    559.9387    992.7286 307.6793775  +6.2751789     2896.696     6043.338     6871.573     83.18435     165.7114     331.3898      2.127     7.61     990.9131     58.40123     463.2756        30     2.069     0.874 -28.68   0
        24    531.8442    993.1586 307.6910358  +6.2740559     688.6908     1121.431     952.3057     82.78979     165.7114     331.1591      1.864     5.07     991.3174     58.40123     150.2163         9     1.482     0.569 -35.09   2
        25    310.2561    991.2700 307.7831657  +6.2673698     10802.32     22943.54     25745.84     83.18435     165.6455      331.258      2.241     8.44     997.3116     58.40123     1664.588        54     2.452     0.963 -28.95   0
        26    825.6575    991.5463 307.5690127  +6.2845961      837.666     1519.635     1371.326     83.18435     165.7114     331.3239      1.856     6.43     985.0908     58.40123     141.3604        13     2.023     0.574 -16.75   0
        27    434.3563    991.8890 307.7315837  +6.2712974     776.8904      1404.24     1174.646     83.05304     165.5796     331.3568      1.794     5.67     994.2944     58.40123     135.3459        11     1.688     0.536 -26.50   0
        28    279.8945    989.4492 307.7958422  +6.2670973     582.8621     968.8011     856.0865     82.92152     165.5796     331.4557      1.899     3.49      997.561     58.40123     103.2045         5     0.811     0.434 -20.80   0
        29    925.8538    985.5264 307.5275846  +6.2904425     6444.494     13219.36     15035.58     82.92152     165.7114      331.291      2.141     7.49     980.2364     58.40123     957.8757        43     2.216     0.938 -25.51   0
        30    557.1085    984.9580 307.6808176  +6.2782919     6019.191     12093.43     13815.72     83.05304     165.7114     331.4227      2.116     8.09     990.8535     58.40123     947.2858        37     2.173     0.841 -25.90   0
        31    899.4145    981.7240 307.5386992  +6.2911259     9036.461     18927.88     21484.84     82.52571     165.4477     331.1591      2.161     8.11     981.9727     58.40123     1246.951        49     2.261     0.954 -23.76   0
        32    612.3254    982.4235 307.6579616  +6.2811957      1035.82     2240.123     1895.002     82.65786     165.5137      331.258      2.213     7.01     990.2812     58.40123     164.9586        16     2.008     0.686 -28.15   0
        33   1021.0901    981.1373 307.4881615  +6.2954462     3481.782     7118.768     7973.041     83.05304     163.0556     289.3685      2.159     7.69     977.1183     58.40123     462.3191        32     2.021     0.935 -28.71  24
        34    651.5961    980.6607 307.6417046  +6.2832440     1046.217     1577.668      2297.91     82.39336     165.5137     331.0273      1.958     3.66      989.054     58.40123     166.7229        10     1.102     0.663 -62.20   3
        35    654.6425    979.6860 307.6404719  +6.2837488     979.8989     1387.853     2097.687     83.05304     165.5796     331.3239      1.860     4.96     988.9394     58.40123     128.7687         9     1.172     0.677 -52.87   3
        36    541.6799    981.6335 307.6873411  +6.2791452     2911.922      3639.13     4190.707     82.92152     165.7114     331.3568      1.282     2.85     991.0063     58.40123     464.5289        13     1.031     0.723  -8.69   3
        37    544.9580    980.0000 307.6860346  +6.2799300     2636.589      4110.24     5267.242     82.26078     165.3157     330.8954      1.721     5.18     990.9221     58.40123     397.8968        20     1.616     0.834 -10.31   3
        38     76.8313    979.9207 307.8805334  +6.2641734     624.4689     803.6094     1024.789     82.92152     165.7114      331.291      1.674     5.07     997.1164     58.40123     102.0156         8     1.261     0.576 -61.91   0
        39     80.4167    978.6953 307.8790857  +6.2648005     551.2142     671.4279      727.107     82.92152     165.5137     331.1591      1.316     3.48     997.1164     58.40123     97.04272         5     0.788     0.444 -70.84   0
        40    494.5247    978.0031 307.7070572  +6.2790569     1241.619      1558.75     1426.242     82.52571     165.1836     331.2251      1.247     4.25     992.1525     58.40123     209.2247         8     0.919     0.627 -41.23   3
        41    497.9949    976.5266 307.7056655  +6.2797833     1489.662     2051.629     1876.743     82.65786     165.2497     331.2251      1.453     4.33     992.0701     58.40123     234.6176        11     1.233     0.635 -42.74   3
        42    931.1698    969.3169 307.5259249  +6.2973133     31404.55     65520.57     72844.69     83.05304     165.5137     331.2251      2.181     8.03     979.7529     58.40123     4794.889        74     2.281     1.053 -25.75   0
        43      4.1463    969.1179 307.9111003  +6.2661754     2252.479     4730.568      5738.94     83.05303     164.3888     292.5196      2.205     8.16     997.1164     58.40123     349.7048        30     2.167     0.887 -22.35  24
        44    238.4822    967.6553 307.8137911  +6.2746976     1235.182     2593.382     3526.604     83.05304     165.7114     331.3568      2.240     7.14     997.3302     58.40123     193.5593        20     2.176     0.657 -29.26   0
        45    125.8988    966.8351 307.8605945  +6.2712342     487.7059      1050.11     1235.562     83.05303     165.5796     331.4886      1.910     6.38     997.1262     58.40123     102.7679         8     1.528     0.749 -41.16   0
        46    636.9060    965.9817 307.6483070  +6.2888106     640.7977     875.2092     1431.468     82.92152     165.4477     331.1921      2.104     5.01     989.1061     58.40123     89.85767         8     1.470     0.484 -21.44   0
        47    829.0347    963.1317 307.5685729  +6.2964411     1465.006     3054.214     3214.246     82.92152     165.7772     331.4227      2.143     7.40     983.7012     58.40123     222.6079        21     2.028     0.757 -22.61   0
        48    777.3811    960.8761 307.5901121  +6.2956385     4752.999     9670.376     11161.08     82.52571     165.4477      331.258      2.131     8.04     985.2255     58.40123     689.2028        34     2.195     0.823 -26.67   0
        49    564.2578    960.2642 307.6786867  +6.2887277     506.4698     1218.372     1523.337     83.18435     165.6455     331.3568      2.204     5.56     990.5043     58.40123     141.6085         7     2.089     0.416 -28.66   2
        50    246.4548    960.0939 307.8107365  +6.2780885     1031.871      1922.27     2318.469     82.92152     165.7114     331.5544      2.052     6.77     997.2329     58.40123     171.4117        17     1.893     0.680 -24.81   0
        51    211.6775    960.0384 307.8251876  +6.2769375     607.6536     1458.834     1567.212     82.92152     165.7772     331.3239      2.494     7.35     997.2211     58.40123     82.13318         8     1.754     0.862  -4.65   0
        52    963.6712    956.7034 307.5128472  +6.3036106     4211.858     5194.549     5876.638     82.92152      165.843     331.3568      1.273     3.02     978.1355     58.40123     708.8523        18     1.320     0.818 -49.88   3
        53    966.9811    955.3428 307.5115179  +6.3042833     4287.711     6640.416      7408.27     82.65786     165.6455     331.1262      1.594     5.80     977.9366     58.40123     598.7742        16     1.343     0.748 -34.75   3
        54     71.7150    958.0474 307.8834063  +6.2730309     2073.902     4229.854      4562.73     83.05304     165.6455     331.3239      2.180     7.28     997.1164     58.40123     280.5062        29     2.255     0.848 -25.38   0
        55    939.5115    947.6442 307.5231929  +6.3065411     1497.177     3190.018     2934.887     83.05304     165.5796     331.3568      2.130     7.35     979.0395     58.40123     218.0462        21     2.035     0.743 -21.54   0
        56    798.8228    944.6147 307.5817544  +6.3030724     935.0698     2303.332     2733.911     82.78979     165.5137     331.2251      2.421     7.82     983.7303     58.40123     189.9079        18     1.820     1.175 -22.20   0
        57    660.1648    943.6833 307.6394003  +6.2987990     3209.064     6667.253     7403.229     83.05304     165.7114      331.291      2.144     8.23     987.9201     58.40123     493.0982        33     2.231     0.849 -25.42   0
        58    270.4919    944.5453 307.8012797  +6.2853191     2852.624     3433.813     2943.691     82.92152     165.5796     331.4557      1.270     2.67     997.0284     58.40123     435.7439        12     0.924     0.790 -55.57   3
        59    273.3409    943.3370 307.8001372  +6.2859141     2760.238     4008.932     3447.125     83.18435     165.6455     331.3568      1.525     3.83     996.9998     58.40123      385.979        16     1.319     0.792 -22.78   3
        60   1008.8679    943.8412 307.4945025  +6.3104356      697.649     1210.349     1446.925     82.92152     165.6455     331.3898      1.810     4.90     975.4081     58.40123     88.51196         8     1.154     0.589   5.89   0
        61     39.0000    942.0143 307.8975461  +6.2785440     1368.114     2020.219     2358.203     82.52571     165.3157     331.0273      1.494     3.10     997.1164     58.40123      230.235         7     0.848     0.658 -67.41   3
        62     41.9301    940.7263 307.8963728  +6.2791748     1484.172     2435.538       2626.6     83.18435      165.843     331.3568      1.946     5.08     997.1164     58.40123     225.7013        14     1.388     0.695 -33.09   3
        63    892.0729    939.8168 307.5431699  +6.3081822     668.2659      1332.19     1347.602     82.52571     165.6455     331.2251      2.250     6.36     980.6433     58.40123     115.8518        11     1.830     0.620 -45.01   0
        64    483.5768    941.2302 307.7128571  +6.2938706      624.975     857.4155     730.1007     82.52571     165.5796     331.1591      1.405     3.46     992.0872     58.40123     86.26251         5     0.776     0.447 -70.56   0
        65   1015.2133    936.9949 307.4920975  +6.3134749     740.2726     1525.788     2798.278     82.65786     165.4477     331.1921      4.116     5.94     974.6812     58.40123     129.6466        10     1.497     0.663 -27.10  18
        66    582.7557    936.9542 307.6717932  +6.2989741     1156.028     1330.566     1415.529     83.05303     165.7114      331.258      1.135     3.76     989.7343     58.40123     184.1262         8     1.032     0.550 -59.98   3
        67    586.0201    935.4968 307.6704863  +6.2996856     957.2144     1505.376      1459.13     82.92152     165.5137     331.0932      1.675     5.03      989.615     58.40123     157.8334         9     1.277     0.560 -35.13   3
        68    622.3609    933.4240 307.6554568  +6.3017637     815.6376     871.6008     930.2613     82.65786     165.4477     331.0932      1.171     3.45     988.6095     58.40123     154.0352         5     1.011     0.339 -69.11   2
        69    625.4287    931.8871 307.6542343  +6.3025014     804.6872     1117.295     746.0687     83.18435     165.4477     331.1921      1.185     3.53     988.5064     58.40123     144.9902         6     0.905     0.453 -52.36   3
        70     73.0451    933.1003 307.8837059  +6.2833754      708.277     1384.839     1999.198     83.05304     165.6455     331.5544      2.255     4.93     997.1164     58.40123     119.9728         7     1.297     0.531 -22.64   0
        71    302.5267    931.1962 307.7884247  +6.2919112     1023.794     1373.642     1741.022     82.52571     165.2497     331.1592      1.473     4.71     996.4903     58.40123     177.2153        11     1.277     0.693 -26.04   3
        72    305.5104    929.3115 307.7872492  +6.2927900     1059.533     1362.908     1250.487     82.78979     166.2374     331.4227      1.387     2.96     996.3871     58.40123     189.8966         9     0.965     0.603 -79.50   3
        73    770.2491    926.5724 307.5942395  +6.3095622      681.871     983.2783     920.6066     82.65786     165.7772      331.258      1.676     5.25     984.0782     58.40123     136.9959         8     1.723     0.451 -28.18   0
        74    908.2686    922.9335 307.5370123  +6.3156961       5311.9     10729.67     11838.44     83.05304     165.7772     331.3568      2.164     7.76     979.6622     58.40123     762.0338        36     2.188     0.837 -27.03   0
        75    444.0670    920.0917 307.7299930  +6.3012673     1606.916     3424.376      4286.34     82.92152      165.843     331.3568      2.288     8.01     992.5199     58.40123     260.2129        25     2.169     0.827 -29.60   0
        76    345.8308    918.5037 307.7708645  +6.2986120      6816.21     13846.24     15005.54     83.18435     165.4477     331.3898      2.130     7.38     995.3544     58.40123     990.9741        41     2.244     0.893 -27.41   0
        77    265.8561    917.4499 307.8041298  +6.2963493     5142.946     10462.03     11365.46     83.05304     165.7114     331.3568      2.107     7.56     996.7471     58.40123     718.0579        36     2.158     0.867 -26.50   0
