#   1 NUMBER                 Running object number                                     
#   2 X_IMAGE                Object position along x                                    [pixel]
#   3 Y_IMAGE                Object position along y                                    [pixel]
#   4 ALPHA_J2000            Right ascension of barycenter (J2000)                      [deg]
#   5 DELTA_J2000            Declination of barycenter (J2000)                          [deg]
#   6 FLUX_APER              Flux vector within fixed circular aperture(s)              [count]
#   9 FLUXERR_APER           RMS error vector for aperture flux(es)                     [count]
#  12 FLUX_RADIUS            Fraction-of-light radii                                    [pixel]
#  13 FWHM_IMAGE             FWHM assuming a gaussian core                              [pixel]
#  14 BACKGROUND             Background at centroid position                            [count]
#  15 THRESHOLD              Detection threshold above background                       [count]
#  16 FLUX_MAX               Peak flux above background                                 [count]
#  17 ISOAREA_IMAGE          Isophotal area above Analysis threshold                    [pixel**2]
#  18 A_IMAGE                Profile RMS along major axis                               [pixel]
#  19 B_IMAGE                Profile RMS along minor axis                               [pixel]
#  20 THETA_IMAGE            Position angle (CCW/x)                                     [deg]
#  21 FLAGS                  Extraction flags                                          
         1    177.9014     29.1576 307.8580196  +6.7025319     3210.346     12260.79     15000.17       93.115     185.6397     371.7226      2.877     8.54     1236.799     65.47659     435.0895        60     2.155     1.901 -77.21   0
         2    797.7281     19.7799 307.6003180  +6.7271155     895.1221     1628.452     1435.472     92.67194     185.6397     371.4272      2.023     5.23     1202.448     65.47659     135.0018         9     1.222     0.633  71.10   8
         3    469.4889     18.1269 307.7370159  +6.7168456     755.1897     1723.906     2903.455       93.115     186.0826     371.5011      3.318     4.59     1209.914     65.47659     128.4542         7     0.980     0.610  -7.84   2
         4    383.4000     11.8771 307.7730650  +6.7165463     1251.298     2627.086     4632.854     92.22676     185.0476     371.1316      3.175     7.88     1221.114     65.47659     167.1764        18     1.764     0.985 -80.60   2
         5    380.3234     11.3408 307.7743640  +6.7166648     1215.846     3203.823       4274.2     93.26221     185.8613     371.4272      2.832     4.88      1221.47     65.47659     171.1332        12     1.260     0.947 -73.92   3
         6    868.8336      8.5920 307.5710953  +6.7341008     2039.409     4855.714     5213.936     92.52379     185.5658     371.2425      2.387     7.67     1198.606     65.47659     257.9186        37     1.855     1.735 -19.49  18
         7    869.4354      3.1925 307.5710274  +6.7363494     1542.687     3621.732     4202.685     92.52379     175.3795     312.8439      2.372     7.38     1198.245     65.47659     198.0996        25     1.806     1.390  16.90  19
         8    501.3533      6.1893 307.7241565  +6.7228376     8125.153     15841.32     18625.56     92.52379     185.5658     354.1842      2.104     8.40     1207.026     65.47659     920.6785        39     2.160     1.076  53.35  19
         9    504.6226      3.8346 307.7228754  +6.7239187     7697.092     16559.64     20091.37     92.52378     181.8317     323.1122      2.361    10.03     1206.779     65.47659     882.9451        37     2.291     1.223  37.82  19
        10    645.1600      2.0727 307.6644308  +6.7293381     689.1851     1001.208     808.3199     90.27226     160.2559     293.6624      1.530     4.24     1205.544     65.47659     121.6404         6     1.308     0.391 -33.71  27
        11    642.2981      1.3179 307.6656478  +6.7295541     635.6617      1133.59     1113.304     80.46965     147.6929     279.1485      1.454     4.03     1205.538     65.47659     107.5909         5     1.179     0.395 -61.28  26
        12    767.3992     17.3067 307.6130274  +6.7271259     2579.555     7470.739     8089.718     92.52379     185.2699     371.1316      2.498     6.72     1202.685     65.47659     345.6418        43     1.791     1.693 -75.34   0
        13    916.5834    989.9926 307.5180745  +6.3306062     767.9312     1161.723     1260.175     92.67194     185.4919     371.2794      1.578     5.10     1266.134     65.47659     100.9293         6     0.951     0.773 -26.15   0
        14    867.8301   1022.4686 307.5372582  +6.3155798     6097.443     9233.854     9534.281     92.81986      166.964     301.6816      1.680     3.91     1268.216     65.47659     756.4274        30     1.400     1.139  14.93  24
        15    799.2599    989.5389 307.5668930  +6.3268901     714.0655     1076.044     831.4922       93.115     185.7875     371.5011      1.495     4.39     1266.513     65.47659     107.4106         6     1.150     0.477   8.02   0
        16    633.2055    983.8292 307.6361593  +6.3237145     4625.772      9575.75     10244.99     92.52378     185.5658     371.2425      2.135     4.82     1270.078     65.47659     527.6908        44     1.658     1.537  32.81   0
        17    870.5950    980.0197 307.5375410  +6.3331932     2333.607     4483.372      4777.05     92.67194     185.4179     371.2425      2.067     4.94     1265.483     65.47659     274.5339        28     1.582     1.198 -45.84   0
        18      7.3430    980.3583 307.8966034  +6.3042135     684.2584     1137.085     853.6738     92.96754     185.7875     365.3946      1.412     3.97     1271.511     65.47659     125.8165         5     1.197     0.377  52.95  16
        19    316.2650    977.1743 307.7682187  +6.3158766      10041.7     23064.15     25892.62     92.67194     185.7136     371.3533      2.300     5.28     1272.108     65.47659     1220.715        63     1.819     1.708  81.60   0
        20     51.6784    978.4552 307.8782278  +6.3064862     894.0867     1488.822     1216.692     93.26221     185.7875     371.5011      1.652     5.68     1270.901     65.47659      123.134        10     1.286     0.707  59.65   0
        21    187.6826    976.1621 307.8217365  +6.3119907     990.3901     1843.073     2124.914       93.115     185.7136     371.4272      2.084     6.45     1270.817     65.47659     127.7778        11     1.221     0.957  20.25   0
        22     80.5662    968.1347 307.8665635  +6.3117146     1143.508     2252.644      2374.98     92.96754     185.7875     371.4272      2.231     6.41     1270.328     65.47659      202.235        11     1.637     0.704  82.14   0
        23    861.3286    961.7812 307.5420115  +6.3404130     1616.022     3029.496     3399.202     92.67194     185.6397     371.3903      1.909     4.83     1264.402     65.47659     211.5898        19     1.378     1.062 -58.70   0
        24     63.1463    961.5751 307.8740323  +6.3138379     1537.256      3509.38     3439.977     92.52379     185.8613     371.2794      2.146     6.48      1270.33     65.47659     208.5428        22     1.538     1.281 -77.35   0
        25    831.9261    960.7866 307.5542759  +6.3398452     1662.844     2966.177     2704.801     92.52378     185.4919     371.2794      1.770     5.78     1265.008     65.47659     191.6268        20     1.400     1.051  43.78   0
        26    795.5324    960.6880 307.5694183  +6.3386746     2315.716     4438.553     4995.868     93.26221     186.0089     371.5011      2.040     5.32      1265.81     65.47659     293.9447        28     1.472     1.334   2.96   0
        27    531.2796    952.2548 307.6796262  +6.3333467     209047.9       472312       521119     93.26221     185.7875     371.5011      2.277     5.32     1269.977     65.47659     22840.95       164     1.926     1.831 -72.94   0
        28    375.6420    955.0016 307.7442730  +6.3270139     4642.021     10847.19     11511.12     92.37539     185.4179     371.1316      2.282     5.53     1271.762     65.47659     564.4539        44     1.691     1.580 -68.60   0
        29    318.8278    953.4229 307.7679590  +6.3257657     7701.687     18119.45     19917.16     92.52379     185.5658     371.2794      2.315     5.43     1271.966     65.47659     893.2068        53     1.769     1.647 -84.13   0
        30    618.6275    954.5219 307.6432151  +6.3353252     653.4673     1405.787     1200.021     92.96755     185.7136     371.4641      2.119     7.55     1269.122     65.47659     118.9055         8     1.623     0.983  80.34   0
        31    637.1880    949.2728 307.6356720  +6.3381107     2254.258     4782.256     4917.517     92.52379     185.3439     371.2425      2.072     5.25     1268.214     65.47659       255.76        31     1.504     1.413 -69.40   0
        32    869.5143    948.1942 307.5390651  +6.3462936     4063.463     7915.898     9316.956     92.52379     185.4179     371.1316      2.142     4.56     1263.401     65.47659     457.1898        37     1.536     1.403 -62.95   0
        33    707.8008    945.4009 307.6064296  +6.3420626     601.4285     1213.403     773.2828     92.37539     185.2699     371.0946      1.764     4.44     1266.427     65.47659     80.81006         5     1.203     0.466 -57.28   0
        34   1002.8979    942.3698 307.4837754  +6.3531320     4113.772     6863.021     6801.064     93.26221     185.4919     371.5011      1.783     3.91     1263.355     65.47659     540.0511        29     1.423     1.179 -82.93   0
        35    612.0119    943.4155 307.6463430  +6.3396888     2245.982     4762.419      5852.83     92.96754     185.4179     371.3903      2.253     5.90     1268.754     65.47659     219.7428        28     1.537     1.287  46.32   0
        36    800.2454    942.4515 307.5680739  +6.3463589     1286.708     2360.334     2385.387     93.26221     185.7136     371.4641      1.928     5.25     1265.252     65.47659     150.7698        18     1.235     1.102  43.87   0
        37    604.6329    938.5515 307.6495771  +6.3414504     1349.101      3354.04     4706.932     92.81986     185.7875     371.3903      2.621     8.86     1268.662     65.47659     166.5286        24     2.019     1.086 -58.03   0
        38    888.4291    936.0544 307.5316066  +6.3519336     2472.907     4694.326     5039.504     92.81986     185.8613     371.3903      2.014     5.13      1262.62     65.47659     277.3486        27     1.409     1.315  89.89   0
        39    346.8791    932.0622 307.7570157  +6.3355205     1491.729     3895.444     4169.372     93.26221     185.8613     371.4641      2.384     7.87     1271.626     65.47659     164.7054        32     1.667     1.465  77.03   0
        40    483.0684    921.8614 307.7007106  +6.3442821     1877.053     4012.028     4161.915       93.115     185.7136     371.4641      2.165     5.64     1270.259     65.47659     243.1453        26     1.489     1.317  38.82   0
        41    829.4642    920.8076 307.5566503  +6.3562652      538.114     1435.901     2079.037     92.52379     185.4179     371.2794      2.431     6.29     1263.443     65.47659     115.3323         8     1.854     0.601   9.04   2
        42    529.7881    918.1982 307.6814003  +6.3473540      3436.92     8257.449      10396.8     92.67194     185.4179     371.2055      2.620     5.61      1268.48     65.47659     401.0059        45     1.767     1.613 -49.77   0
        43     90.0534    916.5297 307.8643732  +6.3333322     788.1606     1667.322     1482.766     92.96754     185.7136     371.3533      2.180     7.13      1269.14     65.47659     107.4617        12     1.465     0.973 -47.05   0
        44    865.2700    916.2108 307.5419106  +6.3593540     965.0419     1879.326     1915.898     92.52379     185.5658     371.2794      1.829     5.66     1262.008     65.47659     130.9961         9     1.346     0.671 -60.97   0
        45    447.2815    916.6978 307.7157722  +6.3452180     966.3166     2099.203     2051.308     92.96754       186.23     371.5749      2.044     7.27     1270.346     65.47659     132.8635        13     1.558     0.951 -19.72   0
        46    500.3658    911.9508 307.6938511  +6.3489503     11079.89     27284.89     30310.61     92.96754     185.7875     371.3903      2.386     5.73     1269.261     65.47659     1197.877        64     1.840     1.748 -74.35   0
        47    913.8801    909.9158 307.5219013  +6.3635691     2996.238     5310.987     5252.166     92.96754     186.1563     371.5749      1.889     4.72     1261.936     65.47659     368.0566        28     1.495     1.212 -48.53   0
        48     11.3348    902.2717 307.8976019  +6.3365770     875.3434     1789.572     1280.333       93.115     185.8613      371.538      1.740     5.05     1268.195     65.47659     141.8849         9     1.517     0.476  39.35   0
        49    293.1655    900.6640 307.7804249  +6.3466834     1767.784     4508.504     5033.115     92.96754     185.7875     371.4641      2.371     6.89     1271.701     65.47659     234.3026        30     1.583     1.479  36.27   0
        50    758.4232    896.3297 307.5870302  +6.3640036     36749.35     77862.16     84334.57     92.67194     185.6397     371.4272      2.164     4.97     1263.429     65.47659     4063.441        80     1.765     1.653 -69.99   0
        51    215.8248    894.6093 307.8128022  +6.3465938     3008.811     7966.167      10815.3     92.67194     185.5658     371.3164      3.008     6.46      1270.68     65.47659     349.1746        48     2.038     1.608  86.00   1
        52    686.6095    890.7387 307.6170937  +6.3639188     13184.74     32562.82     37414.68     92.37539     185.6397     371.1686      2.426     5.46     1264.737     65.47659     1502.793        55     1.832     1.597 -57.66   3
        53    680.4607    887.4891 307.6197615  +6.3650552      54700.9     124522.9       139261     92.96755     185.9351     371.5011      2.317     5.32      1264.84     65.47659     5804.906       100     1.877     1.829 -73.73   3
        54    883.6765    891.5457 307.5350862  +6.3701471     6308.521     12240.19     12999.59     93.26221     185.7875     371.4641      2.042     4.53      1261.72     65.47659     726.9913        42     1.605     1.400 -47.64   0
        55    374.0410    888.5674 307.7471930  +6.3543812     860.1492     2137.971     3170.012     92.81986     185.7136     371.3164      3.000     9.02     1270.583     65.47659     130.4952        13     1.972     1.152  74.24   2
        56    325.4158    888.5915 307.7674193  +6.3527453     11208.42     28430.38     31897.47     92.81986     185.4919     371.2794      2.420     6.01     1271.452     65.47659     1364.023        68     1.880     1.817 -73.78   0
        57    387.2834    886.4491 307.7417562  +6.3556983     11917.01     30507.81     34288.13       93.115     185.7875     371.5749      2.439     6.09     1270.002     65.47659     1436.714        67     1.847     1.810 -60.84   0
        58    215.2719    873.2427 307.8137583  +6.3553943     786614.1      2484578      2915453     92.96754     185.7875     371.5011      2.733     5.18     1270.464     65.47659     63782.81       472     2.394     2.198  79.35   4
        59    924.1340    885.1489 307.5184715  +6.3741329     1559.566     2872.395     2191.883     92.96754     185.7136     371.4641      1.890     5.58     1261.635     65.47659     181.1527        19     1.316     1.068 -20.86   0
        60    880.5969    882.9401 307.5366579  +6.3735968     4783.925     9452.688      9977.22     92.37539     185.4919     371.1316      2.007     4.58     1261.611     65.47659     548.5674        36     1.549     1.334 -72.27   0
        61    621.3282    882.0463 307.6445447  +6.3653302     3833.136     9081.588      9888.15       93.115     185.8613     371.4641      2.297     6.28     1265.892     65.47659      387.484        39     1.658     1.581 -21.38   0
        62    410.4090    880.4816 307.7323387  +6.3589344     1087.516     2581.225     3399.733     92.67194     185.3439     371.2794      2.482     7.96     1268.783     65.47659      135.674        17     1.610     1.101  16.91   0
        63   1003.6270    874.9804 307.4857444  +6.3809722     604.3489     933.1841     937.5818     92.67194     185.5658     371.3533      1.611     4.22     1257.113     65.47659       77.823         5     1.097     0.462 -25.18   0
        64    656.3582    871.2570 307.6303374  +6.3709517     1318.844     3237.177     3533.887     92.96754     185.7875     371.5011      2.581     6.48      1264.94     65.47659     185.9255        17     1.423     0.926 -21.51   2
        65    390.2180    869.0817 307.7411247  +6.3629649     28096.85     73831.43      83854.8     92.67194     185.4179     371.3903      2.465     5.96     1269.292     65.47659     3160.736        96     1.957     1.904 -68.52   0
        66    507.9342    868.1272 307.6921878  +6.3672915     3804.912     9922.389     10974.01     93.26221     185.8613     371.4641      2.402     6.00     1267.491     65.47659      452.547        52     1.856     1.710 -81.80   0
        67    424.5908    866.3429 307.7269188  +6.3652441     2339.189     6145.042      8569.28     92.37539     185.7136     371.1316      3.105    10.69     1267.667     65.47659     294.1079        53     2.672     1.584  49.94   2
        68    422.3547    859.4599 307.7280824  +6.3680104     1111.821     2381.955     3020.225     92.96754     185.7136     371.5749      2.490     8.37      1267.27     65.47659     147.6145        15     1.750     1.119  12.84   3
        69    753.0047    864.5202 307.5903596  +6.3769529     7242.657      16486.6     17784.79     92.67194     185.1958     371.1686      2.237     5.22     1261.747     65.47659     729.3529        49     1.712     1.577 -54.22   0
        70    773.8320    858.9877 307.5818823  +6.3799301     685.9979     1093.914     1485.441     92.52379     185.4919     371.3533      1.607     3.73     1261.297     65.47659     131.4901         5     1.414     0.283  79.82   0
        71    119.1250    857.4177 307.8542914  +6.3587048     1720.303     4268.271     4765.705     92.52379     185.4919     371.3533      2.393     6.98     1268.155     65.47659     220.2349        31     1.613     1.437 -33.87   3
        72    104.7245    847.2358 307.8606281  +6.3624246     1134.647     1906.865     2791.007     92.96754     185.8613     371.5011      2.238     4.63      1267.51     65.47659     178.7074        10     1.091     0.719  78.20   3
        73    111.0720    856.9539 307.8576570  +6.3586264     6442.528     16176.59     18896.18       93.115     185.8613     371.4641      2.436     5.70     1268.004     65.47659     826.2786        59     1.837     1.773  25.24   3
        74    103.5459    854.1915 307.8608817  +6.3595142     1829.602     4655.524     5992.027     92.37539     185.7136     371.1316      2.930     8.32     1267.757     65.47659     225.6472        39     2.100     1.555  86.32   3
        75    898.4780    852.9137 307.5302327  +6.3865853     4654.469     9209.806     10119.63       93.115     186.1563     371.5749      2.072     4.63     1260.065     65.47659     548.2515        39     1.573     1.416 -71.19   0
        76    947.5524    852.8470 307.5098190  +6.3882446      1231.59     2023.734     2278.803       93.115     185.6397     371.5011      1.872     7.14     1258.865     65.47659      166.381        15     1.294     1.103  82.60   0
        77    653.8637    850.8322 307.6320663  +6.3792990     817.8254     2407.167     2770.971     92.81986     185.8613     371.4272      2.465     8.89     1263.401     65.47659     141.5775        18     1.626     1.357 -66.71   0
