#   1 NUMBER                 Running object number                                     
#   2 X_IMAGE                Object position along x                                    [pixel]
#   3 Y_IMAGE                Object position along y                                    [pixel]
#   4 ALPHA_J2000            Right ascension of barycenter (J2000)                      [deg]
#   5 DELTA_J2000            Declination of barycenter (J2000)                          [deg]
#   6 FLUX_APER              Flux vector within fixed circular aperture(s)              [count]
#   9 FLUXERR_APER           RMS error vector for aperture flux(es)                     [count]
#  12 FLUX_RADIUS            Fraction-of-light radii                                    [pixel]
#  13 FWHM_IMAGE             FWHM assuming a gaussian core                              [pixel]
#  14 BACKGROUND             Background at centroid position                            [count]
#  15 THRESHOLD              Detection threshold above background                       [count]
#  16 FLUX_MAX               Peak flux above background                                 [count]
#  17 ISOAREA_IMAGE          Isophotal area above Analysis threshold                    [pixel**2]
#  18 A_IMAGE                Profile RMS along major axis                               [pixel]
#  19 B_IMAGE                Profile RMS along minor axis                               [pixel]
#  20 THETA_IMAGE            Position angle (CCW/x)                                     [deg]
#  21 FLAGS                  Extraction flags                                          
         1    606.9271     23.8958 307.6749463  +6.6725508     6110.208     21367.22     27776.65     93.07191     186.1438     371.8442      2.984     7.78     1222.698     65.55009     682.0748        82     2.252     2.117  76.87   0
         2    506.7135     20.2333 307.7167787  +6.6707542     1670.278     5876.226     8162.305     93.21953     185.8481     371.8811      3.135     9.51     1226.649     65.55009      202.962        55     2.153     1.909 -68.29   0
         3    412.2920     15.7451 307.7562282  +6.6694867      6669.75     25544.65     34566.23     93.07191     185.8481      372.029      3.138     8.30     1233.224     65.55009     751.2068        97     2.392     2.261 -86.89   0
         4    232.7875     16.4467 307.8309109  +6.6632538     2716.577     10579.22     15455.12      92.4791     185.7741     371.5852      3.698     8.82     1250.907     65.55009      383.325        69     2.259     2.146 -13.22   0
         5    888.3966     13.1299 307.5581622  +6.6862757     719.7694      1607.06     2123.384     92.62766     185.5519     371.6962      2.760     5.58     1215.077     65.55009     128.9724         8     1.523     0.576  45.34   2
         6    593.1700     15.0867 307.6809705  +6.6757359     1333.697     3702.549      5636.63     93.36691     185.7001     371.7702      3.178     9.92     1222.889     65.55009     132.0356        29     2.030     1.352 -39.34   2
         7    222.2962     13.0544 307.8353926  +6.6643076     928.3227     2811.686     5248.964     93.07191      185.996     372.1768      5.221     9.55     1251.184     65.55009      140.651        15     1.964     1.296  45.77  19
         8    910.8395      7.1671 307.5490227  +6.6894776     603.9495     1322.014      2287.44     92.92406     185.7741     364.2227      2.070     3.63      1214.81     65.55009     102.7452         5     1.158     0.328   9.17  16
         9    660.4694      6.3341 307.6532571  +6.6815729     808.5561     1726.024     2001.988     93.21953     186.0699     356.4383      2.340     6.12     1219.508     65.55009     112.8438         8     1.282     0.822  20.86  16
        10    150.0950      1.4386 307.8658363  +6.6667124     2310.864     3450.029     3717.931     82.74905     149.6151     282.2036      1.548     4.98     1250.893     65.55009     371.0991        14     1.488     0.590   0.71  24
        11    719.9307   1001.6113 307.5948428  +6.2723441     604.4786     1211.391     2220.659     92.62765     185.7741     371.7332      1.787     4.85     1282.805     65.55009     81.54797         5     1.414     0.470  -5.49   0
        12    771.1274   1022.8657 307.5728334  +6.2652495      8755.04     13704.72     14336.94     90.98014      161.461     294.9259      1.660     4.63     1283.713     65.55009     1044.322        32     1.586     1.041  -4.64  24
        13     41.8258   1023.2966 307.8760988  +6.2409673     3309.573     5102.846     5148.916      86.4864     154.0525     286.8429      1.577     4.75     1282.908     65.55009       535.38        22     1.581     0.815   5.25  24
        14    928.6981    993.4403 307.5082969  +6.2825915     5399.431      9824.77     10820.31     93.21953     185.8481     372.1399      1.971     3.99      1279.97     65.55009     592.8335        40     1.533     1.379 -64.37   0
        15    687.6248    991.9663 307.6086040  +6.2752643     1687.096     4058.635     5280.807     92.47909     185.7741     371.6223      2.659    10.57     1282.323     65.55009     205.4697        33     2.231     1.398 -24.99   0
        16    213.9283    993.1257 307.8055575  +6.2591356     685.2579     1249.065     1308.243     93.51406     186.1438     371.9181      1.879     5.24     1282.827     65.55009     100.7347         7     1.367     0.568  50.03   0
        17    335.3316    989.8426 307.7551829  +6.2645098      1078.11     2452.909     2732.266     93.21953     185.9221     371.9921      2.229     8.11     1283.492     65.55009       121.92        16     1.591     1.156 -32.84   0
        18    722.0768    978.9041 307.5947177  +6.2817962     4767.488     10864.44     11751.05     92.92406     186.1438     371.9551      2.322     5.05     1281.154     65.55009     468.3792        52     1.763     1.659 -49.26   0
        19    518.0468    979.3906 307.6795524  +6.2748658     2502.822     5960.697     7124.669     92.62765     185.9221     371.4742      2.505     6.09     1282.812     65.55009     257.3096        42     1.716     1.687 -73.85   3
        20    514.7823    971.7394 307.6811692  +6.2779191      4355.41     11245.29     12846.62     92.77598     185.9221     371.6592      2.486     6.04     1282.609     65.55009     490.9619        56     1.928     1.771  60.74   3
        21    267.9022    978.5071 307.7836087  +6.2669618     8119.163     20136.57     23515.46     93.21953     186.6602     371.8072      2.478     5.53     1282.959     65.55009     845.9312        73     1.982     1.865 -77.23   0
        22    782.6405    977.2643 307.5695858  +6.2844685     778.1096     1402.295     1718.194     93.21953     185.9221     371.9921      2.301     5.95     1280.411     65.55009     114.3384         8     1.341     0.742 -36.30   0
        23    392.7492    977.9941 307.7317070  +6.2713034     635.8289     1243.033     1061.179     92.62766     185.7741     371.4742      2.037     4.98     1283.193     65.55009     89.20508         5     1.216     0.578  -9.56   0
        24    883.3405    971.9947 307.5278840  +6.2899599     6367.764        12621     14381.52     92.62765     185.8481     371.6223      2.128     4.40     1278.535     65.55009     741.1301        47     1.695     1.473 -78.33   0
        25    856.8467    968.3330 307.5390260  +6.2906011     8775.109     18063.62     20526.89     93.21953     185.9221     371.9181      2.211     4.44     1278.491     65.55009     970.8973        58     1.732     1.625 -38.43   0
        26    978.6237    967.5858 307.4884053  +6.2949143     3797.006     7263.184     7209.569     92.92406     185.7741     371.8072      1.999     4.30     1277.099     65.55009     422.5159        32     1.446     1.312 -66.85   0
        27    501.3882    967.6891 307.6868766  +6.2791501     2173.859     5668.397     6598.012     92.92406      185.626     371.7332      2.594     6.52     1282.707     65.55009     271.3531        44     1.780     1.737 -34.14   0
        28    570.6524    968.5383 307.6580425  +6.2810857     731.3092     1661.448     1725.507     93.21953     185.9221     371.8442      2.413     6.19     1282.021     65.55009      91.5271        10     1.495     0.721  16.67   0
        29    611.6864    966.6148 307.6410425  +6.2832342     778.6693     1505.862     1545.128     92.77598     185.7001     371.7702      2.033     6.52      1281.86     65.55009     98.10132         7     1.468     0.813  70.71   0
        30    454.2577    963.9774 307.7066027  +6.2791269     1256.428     3039.803     3229.918     92.77598      185.996     371.6592      2.343     8.33     1282.862     65.55009     140.8433        24     1.519     1.277  52.48   0
        31    888.6559    955.8050 307.5262196  +6.2968235     30243.58     63215.37     69762.65     92.47909     185.7741     371.5482      2.162     4.54     1277.405     65.55009     3229.684        88     1.826     1.706 -58.68   0
        32    196.7248    953.8723 307.8140453  +6.2747825     883.1063     1978.188      3068.42     93.51406     186.2915     371.8811      3.324     5.63     1281.843     65.55009     157.6028        10     1.257     0.811 -33.00   2
        33    786.4204    949.4097 307.5689547  +6.2961010     1421.718     3093.124     3656.441     92.77598      185.626     371.6592      2.388     8.01     1278.455     65.55009     159.1884        21     1.565     1.303 -33.40   0
        34    734.8484    947.6013 307.5904641  +6.2951495      3903.48     9464.548     11563.16     92.47909     185.5519     371.3632      2.486     5.77     1278.924     65.55009     400.7954        52     1.862     1.702 -85.14   0
        35    205.5105    947.5513 307.8106064  +6.2776849     941.9284     1896.153     3070.674     93.21953     185.8481      372.066      2.834     6.98     1281.737     65.55009     105.6421        13     1.631     0.837  87.97   0
        36     29.7888    945.4196 307.8837543  +6.2727408     1500.582     3543.177     4041.831     92.77598      185.626     371.7702      2.409     7.55     1280.621     65.55009     205.9287        26     1.622     1.350 -64.88   0
        37    922.9325    942.5749 307.5124105  +6.3034167     4853.161     9785.811     11046.65     92.77597     185.8481     371.7702      2.147     4.41     1276.228     65.55009     550.3226        44     1.608     1.527 -22.49   0
        38    896.4327    934.4304 307.5237066  +6.3059101     1496.898       2515.4     2510.244     92.62766     185.7001     371.5482      1.727     5.91     1275.812     65.55009     176.9979        16     1.235     0.985 -76.70   0
        39    229.8932    931.0864 307.8010256  +6.2852945      2224.28     5783.348     6336.828     93.21953     186.5128     371.9921      2.436     6.96     1281.418     65.55009     247.0549        39     1.803     1.553  61.81   0
        40    617.5628    930.4639 307.6398218  +6.2983634     2414.606     6094.431      6669.34     93.07191      185.996     371.9551      2.440     6.05     1279.807     65.55009      248.322        43     1.813     1.588  83.17   0
        41    756.2449    930.6738 307.5821375  +6.3028478     1015.564     2366.384     2518.723     93.07191     186.0699     371.9181      2.427     6.79     1277.539     65.55009      114.577        14     1.382     0.934  79.31   0
        42    850.0280    926.2861 307.5432813  +6.3077482     723.9898     1322.346     1583.729     93.36691      185.626     371.6962      1.867     4.87     1275.888     65.55009     135.9556         5     1.204     0.619  29.49   0
        43    539.2348    924.7811 307.6725901  +6.2981266     568.9688     1147.149     2303.089     92.62766     185.7741     371.6223      2.226     3.72     1280.246     65.55009     90.10742         5     1.187     0.335  12.33   0
        44    973.1135    922.5242 307.4922163  +6.3133503     606.0873     941.2853     1429.489     93.21953     186.3653     371.9551      1.565     3.42     1274.645     65.55009     104.2129         5     1.260     0.268 -54.76   0
        45    581.8810    917.7601 307.6550916  +6.3024347     693.7214     1323.691     1405.166     93.21953     186.0699     371.8072      2.074     6.44     1279.682     65.55009     117.9841         8     1.303     0.893  83.06   0
        46    262.4000    916.2632 307.7880103  +6.2924946     853.0831     1772.251     2961.096     92.33029     185.7001     371.5482      3.107     5.75     1281.422     65.55009     124.8163         9     1.066     0.873  31.57   0
        47    865.6492    909.4502 307.5373527  +6.3152179     4681.668     9786.089     10756.83     93.21953     185.8481     371.8072      2.159     4.85     1274.769     65.55009     461.9958        42     1.632     1.502  89.29   0
        48    401.9935    906.9171 307.7302728  +6.3009734     1093.649     2743.043     2644.987     92.77598      185.626     371.6962      2.414     8.57     1281.366     65.55009     158.4553        21     1.702     1.206 -76.31   0
        49    303.3846    905.6253 307.7713267  +6.2982459      4566.68     12552.54     14648.93     92.92406     185.8481     371.8072      2.605     5.91     1281.552     65.55009     520.0132        62     1.943     1.854 -40.91   0
        50    223.6055    904.6027 307.8045402  +6.2960276     3538.173     9260.603     10625.68      92.4791      185.626     371.6962      2.531     6.00     1281.111     65.55009     396.9999        54     1.857     1.800  18.68   0
        51    880.4380    894.2632 307.5317144  +6.3219789     817.1282     1309.119     1080.472     93.21953     185.9221     371.9181      1.740     4.13     1273.909     65.55009     104.0237         7     1.023     0.475 -80.95   0
        52    717.5175    887.8983 307.5996901  +6.3192444     1011.267     2249.794      2610.21     93.21953     186.4391     371.9921      2.434     6.73     1275.528     65.55009     121.5961        11     1.367     0.928 -26.87   0
        53    949.5190    883.3570 307.5033504  +6.3287566     891.9833     1648.301     2339.271     93.21953      185.996     371.8442      2.067     5.43     1272.299     65.55009     101.8242         8     1.157     0.718 -61.40   0
        54    636.3597    881.2890 307.6336680  +6.3192995     1274.384     3157.464     3870.765     93.21953     185.9221     371.9181      2.507     8.55     1276.667     65.55009     144.7013        24     1.602     1.299 -51.47   0
        55     33.4601    877.7100 307.8845319  +6.3008351     1796.905     4186.162     4714.753     93.07191     186.1438     371.9181      2.507     6.21     1279.938     65.55009      229.493        28     1.705     1.343  33.69   0
        56    177.0172    876.6666 307.8248647  +6.3060256     1113.412     2661.678     3118.952     92.62765     185.9221     371.7332      2.375     7.47     1280.838     65.55009     130.6713        20     1.482     1.214  -4.66   0
        57     51.0857    876.4119 307.8772460  +6.3019560     1054.461     2328.945     2567.507     92.77597     185.7001     371.6962      2.435     6.78     1279.819     65.55009     147.8373        14     1.388     0.929  36.21   0
        58    631.0326    870.2908 307.6362557  +6.3236676     3467.776     9008.838     10644.93     93.36691     185.8481     371.9181      2.529     6.01     1276.252     65.55009     367.4098        48     1.823     1.681 -23.79   0
        59    868.4576    866.4760 307.5376352  +6.3330649      1792.26     4035.267     4306.509     93.36691      185.996     371.8072      2.290     6.12     1272.602     65.55009     203.4154        29     1.545     1.393  19.13   0
        60    314.1416    863.8267 307.7682717  +6.3158702      7184.96      20663.2     25426.95     92.77597     186.0699     371.6962      2.719     6.25     1280.731     65.55009     796.7744        77     2.072     1.974 -63.50   0
        61      4.4340    867.3409 307.8969562  +6.3041556     749.9089     1304.584     1180.314     93.07191      185.996     332.6123      1.732     5.61      1280.14     65.55009     96.26562         7     1.187     0.748  31.10  16
        62     78.6718    854.2246 307.8665283  +6.3120372     874.5933     1927.404     2370.674     92.77598     185.8481     371.8072      2.763     4.16     1278.989     65.55009     120.2546         8     0.943     0.801  75.44   0
        63    829.5154    847.7292 307.5544653  +6.3395286     1161.639     2780.325     2773.541     93.36691     186.2915     371.9181      2.310     8.80     1271.741     65.55009     147.6729        19     1.646     1.315 -58.20   0
        64     61.4353    848.1558 307.8739033  +6.3139727     1170.933     2787.378     3441.703     92.92406     185.9221     371.7332      2.364     8.41     1278.859     65.55009     133.6292        21     1.547     1.277  82.36   0
        65    858.9158    848.1395 307.5422229  +6.3403266     1250.977     2455.808     2530.219     93.36691     186.0699     371.9551      2.090     5.81     1271.507     65.55009     174.8033        16     1.320     1.058 -42.53   0
        66    792.8282    847.0903 307.5697461  +6.3385847     1653.534     3855.961     4789.392     93.36691     185.7001     371.7332      2.495     6.73     1272.076     65.55009     199.1135        29     1.565     1.396 -28.23   0
        67    529.1462    838.8438 307.6796965  +6.3332976     148750.5     423435.9     509560.3     93.21953      185.996     371.8811      2.682     6.37     1277.564     65.55009     14642.86       194     2.221     2.140 -71.79   0
        68    373.4563    841.7432 307.7443519  +6.3269555     3473.767     9707.749     11198.96     93.36691      185.996     371.9551      2.615     6.66     1279.767     65.55009     357.0638        53     1.886     1.815  89.06   0
        69    316.6964    840.0229 307.7680171  +6.3257889     5356.173     15789.96     19227.28     93.21953     185.7001     371.6592      2.744     6.60     1280.504     65.55009     622.0609        66     2.055     1.904  51.11   0
        70    618.1548    842.1902 307.6425627  +6.3348524     646.7274     1125.657     1400.534     92.62765     185.8481     371.5112      1.927     3.32     1274.595     65.55009     115.0361         5     0.952     0.336 -44.37   0
        71    634.1261    838.1133 307.6360578  +6.3370635     1210.103     2130.673     2366.783     93.36691     186.3653     371.8811      1.790     6.80     1273.973     65.55009      138.011        16     1.431     0.905  24.77   3
        72    635.2798    835.0268 307.6356824  +6.3383768     1602.092     3349.504     3582.269     93.07191     185.8481     371.9181      2.130     6.44     1273.737     65.55009     190.5515        22     1.832     0.890  15.70   3
        73    867.3853    834.5863 307.5391577  +6.3462048     3073.185      6956.67     7464.169     93.07191      185.626     371.8072      2.314     5.57     1270.586     65.55009     317.3163        41     1.724     1.518   6.99   0
        74    609.9397    830.0170 307.6463915  +6.3396107     1594.534     4401.957     5404.902     92.77598     185.9221     371.5852      2.767     7.57     1273.841     65.55009      185.728        32     1.694     1.593  65.68   0
        75   1000.8159    828.6411 307.4838596  +6.3530484     3236.721      6744.92     7557.343     92.62766     185.7001     371.6223      2.187     4.81      1267.88     65.55009     360.9065        36     1.566     1.419 -31.55   0
        76    799.1306    829.6506 307.5677138  +6.3459973     716.1767     1554.602      1321.09     93.07191     185.9221     371.9181      2.105     5.08     1271.135     65.55009     121.1115         7     1.218     0.806 -21.89   0
        77    602.0867    827.0521 307.6497582  +6.3405765     1106.173     3136.364     5431.318     93.21953     185.8481     371.9551      3.673     9.10     1273.929     65.55009     134.2908        21     1.775     1.304 -21.20   2
