#   1 NUMBER                 Running object number                                     
#   2 X_IMAGE                Object position along x                                    [pixel]
#   3 Y_IMAGE                Object position along y                                    [pixel]
#   4 ALPHA_J2000            Right ascension of barycenter (J2000)                      [deg]
#   5 DELTA_J2000            Declination of barycenter (J2000)                          [deg]
#   6 FLUX_APER              Flux vector within fixed circular aperture(s)              [count]
#   9 FLUXERR_APER           RMS error vector for aperture flux(es)                     [count]
#  12 FLUX_RADIUS            Fraction-of-light radii                                    [pixel]
#  13 FWHM_IMAGE             FWHM assuming a gaussian core                              [pixel]
#  14 BACKGROUND             Background at centroid position                            [count]
#  15 THRESHOLD              Detection threshold above background                       [count]
#  16 FLUX_MAX               Peak flux above background                                 [count]
#  17 ISOAREA_IMAGE          Isophotal area above Analysis threshold                    [pixel**2]
#  18 A_IMAGE                Profile RMS along major axis                               [pixel]
#  19 B_IMAGE                Profile RMS along minor axis                               [pixel]
#  20 THETA_IMAGE            Position angle (CCW/x)                                     [deg]
#  21 FLAGS                  Extraction flags                                          
         1    712.5706     21.0278 307.6452128  +6.6898422     7499.677     11321.31     11212.07      78.2251     156.8258     313.8392      1.576     3.68     830.6479      55.3578     1093.873        35     1.460     1.045  64.12   0
         2    334.3430     19.6931 307.8024149  +6.6777030     918.2206     1758.548     2629.102     78.60028     157.0757     314.2139      2.258     6.56     840.8648      55.3578     122.9424        15     1.733     0.838  64.60   1
         3    432.9267     16.5596 307.7615591  +6.6823090     6346.199     9559.945     10325.41     78.60028     157.1382     314.0891      1.627     3.55     836.4185      55.3578     865.4989        31     1.409     1.040  58.28   0
         4     33.8651     15.9643 307.9273858  +6.6691252     8639.623     13374.78     13938.73     78.60028     157.0133     314.1203      1.619     3.56     841.5891      55.3578     1156.086        37     1.465     1.077  60.53   0
         5    508.5744     13.6442 307.7302253  +6.6860520     881.4816     1404.215     2006.078      78.2251     157.1382     313.9329      1.782     5.18     831.4551      55.3578     110.7068        11     1.396     0.544  49.95   0
         6    329.4914     11.4299 307.8047101  +6.6809509     13186.31     20447.39     21764.81     78.84941     156.8258     313.9954      1.725     3.74     840.9941      55.3578      1710.52        46     1.560     1.166  56.52   0
         7    424.1311     12.3857 307.7653547  +6.6837366     787.2546     1402.392     1726.767      78.2251     157.0133     313.9641      1.871     5.62     837.4092      55.3578     133.5525        13     1.297     1.019  43.58   0
         8    103.1265     11.6167 307.8987565  +6.6732546     2557.035      3846.21     4328.912      78.2251     156.8883     313.9641      1.607     3.78     842.1038      55.3578     357.2017        21     1.351     0.928  68.23   0
         9     94.3818     10.5367 307.9024264  +6.6734058     1466.195     2367.491     2423.646     78.35036     157.0133     313.9329      1.741     4.69     842.0408      55.3578     182.1605        15     1.316     0.758  61.97   0
        10    798.1326     10.3177 307.6100204  +6.6971273     865.3319     1176.896     1135.682     78.84941     157.3253     314.1203      1.554     5.67     829.7354      55.3578     128.5016        10     1.236     0.734  54.49   0
        11    395.6639      9.3317 307.7772862  +6.6840410     2207.037     3303.701     2364.567     78.72495     157.0757     314.1203      1.611     3.66     838.8911      55.3578     329.7638        20     1.304     0.940  56.41   0
        12    656.4500      4.9730 307.6690730  +6.6945900     11032.55     16726.34     17489.54     78.35036     157.2006     287.1443      1.602     3.57     831.0035      55.3578     1548.365        37     1.483     1.044  61.46  24
        13    990.3018      6.4972 307.5302963  +6.7051274     722.4124     884.1729     505.2198     78.72495     157.5122     302.3813      1.456     5.26     824.0853      55.3578     90.42432         8     1.039     0.753  41.54  16
        14    534.0729      4.6820 307.7199328  +6.6906072     1227.941     1898.127     1786.227     78.97368     157.3876     283.8813      1.709     4.73     831.1245      55.3578     195.4691        17     1.477     0.859  57.91  16
        15     74.3872      5.2242 307.9109139  +6.6749248     767.6671      1240.91     1485.234     78.47542     156.8883      289.965      1.791     5.45      841.434      55.3578     132.3252        10     1.234     0.697  52.11  16
        16    820.9875      4.1694 307.6007304  +6.7004300      1626.04     2425.965     2580.544      78.2251     155.6962     277.5585      1.572     4.56     828.9135      55.3578     212.4883        16     1.333     0.773  55.29  16
        17    256.6740      2.1918 307.8352781  +6.6823154     6090.533     8465.949     9074.154     76.96128     136.7864     249.8545      1.518     3.77     841.5038      55.3578     844.0152        29     1.511     1.062   5.28  24
        18    891.4270      2.2799 307.5715241  +6.7035653     1520.685      2217.39     2475.329     77.72204     138.2128     251.3025      1.605     4.80     827.7921      55.3578     205.4937        13     1.159     0.851  49.52  24
        19    418.3216      1.6176 307.7681324  +6.6879865     5026.107     6117.221     6099.124     71.82021     128.9635     241.1059      1.188     3.03     838.2849      55.3578     978.4684        16     1.135     0.715  10.93  24
        20    678.6360      1.3428 307.6599766  +6.6968319     3023.165     3632.479     4042.156     68.32149     124.7898     236.4653      1.067     2.35     830.8734      55.3578     774.3842        12     1.081     0.544   4.31  24
        21    648.4448      1.5366 307.6725152  +6.6957404     5434.694     6424.236     6816.009     70.85799     127.7411     239.5145      1.080     2.68     830.9075      55.3578     1117.484        16     1.170     0.621  10.85  24
        22    115.3270    986.1485 307.8606925  +6.2713752     645.5803     914.8636     797.4964     78.72495     157.1382     314.0891      1.574     5.27      862.482      55.3578     93.56165         8     1.246     0.629  73.11   0
        23    735.1939   1023.3900 307.6020826  +6.2768017     710.8058     927.2402     1031.907     71.68355     128.8874     240.7396      1.219     2.54     862.4841      55.3578     132.4377         7     0.728     0.651   0.80  24
        24    720.2971   1023.4702 307.6082649  +6.2762701     1328.183     1532.613     1901.794     70.99625     128.0477     239.5145      1.181     3.44     862.5363      55.3578     261.0144         9     0.998     0.629 -12.41  24
        25    367.1143   1022.5316 307.7549300  +6.2648200     1885.349     2701.155     3006.474     78.84941     140.7439      254.328      1.665     4.20     865.1039      55.3578     242.5154        15     1.186     0.849  45.07  24
        26    626.5038    985.5537 307.6484827  +6.2887832     902.4302     1239.575     1626.211     78.72495     157.0133     314.2139      1.618     5.74     863.1262      55.3578     124.8561        10     1.213     0.765  45.01   0
        27    766.5503    980.8743 307.5904930  +6.2954021      6453.72     10614.19     11976.94     78.72495     157.1382     314.0891      1.862     3.73      861.086      55.3578     818.2056        43     1.666     1.287  75.61   0
        28    818.4271    982.7610 307.5688901  +6.2963578         2236     3562.453     3693.729     78.35036     156.8884     313.9017      1.747     4.75     860.2786      55.3578     254.9397        21     1.409     1.003  70.71   0
        29    553.0789    980.1992 307.6791485  +6.2885337     922.7385     1532.576      2031.95     77.97398     156.5129     313.8079      1.979     6.44     863.9625      55.3578     148.0316        13     1.459     0.799  69.35   0
        30    235.8932    979.4272 307.8108646  +6.2782055      1368.86     2196.176     2110.082     78.84941     156.8258     313.9017      1.657     4.87     863.4352      55.3578     175.7679        18     1.274     1.126  81.49   0
        31    200.5037    979.2657 307.8255628  +6.2770822     963.6342     1089.817     870.7049     78.72495     157.2006     314.0891      1.404     3.48     863.0836      55.3578     160.2498         9     0.900     0.775  89.50   0
        32     61.0373    978.0195 307.8835066  +6.2729032     2670.568     4394.059     4696.292     78.35036     156.8883     313.8392      1.735     4.04      861.551      55.3578     311.1654        23     1.403     1.000  64.44   0
        33    954.7500    975.9094 307.5125178  +6.3037403      6267.34     10438.48     10700.37     78.72495     156.8883     314.2451      1.753     3.80     857.6093      55.3578     784.1457        36     1.482     1.183  58.41   0
        34    210.6973    971.8162 307.8215825  +6.2805002     569.5135     927.3593     918.7134     78.72495     156.8258     313.8704      1.244     4.34     863.0604      55.3578     84.45068         7     1.305     0.411  64.82   0
        35    636.8333    970.4812 307.6447012  +6.2953515     574.6828     1061.334     1307.694     78.60028     157.0133     314.0578      2.178     4.24     862.6492      55.3578     76.99335         6     1.082     0.474  58.62   0
        36    928.7363    967.7804 307.5235918  +6.3062277     2157.951     3304.403     3472.373     78.35036     157.0757     313.9017      1.639     4.45     857.9921      55.3578     260.0349        20     1.385     0.912  51.02   0
        37    649.4216    963.5615 307.6397074  +6.2986296      4559.11     7276.167     7970.979     78.35036     156.8258     313.8392      1.778     4.13     862.3375      55.3578     580.7931        29     1.495     1.029  59.46   0
        38    788.1185    964.0306 307.5821039  +6.3030769     1132.306     1919.055     2187.798     78.60028     156.9508     314.0578      1.883     5.76     860.2922      55.3578      160.899        13     1.319     0.708  62.07   0
        39    261.5177    963.5490 307.8007624  +6.2856216     4557.199     6989.639     7182.987     78.72495     157.0757     314.0891      1.709     3.92     863.6525      55.3578     567.0788        26     1.385     1.011  59.89   0
        40    999.1750    962.6217 307.4945176  +6.3107086     573.4868     957.8775     1245.316     78.35036     156.8883     313.9954      1.578     3.66     856.2913      55.3578     105.9195         5     1.033     0.374  85.90   0
        41    471.4668    961.6845 307.7136572  +6.2934406     1150.023     1891.817     2113.475     78.84941     157.3253     314.1203      1.871     4.56     864.3683      55.3578      180.022        13     1.284     0.734  56.31   0
        42     30.2162    960.9728 307.8968795  +6.2789020     2164.312     3639.501     3842.489     78.35036     156.8883     313.9641      1.842     3.97     860.9761      55.3578     297.8715        22     1.273     1.092  50.89   0
        43    881.1118    959.6624 307.5436387  +6.3079884     864.9868     1351.028     1700.109     78.72495     157.2629     314.1203      1.829     6.63      858.926      55.3578      134.646        12     1.189     1.039  55.61   0
        44    952.4412    957.1735 307.5141051  +6.3113980     746.0378     1259.081     1509.046     78.35036     156.8883     313.9017      1.842     5.22     857.2064      55.3578     93.50555         9     1.378     0.558  46.30   0
        45    297.3326    957.2683 307.7861049  +6.2894179     783.2137     1266.645     1565.952     78.72495     157.1382     314.0891      1.857     3.89     864.0475      55.3578     115.9431         8     0.903     0.664  65.94   0
        46   1005.0175    956.5407 307.4922956  +6.3134140     704.4394     1312.256     1464.935     78.35036     156.9508     313.8079      1.887     3.88     855.9912      55.3578     92.02515         8     0.848     0.667  86.64   0
        47    573.9926    956.0055 307.6712801  +6.2992223     1808.993     2693.966     2878.692     78.09964     156.8883     313.9017      1.515     3.73     863.3671      55.3578      244.765        18     1.332     0.842  45.07   0
        48    613.1925    952.4933 307.6551224  +6.3019855     1337.279     2191.955     2589.175     78.35036     156.7633     313.8704      1.849     4.66      862.717      55.3578     166.2176        17     1.301     0.916  53.58   0
        49    293.4226    949.9793 307.7879744  +6.2922955     1613.428     2464.029     2628.487     78.47542     156.8883     313.9954      1.704     5.06     863.8778      55.3578     185.3082        18     1.275     1.061  36.95   0
        50    561.0310    948.6006 307.6769112  +6.3018449      596.446     766.4919     513.8283     78.09963     156.8883     313.8704      1.553     5.72     863.4603      55.3578     113.6215         7     1.071     0.862  25.65   0
        51    760.1437    946.2411 307.5943173  +6.3094853        811.9     1345.781     1349.764     78.60028     157.0757     314.0891      1.662     4.48     860.5306      55.3578     107.2428         8     1.069     0.534  54.69   0
        52    897.5575    942.8096 307.5373760  +6.3154951     6843.563     11094.15     11468.37      78.2251     156.8883     313.8079      1.748     3.85     858.1313      55.3578     821.9269        38     1.547     1.145  61.06   0
        53    135.9634    944.3459 307.8535390  +6.2893262     675.5389     942.3619     980.0897     78.60028     157.0757     314.0891      1.571     5.39     862.2165      55.3578     134.4428         7     1.333     0.615  13.48   0
        54    433.4071    940.0290 307.7301897  +6.3011036     2053.404     3436.139     3558.017      78.2251     156.8883     313.8704      1.811     4.14     863.7174      55.3578     282.6949        20     1.284     1.057  69.93   0
        55    335.1252    938.2191 307.7710570  +6.2985513     9349.298     14766.08     15751.81     78.35036     156.9508     313.9954      1.669     3.71     864.2164      55.3578     1225.124        40     1.501     1.125  55.39   0
        56     62.7302    953.1299 307.8836462  +6.2832347     790.1962     1040.194     869.2661     78.72495     157.2006     314.0266      1.470     3.52      861.395      55.3578     118.7294         7     0.896     0.729  52.97   0
        57    255.1598    937.2151 307.8042918  +6.2962788     7069.227     10946.83     11642.29      78.2251     156.8883     313.8392      1.644     3.65     863.0947      55.3578     996.0979        34     1.427     1.104  62.39   0
        58    583.4175    931.8987 307.6681787  +6.3094899     1217.807     1802.828     1745.567     78.72495     156.8883     313.8392      1.646     4.20     862.8355      55.3578     171.2762        12     1.200     0.755  54.19   0
        59    767.7603    931.3744 307.5916546  +6.3158775     705.6576     951.1805     657.5525     78.35036     156.8884     313.8392      1.396     4.39     860.0455      55.3578      138.756         8     1.153     0.773  53.04   0
        60    913.4185    927.9457 307.5312891  +6.3221611      1189.44      1708.46      1815.51      78.2251     157.0757     313.8392      1.579     5.46     857.4299      55.3578     145.3216        12     1.174     0.725  53.21   0
        61    146.2214    927.9736 307.8498339  +6.2964300     501.7983     827.0749     917.3809      78.2251     156.8883     313.9954      1.995     4.82     862.1932      55.3578     76.34937         5     0.954     0.689  62.11   0
        62    869.8326    926.4233 307.5494382  +6.3213336     786.3674     1480.655      1578.46      78.2251     156.8883     313.8704      2.089     6.37     858.3821      55.3578      130.989         8     1.182     0.965  87.07   0
        63    411.8855    925.9567 307.7396001  +6.3061906     779.6787       1198.2     1164.044     78.72495     156.9508     314.0578      1.550     6.21     863.5311      55.3578     110.4111        10     1.141     0.949  19.73   0
        64    217.6509    927.2478 307.8202019  +6.2991324     541.1483     948.5532     1345.659     78.84941     156.9508     314.0578      2.122     4.23     862.5402      55.3578     86.04681         6     0.746     0.684  11.46   0
        65    980.5161    923.6364 307.5035729  +6.3261803     664.8243     1209.989     1247.035     78.72495     157.0757     314.0266      2.104     5.81     855.6542      55.3578     85.12872        11     1.284     0.739  49.80   0
        66    573.1172    921.9689 307.6727900  +6.3132440     676.3218     864.6764     769.4891     78.72495     156.8883     313.9329      1.512     4.42       862.77      55.3578     136.4896         8     1.439     0.608  39.84   0
        67    749.7237    921.1057 307.5994889  +6.3195134     1749.937     2929.269     3466.795     78.47542     157.2629     314.0578      1.786     4.58     860.2017      55.3578     224.8037        19     1.356     0.990  58.38   0
        68    842.5214    921.5815 307.5609411  +6.3224198     640.7274     949.0551     804.0654      78.2251     156.7633     313.9954      1.473     3.71     858.6173      55.3578     119.9531         6     0.921     0.430  17.29   0
        69      1.1678    918.1984 307.9103881  +6.2955808     455.6789     861.2427     922.2226     65.38785      121.928     233.3343      1.507     4.01     860.6852      55.3578     104.6857         6     1.285     0.357  84.92  24
        70    981.1460    916.7553 307.5035422  +6.3290420     1246.903     2189.084      2296.81     78.72495     157.0757     314.0891      1.972     4.70     855.4377      55.3578     153.7475        15     1.292     0.907  67.76   0
        71    613.4727    917.4740 307.6561852  +6.3164517     797.5725     1501.965     1496.999     78.97369     157.2629     314.1203      2.074     6.38     861.9664      55.3578     110.3891        12     1.445     0.791  47.90   0
        72    534.5387    916.5231 307.6889917  +6.3141992     1295.767      1732.58     1197.533     78.97369     157.1382     314.0578      1.534     5.52     863.1375      55.3578     161.6535        12     1.181     0.743  50.78   0
        73    668.2235    914.3023 307.6335584  +6.3195945     2508.202     3922.764     3945.375     78.84941     156.8258     313.9017      1.672     3.99     861.3389      55.3578     321.7701        20     1.315     0.985  61.97   0
        74   1018.9310    913.8052 307.4879515  +6.3315208     705.0223     965.5361     1238.054      78.2251     156.7007     298.3986      1.683     3.93     854.3007      55.3578     115.7648         6     1.048     0.543 -22.34  16
        75     64.8956    910.3436 307.8841956  +6.3009701     2888.062     4568.691     4942.812     78.60028     157.0757     314.2451      1.755     4.11      861.104      55.3578     358.2086        25     1.411     1.068  67.19   0
        76    946.0236    909.6685 307.5183639  +6.3307953     929.3133     1386.231     1223.219     78.35036     157.0133     314.0266      1.604     5.43     856.2122      55.3578     117.4827        11     1.239     0.672  76.59   0
        77    829.0643    910.3668 307.5669057  +6.3265997     980.2983     1560.453     2111.825     78.60028     157.0757     314.0266      1.721     6.00     858.4453      55.3578     142.6648        13     1.229     0.823  83.69   0
