#   1 NUMBER                 Running object number                                     
#   2 X_IMAGE                Object position along x                                    [pixel]
#   3 Y_IMAGE                Object position along y                                    [pixel]
#   4 ALPHA_J2000            Right ascension of barycenter (J2000)                      [deg]
#   5 DELTA_J2000            Declination of barycenter (J2000)                          [deg]
#   6 FLUX_APER              Flux vector within fixed circular aperture(s)              [count]
#   9 FLUXERR_APER           RMS error vector for aperture flux(es)                     [count]
#  12 FLUX_RADIUS            Fraction-of-light radii                                    [pixel]
#  13 FWHM_IMAGE             FWHM assuming a gaussian core                              [pixel]
#  14 BACKGROUND             Background at centroid position                            [count]
#  15 THRESHOLD              Detection threshold above background                       [count]
#  16 FLUX_MAX               Peak flux above background                                 [count]
#  17 ISOAREA_IMAGE          Isophotal area above Analysis threshold                    [pixel**2]
#  18 A_IMAGE                Profile RMS along major axis                               [pixel]
#  19 B_IMAGE                Profile RMS along minor axis                               [pixel]
#  20 THETA_IMAGE            Position angle (CCW/x)                                     [deg]
#  21 FLAGS                  Extraction flags                                          
         1     72.4463     23.3503 307.9006109  +6.6514759     3190.455     10566.21     14426.71     92.50563     184.4248     369.0699      3.092     8.16     1232.334      65.0481     474.2059        73     2.439     1.975 -50.81   0
         2    614.9396     14.8923 307.6749789  +6.6728862     6448.136        20736     28044.85     92.35914     184.4982     369.1432      3.032     7.65     1200.829      65.0481     679.9823        86     2.439     2.028 -47.55  16
         3    515.2999     12.8350 307.7165453  +6.6704540     1669.344     3856.472     5895.923     92.50562     184.4248     369.2166      3.037    11.03     1207.531      65.0481     179.5687        34     2.290     1.715 -38.56  18
         4    512.9963     10.3287 307.7175901  +6.6714141     1405.748     2954.692     4841.345     91.91828     184.1309     368.8497      2.850     6.69     1207.735      65.0481     158.1412        17     1.593     0.979 -40.52  19
         5    420.3336      6.7903 307.7563011  +6.6698208     7276.947     24893.38     34548.25     91.91828     184.3514     358.2727      3.114     8.17     1213.443      65.0481     905.9503        92     2.516     2.122 -46.22  16
         6    240.7932      7.3883 307.8310508  +6.6636439     2766.323        10297     15056.16     92.06547     184.3514     363.2271      3.536     8.97     1228.984      65.0481     452.8716        80     2.652     2.007 -30.85  16
         7      7.5213      8.1201 307.9281693  +6.6556204     932.9578     2008.616     2077.642      92.7979     184.8648     363.2271      2.166     6.17     1234.422      65.0481     117.6884        12     1.446     0.739 -62.29  16
         8    897.5403      4.9581 307.5576209  +6.6862841     875.9143     2276.093     3285.481     92.50562     184.5716      337.288      3.083     9.50     1193.304      65.0481     108.2664        14     1.856     1.357 -48.65  18
         9    600.2357      5.9815 307.6814061  +6.6760855     1171.079     3007.622     4723.845     91.91828     184.3514     349.7048      3.067     9.67     1201.429      65.0481     146.5535        25     2.437     1.071  82.77  18
        10    603.3081      5.0810 307.6801572  +6.6765589      970.172     2141.585     3266.957     92.21242     184.8648     339.0497      2.761     5.16     1201.133      65.0481     171.6296        11     1.391     0.606 -61.95  19
        11    229.1580      4.2319 307.8360042  +6.6645640     1050.223     3567.919     5271.045     91.91828     183.6155      326.974      3.514    11.29     1229.066      65.0481     151.9288        31     2.016     1.760 -59.89  25
        12    553.3145    994.3888 307.6672919  +6.2659640      2354.68     5540.431     7260.984     92.06547      184.278     368.8497      2.726     6.18     1260.633      65.0481     265.7856        38     1.803     1.470 -35.40   0
        13    685.6960   1023.6270 307.6112095  +6.2582335     875.4551     1180.512     1109.501     81.11996     147.3709     278.1991      1.326     4.93     1262.434      65.0481     143.4502        10     1.504     0.457  -6.30  24
        14    594.3154   1023.5581 307.6492380  +6.2552560     675.0663     1154.614     1059.795     82.11533     148.6516     279.8974      1.804     5.12     1261.707      65.0481     99.42676         8     1.591     0.466  -6.52  24
        15    689.0626    994.4180 307.6108010  +6.2704183     787.8069     1673.698      2145.23     92.06547     184.4982     368.8497      2.231     8.16     1260.149      65.0481     123.8523        11     1.729     1.076 -20.35   1
        16    728.8071    990.9623 307.5943790  +6.2731534     828.7606     1421.659     2015.466      91.6232     184.2045     368.7395      2.428     6.11     1259.824      65.0481      104.631        11     1.118     0.940 -54.69   0
        17    211.8877    991.8648 307.8094545  +6.2557470     2079.677      2355.68     2507.526     92.50562     184.7916     369.0699      0.710     1.58     1259.995      65.0481     958.4877         7     0.773     0.475 -15.43   0
        18    936.6866    984.5451 307.5080880  +6.2826313     5242.112     9707.979     10646.02     92.50563     184.4982     369.2166      2.037     4.46     1255.675      65.0481      617.899        41     1.803     1.199 -46.58   0
        19    696.2298    982.7446 307.6082150  +6.2754795     1906.213     4094.546     5718.405     92.21243      184.645     368.9965      2.706     6.19     1259.296      65.0481     254.5646        26     1.827     1.073 -39.15   0
        20    223.0357    985.5292 307.8050318  +6.2587341     700.3324     1569.971     1802.464     92.35914     184.5716     369.0699      2.554     4.00     1260.149      65.0481     123.2913         5     0.916     0.499   0.65   0
        21    343.2741    980.2371 307.7551783  +6.2648912     917.2504      2255.28     2750.726     92.35914      184.645     369.0699      2.466     7.76     1261.091      65.0481     124.0515        14     1.400     1.204 -41.25   0
        22    730.0528    969.8927 307.5945763  +6.2819039      4749.83     10494.94     11633.58     92.35914     184.4982     369.2899      2.309     5.53     1258.215      65.0481     532.9624        48     1.944     1.400 -44.94   0
        23    525.6443    970.6254 307.6796151  +6.2748759     2306.916     5683.871     6608.321     91.91828      184.645     368.8864      2.463     6.59     1260.008      65.0481     245.7677        39     1.913     1.376 -37.37   2
        24    522.8110    962.8983 307.6810572  +6.2779768     4474.754      10774.2     13060.45     92.21242     184.1309      368.813      2.505     6.12     1259.717      65.0481     444.4185        57     2.118     1.574 -38.43   2
        25    276.0299    969.5654 307.7835245  +6.2670831     8166.681     20424.64     25869.68     92.06547     184.2779      368.813      2.687     6.05     1260.183      65.0481     784.0968        77     2.394     1.688 -35.36   0
        26    891.3782    963.1520 307.5276687  +6.2899883     6315.887     12835.92     14811.98     92.06547     184.5716     368.8864      2.187     5.09     1254.772      65.0481     672.5857        46     1.909     1.293 -42.97   0
        27    864.8609    959.3717 307.5388323  +6.2906807     8769.746     18092.51     20691.38     92.06547     184.5716     368.9598      2.233     5.02     1254.595      65.0481     970.1072        60     2.094     1.378 -42.43   0
        28    986.6406    958.7333 307.4881740  +6.2949393     3901.765     7334.693     8341.967     92.50563     184.4982     369.1432      2.032     4.68     1253.496      65.0481     473.4655        39     1.733     1.321 -42.82   0
        29    509.5547    958.5638 307.6867212  +6.2793318     2110.261     5085.215     6163.641     92.21243     184.4982     368.9598      2.532     7.02     1259.645      65.0481      222.859        36     1.890     1.358 -22.81   0
        30    577.7499    959.5241 307.6583094  +6.2811805     744.0615     1761.385     1902.008     92.35914      184.645     369.0332      2.202     4.57     1259.425      65.0481     100.7206         6     1.293     0.459  -9.38   0
        31    462.4899    955.3718 307.7064157  +6.2791007     1069.248     2709.163     2820.966     92.65188      184.278     368.9231      2.453     9.13      1259.56      65.0481     129.8529        23     1.742     1.337  80.14   0
        32    896.6497    946.9099 307.5260257  +6.2968754     30651.69     61562.87     68680.52     92.50562     184.3514     369.2166      2.165     4.89     1254.061      65.0481     3299.681        78     2.040     1.454 -43.35   0
        33    204.2645    945.8270 307.8141984  +6.2745253     951.8587     2183.866     2844.263     92.06547     184.4982     368.9231      2.456     7.96      1258.89      65.0481      131.995        14     1.542     1.173  49.02   0
        34    794.7406    940.7643 307.5686450  +6.2960702     1504.558     3124.008      3645.23     92.50563     184.5716     368.9965      2.252     6.13     1254.379      65.0481     184.8538        21     1.359     1.244 -31.22   0
        35    742.8317    938.6741 307.5903185  +6.2952288     3997.878     9132.706     10902.76     92.35914     184.5716     369.0332      2.416     5.53     1255.656      65.0481     472.0206        49     2.008     1.467 -39.05   0
        36    529.1964    938.2001 307.6792405  +6.2883965     668.9498     1068.531     824.9816     91.77086     184.0574     368.7395      1.527     3.71     1258.705      65.0481     106.4835         5     1.179     0.336 -79.18   0
        37    212.5542    937.9985 307.8110160  +6.2780351     869.4346     1757.509     1751.171     91.77086     184.2045     368.5559      2.066     6.38     1258.905      65.0481     94.57068        10     1.395     0.821  58.50   0
        38     37.5432    936.5908 307.8838913  +6.2728301     1449.543     3492.251     4240.908     91.77086     184.4982     368.7028      2.467     7.20      1256.74      65.0481     176.6554        26     1.588     1.317 -39.07   0
        39    931.0310    933.5939 307.5121688  +6.3035078     4847.185     9988.834     10972.69     91.77086     184.3514     368.7762      2.202     5.22     1253.427      65.0481     534.0417        47     1.988     1.313 -44.41   0
        40    904.6669    925.4070 307.5234183  +6.3060273     1475.559      2909.54      2949.83     91.91828      184.278     368.8497      2.079     7.27     1253.069      65.0481     171.1696        22     1.534     1.314 -49.01   0
        41    237.8458    921.9592 307.8010388  +6.2855006     2194.929      5672.69     7081.644     92.35914     184.5716     368.8497      2.627     7.09     1259.129      65.0481     223.2966        48     2.090     1.605 -34.86   0
        42    625.5389    921.6829 307.6397087  +6.2983956     2685.313     6021.325     7159.242     92.65188     184.5716     369.0699      2.456     5.69     1257.108      65.0481     293.0343        43     1.901     1.452 -41.11   0
        43    762.8758    921.0815 307.5825743  +6.3031598      674.142     1423.729     1697.996      92.7979     184.8648     369.1432      2.353     5.24      1253.96      65.0481     93.07007         6     1.421     0.546 -71.29   0
        44      8.7711    919.8398 307.8964370  +6.2788018      802.201     1947.949      3023.04     92.06547     184.2779     368.8864      3.121     6.76     1256.573      65.0481     118.9497        10     1.669     0.769  67.58  18
        45    980.4102    914.0808 307.4922798  +6.3131934     654.3051     1191.804     1440.328     92.06547     184.2045     368.8497      1.713     4.36     1250.906      65.0481     94.40088         5     1.123     0.482 -84.58   0
        46    549.8466    913.2552 307.6714957  +6.2993880     958.7615     1903.078     1641.624     92.50562     184.5716     369.1065      2.028     6.57     1257.896      65.0481     139.7738        13     1.383     0.877  77.59   0
        47    269.9160    908.3801 307.7881563  +6.2921728     753.9072     1746.192     2592.759     92.06547     184.2045     368.9965      3.110     7.34     1259.471      65.0481     109.7445        10     1.431     1.053  64.52   0
        48    717.9129    907.9026 307.6017341  +6.3071299     6345.096     6555.237     6410.545     92.50562     185.0844     369.0699      0.507     1.53     1254.139      65.0481     4033.648         8     0.674     0.315  48.66   0
        49    873.6868    900.5963 307.5371529  +6.3152668     4554.648     9630.688     10362.14     91.91828     184.1309     368.7028      2.185     5.57     1252.094      65.0481     508.0039        47     2.019     1.315 -45.34   0
        50    409.6110    898.0817 307.7303729  +6.3010393     1002.244     2492.366     3030.698     92.06547     184.2779     368.8497      2.736     8.79     1258.217      65.0481     130.8772        16     1.687     1.280 -24.44   0
        51    311.4268    896.7179 307.7712794  +6.2983639     4620.057     11976.76     14108.38     92.35914     184.3514     368.9598      2.630     6.34     1259.391      65.0481     514.7097        59     2.057     1.766 -42.70   0
        52    231.5643    895.6234 307.8045517  +6.2961794     3547.709     9068.854     10784.22     91.91828      184.278     368.7762      2.598     6.06     1258.899      65.0481     378.3853        59     2.014     1.785 -36.97   0
        53    844.8056    883.6119 307.5497490  +6.3213397     512.3089     815.3742     602.0927     92.06547     184.2779     368.9231      1.474     3.43     1251.482      65.0481     95.66211         5     1.276     0.266 -55.39   0
        54    725.7911    878.4291 307.5994567  +6.3195725     1090.141     2253.353     2932.926     91.91828     184.3514      368.813      2.353     6.54      1252.63      65.0481      169.243        11     1.304     0.920   9.33   0
        55    956.3458    874.4941 307.5036365  +6.3287686     932.2999     1643.841     2542.579     92.35914     184.5716     369.2899      2.082     5.43     1249.469      65.0481     135.2883         9     1.341     0.620 -59.66   0
        56    644.1727    872.4511 307.6336278  +6.3193597     1417.483     3470.694     4080.765     92.06547     184.7183     368.9598      2.538     7.48     1253.926      65.0481     196.9087        25     1.808     1.212 -43.45   0
        57     41.6112    869.0449 307.8845085  +6.3008851      1448.02     3697.217     4347.558     91.91828     184.4248     368.7028      2.522     7.66      1256.18      65.0481     189.3704        26     1.553     1.443 -16.57   2
        58     59.2795    869.1063 307.8771538  +6.3014444     750.3455     1694.822     1524.165     92.21243     184.7916     369.1065      2.107     5.29     1256.183      65.0481     112.3795         7     1.408     0.561  13.59   0
        59    184.8957    867.3303 307.8249391  +6.3063326     988.9021     2501.302     3099.431     92.35914      184.645     369.0332      2.684     6.41     1257.609      65.0481     152.8633        15     1.582     1.152 -13.53   0
        60    639.0519    861.3906 307.6361351  +6.3237633     3569.305     9036.301     10531.74     91.91828     184.4248     368.7395      2.542     6.32     1253.445      65.0481     379.2487        52     2.086     1.563 -43.89   0
        61    876.5794    857.4006 307.5374143  +6.3332178     1624.431     3546.261     4359.638     92.06547     184.2045     368.7028      2.495     8.33     1249.913      65.0481     190.1606        27     2.107     1.194 -28.90   0
        62    322.0838    854.9135 307.7682703  +6.3159961     7539.348     20337.38     25846.84     92.21243     184.7916     369.0699      2.751     6.47     1258.278      65.0481     740.1216        75     2.206     1.840 -46.06   0
        63     56.5436    855.7597 307.8787487  +6.3068707     709.2142     1414.676     1332.996     92.50562      184.645     369.0699      1.829     4.10     1255.792      65.0481     120.2606         5     1.119     0.459  36.27   0
        64     85.7224    845.8205 307.8669457  +6.3119446     890.1253     2173.284     2730.708     92.06547      184.278     368.9965      2.337     6.04     1255.537      65.0481     92.51355        11     1.469     0.698  40.45   0
        65    867.1104    838.9659 307.5419807  +6.3405275     1303.393     2480.773     2823.227     92.65188     184.4248     369.0332      1.987     7.22     1248.661      65.0481     168.2434        18     1.369     1.068 -55.59   0
        66     68.8727    839.5619 307.8741718  +6.3139741     1108.847     3090.205     4148.545     92.35914     184.4982     369.1065      2.901     9.16     1255.242      65.0481     126.8636        22     1.597     1.465  35.62   2
        67    837.4672    838.5801 307.5543312  +6.3397138     1185.411     2631.713     3270.313     92.06547     184.5716     368.9231      2.356     7.82      1248.91      65.0481      140.599        18     1.474     1.159  -5.11   0
        68    801.2136    838.0002 307.5694396  +6.3387630     1675.085     3559.667     4660.521     92.06547     184.2045      368.813      2.455     7.75     1249.121      65.0481     169.4015        26     1.645     1.223 -18.45   0
        69    537.1273    829.9194 307.6796253  +6.3334176       154669     412480.3     509100.8      92.7979     184.8648     369.0699      2.691     6.35       1254.8      65.0481     14932.65       189     2.427     1.960 -42.62   0
        70    381.6433    832.5074 307.7442472  +6.3272231     3458.412     9285.003     12246.25     92.50563     184.5716     369.1799      2.908     6.74     1256.439      65.0481     349.7781        62     2.259     1.718 -40.80   0
        71    324.7097    831.1033 307.7679895  +6.3259250     5631.983     15544.14     19546.38     92.50562     185.0844     369.0332      2.789     6.53     1257.583      65.0481     580.4041        72     2.198     1.872 -35.81   0
        72    625.8368    832.4240 307.6426200  +6.3353025     544.2678     1115.388     861.5127     92.06547     184.3514     368.7762      1.896     4.32      1251.84      65.0481     84.36792         5     0.942     0.565  46.84   0
        73    643.0450    827.0906 307.6356394  +6.3380734     1625.381     4494.574     4871.862     92.50562     184.4982     369.1799      2.668     9.18     1251.062      65.0481     169.1133        35     1.834     1.487 -37.91   0
        74    875.2567    825.6461 307.5390420  +6.3463010     3142.761     6961.749     7799.819     92.50563     184.5716     369.1065      2.409     6.29     1247.477      65.0481     336.1195        40     2.060     1.252 -37.88   0
        75   1008.7493    819.6540 307.4836845  +6.3531565     3294.136     6779.296     6988.898     92.65188     184.5716     369.0699      2.170     5.46     1244.619      65.0481      346.743        41     1.904     1.321 -44.00   0
        76    619.2349    820.4753 307.6457740  +6.3400245     1416.878     3014.788      3489.74     92.35914      184.645     368.9965      2.323     7.34     1251.231      65.0481     147.2104        15     1.584     0.952 -83.69   3
        77    616.2012    820.9747 307.6470197  +6.3397183     1433.218      2928.95     4562.158     92.06547     184.2045     368.7762      2.729     6.57     1251.377      65.0481     169.2922        20     1.407     1.215 -85.85   3
