#   1 NUMBER                 Running object number                                     
#   2 X_IMAGE                Object position along x                                    [pixel]
#   3 Y_IMAGE                Object position along y                                    [pixel]
#   4 ALPHA_J2000            Right ascension of barycenter (J2000)                      [deg]
#   5 DELTA_J2000            Declination of barycenter (J2000)                          [deg]
#   6 FLUX_APER              Flux vector within fixed circular aperture(s)              [count]
#   9 FLUXERR_APER           RMS error vector for aperture flux(es)                     [count]
#  12 FLUX_RADIUS            Fraction-of-light radii                                    [pixel]
#  13 FWHM_IMAGE             FWHM assuming a gaussian core                              [pixel]
#  14 BACKGROUND             Background at centroid position                            [count]
#  15 THRESHOLD              Detection threshold above background                       [count]
#  16 FLUX_MAX               Peak flux above background                                 [count]
#  17 ISOAREA_IMAGE          Isophotal area above Analysis threshold                    [pixel**2]
#  18 A_IMAGE                Profile RMS along major axis                               [pixel]
#  19 B_IMAGE                Profile RMS along minor axis                               [pixel]
#  20 THETA_IMAGE            Position angle (CCW/x)                                     [deg]
#  21 FLAGS                  Extraction flags                                          
         1    711.1047     18.9166 307.6459457  +6.6902528     5752.501     11083.57     11835.63     77.69497     155.6364     310.5331      2.003     7.36     818.5646     54.72019     868.5991        36     1.950     0.921  40.14   0
         2    631.3625     18.2673 307.6791009  +6.6878573     2857.392     5293.733     5652.533     77.69497     155.2666     310.5331      1.935     6.53     820.1143     54.72019      460.226        27     1.859     0.860  35.62   0
         3    431.6207     14.3536 307.7622267  +6.6827922      4991.83     9533.925     10695.55     77.44792     155.2666     310.2862      2.029     6.51      823.327     54.72019      654.666        35     1.961     0.906  41.90   0
         4    678.4710     13.3489 307.6596959  +6.6914637     607.4342     1196.096     1240.444     77.69497     155.2666     310.4714      2.049     5.08     819.8483     54.72019     150.8267         9     2.046     0.356  43.15   0
         5    507.4792     11.7355 307.7307981  +6.6864136     809.5583     1414.435      1954.56     78.06406     155.3283     310.4097      2.195     5.02      818.786     54.72019     108.4139        10     1.461     0.489  44.78   0
         6     32.4843     13.9295 307.9280723  +6.6695728     6507.322     12792.81     14412.38     77.94122     155.5132     310.4714      2.127     6.64     825.0449     54.72019     859.3282        44     2.014     1.053  42.56   0
         7    329.6244     10.3041 307.8047438  +6.6810479      8404.25     10710.44     12421.17     77.94123     155.0195      310.317      1.340     2.94     826.4781     54.72019     1349.339        23     1.088     0.957  85.37   3
         8    326.7143      8.3272 307.8060209  +6.6817673     8633.891     11380.77     12904.92     77.94123     155.5748     310.1626      1.398     2.82     826.4433     54.72019     1408.068        27     1.208     0.977  86.91   3
         9    101.7676      9.6110 307.8994365  +6.6736863     2023.957     3842.128      4636.78      77.3241     155.0195     310.2862      2.000     6.09     826.2842     54.72019     253.0226        25     1.880     0.876  39.44  16
        10     91.5963      7.7037 307.9037280  +6.6741326     948.5477      1742.41     1975.144     77.57155     154.9577     307.2138      2.071     3.68      826.116     54.72019     158.7901         9     0.956     0.732  53.72   2
        11    796.7428      8.0803 307.6107336  +6.6975892     525.0494     1363.829     1518.899     77.81819     155.2666     309.3274      2.128     6.34     816.4739     54.72019     120.4874         7     1.940     0.583  40.08  16
        12    394.3595      7.3071 307.7779504  +6.6844559     1849.448     3498.455     3166.897     77.94123     155.2048     305.2112      1.936     7.19     825.4639     54.72019     244.6837        22     1.819     0.795  39.95  16
        13    655.1800      2.9411 307.6697301  +6.6949866     8430.717     15633.72     16620.86     77.44792     143.9963     258.0195      1.918     7.72     819.8279     54.72019     1238.849        34     1.858     0.897  36.33  24
        14    819.7423      2.4904 307.6013684  +6.7006665     1413.052     2399.029     3089.419     77.69497     139.0539     251.6653      1.918     6.60     816.2361     54.72019     194.7248        17     1.608     0.759  33.03  24
        15    532.7842      2.5129 307.7206005  +6.6910714     1147.149     2121.865     1960.381     77.44792     139.0539     251.8175      1.806     5.52     818.4391     54.72019     180.9829        12     1.577     0.546  38.44  24
        16    256.3925      1.4009 307.8354766  +6.6822709     2638.888      3324.35     3745.646     68.09972     124.1268     234.4784      1.089     2.76        825.6     54.72019     628.6244        14     1.256     0.566   4.80  24
        17    891.3609      1.4628 307.5716449  +6.7034790     862.1336     1060.444     1528.923     69.49249     125.4322     235.8231      1.194     3.41     816.2634     54.72019     147.4672         8     0.989     0.495   3.81  24
        18     72.3148      2.6874 307.9119118  +6.6755574     473.4317     965.8262     1143.187     77.57155     141.5128     254.6177      2.140     3.05     825.3148     54.72019     94.99744         4     0.857     0.318  58.47  18
        19    919.3464    987.0920 307.5263430  +6.2970940     31425.24     64609.96     72674.32     77.69497     155.1431     310.5948      2.189     5.63     848.2233     54.72019      3401.75        89     2.164     1.351  39.82   0
        20    958.6564   1023.3617 307.5087842  +6.2834140     3326.285     4722.648     4954.287     71.39675     128.1528       238.57      1.507     4.50     848.8274     54.72019     508.2086        17     1.471     0.719   8.91  24
        21    735.4174   1022.0685 307.6015116  +6.2765094     810.6086     1516.475     1520.384      77.3241     143.9297     257.8709      1.936     5.89     850.9426     54.72019     125.3658         9     1.551     0.629  53.49  24
        22    719.0206   1022.5771 307.6083016  +6.2757521     2130.795     3730.035     4215.392     77.57154     138.2939      250.444      2.012     5.27     851.2708     54.72019     265.3514        22     1.634     0.872  28.36  24
        23    443.6833   1023.6531 307.7225742  +6.2661085       444.07     723.6645     865.7228     68.09972     123.6628     233.8237      2.037     3.42     851.9554     54.72019     103.0515         5     0.741     0.460  12.32  24
        24    226.4676    985.3486 307.8140670  +6.2746629     1356.153     2726.462     2687.323     77.69497     155.1431     310.4097      2.029     6.78     851.2172     54.72019     165.9073        22     1.820     0.848  41.60   0
        25    115.7593    985.1306 307.8600349  +6.2710392     546.8765     774.8439     836.0757     77.69497     155.2666     310.5023      1.616     4.01     848.6516     54.72019       90.815         6     1.154     0.398  28.58   0
        26    817.3068    980.7280 307.5689260  +6.2963244     1621.154     3214.276     3718.687     77.69497     155.3283     310.5023      2.048     6.97     849.7286     54.72019     204.7277        24     1.993     0.822  40.78   0
        27    765.4753    978.8074 307.5905114  +6.2953899     4914.447     9948.063     11702.72     77.44792     154.7721     310.2553      2.201     6.12     850.3062     54.72019     586.7542        46     2.016     1.318  44.33   0
        28    552.7232    978.3608 307.6788572  +6.2884715     785.7418     1588.594     1828.141     77.69497     155.2666     310.4714      2.158     7.55     852.6718     54.72019     131.2946        15     1.927     0.828  48.57   0
        29    235.9752    978.7110 307.8103480  +6.2777245       901.14     1374.062     2012.268     77.94122     155.0813     310.2862      1.840     4.36     851.1025     54.72019     119.6409        10     1.040     0.775 -23.61   3
        30    233.4732    976.5418 307.8114613  +6.2785370     932.4706     1327.866     1639.943     77.94123     155.2666     310.4097      1.374     3.06     851.0519     54.72019     148.7581         9     0.980     0.616   4.14   3
        31    200.4013    977.9155 307.8251440  +6.2768605     717.8591      1243.99     1305.747     77.07587      154.834     310.1317      1.712     5.65     850.4205     54.72019     117.8779         7     1.366     0.659  38.41   0
        32    953.6128    973.8314 307.5125685  +6.3037150     4824.386     10275.61     12024.75      77.3241     155.0195     310.3788      2.235     5.99     847.3054     54.72019     503.1781        49     2.097     1.201  40.73   0
        33     59.9812    975.8823 307.8835092  +6.2729884     2062.435      4185.17     4553.609     77.44792     154.9577     310.3788      1.988     6.93     848.0721     54.72019     257.2045        25     1.748     0.962  31.93   0
        34    635.8565    968.5569 307.6446777  +6.2953003     580.2932     1007.537      1295.01     77.69497     155.2048     310.4714      2.201     5.81     851.6927     54.72019     96.18463         7     1.587     0.600  28.15   0
        35    927.6484    965.4999 307.5236331  +6.3062936     1477.221     3205.419       3664.3      77.8182     155.1431     310.6257      2.325     8.08     847.4694     54.72019     194.0325        28     2.025     1.034  39.89   0
        36    260.3565    961.6545 307.8008120  +6.2855902     3313.172     6623.964     6848.172      77.8182     155.2666     310.4405      2.040     6.33     850.8626     54.72019     411.8234        32     1.846     0.993  38.76   0
        37    787.0080    962.1073 307.5821422  +6.3030094     983.5645     1909.123     2126.466     77.44792     154.9577     310.2553      1.847     6.22      849.615     54.72019     136.8531        14     1.547     0.703  33.52   0
        38    648.0709    961.4045 307.6398513  +6.2986639     3439.896     6738.295      7251.99     77.44792     154.8958     310.2862      2.016     5.81     851.2786     54.72019     425.5978        33     1.911     0.994  38.47   0
        39    470.6004    960.0916 307.7135787  +6.2932756      822.007     1803.481     2144.357     77.07587     154.7721     310.1626      2.147     6.40     851.5361     54.72019     139.8839        13     1.885     0.610  34.89   0
        40     29.2357    959.1984 307.8968474  +6.2788501     1571.864     3451.695     3223.961     76.95145     155.0813     310.2553      2.095     7.95     847.6144     54.72019     194.9547        25     1.810     0.975  34.81   0
        41    297.7383    956.2530 307.7854779  +6.2890751      645.607     1064.681     1325.279      77.8182     155.2048     310.4097      2.100     3.83      850.925     54.72019     98.80048         5     0.971     0.433  84.95   0
        42    878.4264    956.2135 307.5443871  +6.3084919     454.2386      768.002     766.8751     77.57154     155.0813     310.3788      2.773     3.47      847.883     54.72019     73.15149         5     0.758     0.459  72.25   0
        43    572.7991    953.7001 307.6713669  +6.2993335     1326.831     2480.575     2239.013      77.3241     154.8958     310.1626      1.873     7.24     852.1016     54.72019     168.7399        20     1.792     0.837  28.15   0
        44   1004.1421    953.7616 307.4922735  +6.3136907     635.2787      1093.97     1140.318     77.81819     155.3283     310.4405      1.812     5.35     845.7429     54.72019     83.96381         8     1.080     0.747  53.08   0
        45    611.9308    950.4205 307.6552323  +6.3019962     1008.002     1767.357     1853.571     77.44792     155.1431     310.3788      1.978     7.10      851.562     54.72019     151.1521        18     1.793     0.787  45.40   0
        46     61.7754    951.1621 307.8836152  +6.2832639     546.3043     1158.678     1847.531     77.44792     155.0813     310.2553      2.901     4.22     847.7766     54.72019     90.32867         6     1.080     0.470  31.64   2
        47    291.8979    948.0484 307.7881845  +6.2922699     1044.931     2136.068     2523.412     77.81819     155.2048     310.5948      2.434     7.12     850.8322     54.72019     150.0834        19     1.911     0.744  32.59   0
        48    759.0091    944.5040 307.5943690  +6.3093503     763.9846       1499.5       1711.6     77.57154     154.8958     310.2553      2.046     6.69     849.6735     54.72019     123.2308        12     1.565     0.803  30.42   0
        49    896.3843    940.7568 307.5374588  +6.3154777      5060.25      10102.3     10711.35      77.3241     155.0813     310.2244      2.077     5.98     847.2786     54.72019      603.059        44     2.019     1.101  38.31   0
        50    433.3970    938.6978 307.7297585  +6.3008719     1279.816     2172.297     2731.527     77.57155     155.0195     310.1317      2.049     4.49     850.8616     54.72019     206.8817        14     1.262     0.888   4.77   3
        51    430.6851    936.6962 307.7309531  +6.3016083     1225.492     1697.667     2067.282      77.8182     155.6364     310.5023      1.492     2.92     850.8192     54.72019     193.4036        10     0.886     0.754  38.57   3
        52    333.8518    936.2557 307.7711713  +6.2985486     7350.936     14331.02     15476.05     77.81819     155.2666     310.4097      2.071     6.44     850.6702     54.72019     1003.629        46     1.943     1.139  36.28   0
        53    253.9459    935.1685 307.8043835  +6.2963205     5502.443     10832.01     12131.38     77.69497     155.3283     310.3788      2.061     6.14     850.3362     54.72019     700.6362        37     1.939     1.005  40.83   0
        54    173.4760    934.4195 307.8378178  +6.2939316     472.3914     665.9901     713.1344     77.44792     154.9577     310.3788      1.519     3.74     848.7239     54.72019      80.1073         6     0.964     0.417  71.53   0
        55    581.9785    929.6267 307.6683803  +6.3095886     863.3671     1419.328     1790.779      77.3241     155.0813     310.3788      1.742     6.37     851.4604     54.72019     100.7145        13     1.429     0.797  33.59   0
        56    912.0443    925.3008 307.5314844  +6.3223867     714.8853     1375.023     1728.338     77.81819     155.2048     310.6565      1.952     4.98     846.5812     54.72019     97.48663         7     1.141     0.614  20.72   0
        57    411.4186    924.2759 307.7393783  +6.3060962     524.8408     847.6142     1258.829      77.3241     155.0195     310.3788      2.543     5.24     850.5172     54.72019     98.05957         6     1.396     0.555  20.81   0
        58    979.7011    920.7550 307.5035477  +6.3265177     507.2736     1161.835     1698.479      77.8182     155.2048     310.6565      1.985     7.21     845.1054     54.72019     98.79034         9     1.850     0.787  34.58   0
        59    748.4932    918.9161 307.5996102  +6.3195739     1347.054      2291.44     2408.057     77.57154     155.6979      310.564      1.765     5.87     849.4047     54.72019     200.2766        19     1.734     0.737  33.49   0
        60    980.5573    915.2574 307.5033798  +6.3288182     878.3074     1946.209     2467.691     77.69497     155.2048     310.4405      2.474     7.45     844.9048     54.72019     153.0914        13     1.560     0.996  43.97   2
        61    533.7266    915.0222 307.6889145  +6.3140113     959.4897     1690.636     1663.363     77.44792     155.0813     310.3788      1.784     5.79     851.4784     54.72019      136.242        13     1.400     0.674  39.93   0
        62    667.1099    912.1174 307.6336334  +6.3196677     1892.339     3711.696      3890.62     77.57154     155.5132     310.5331      1.997     7.24     849.8587     54.72019     254.1291        23     1.795     0.818  45.81   0
        63     63.7331    908.3872 307.8842750  +6.3010057     2256.484     4476.095     4733.567      77.3241     155.0813     310.3479      2.060     6.26     847.1509     54.72019      269.124        27     1.806     0.951  39.75   0
        64    945.5687    907.6829 307.5181661  +6.3307837      630.994     991.5337     457.5262      77.8182     155.0813      310.317      1.685     5.65     845.5057     54.72019     104.6086         8     1.589     0.565  58.38   0
        65    208.4766    908.4703 307.8241788  +6.3058288      1457.97     1694.115     1786.266     78.06407     155.4516     310.4405      1.247     3.11     849.4885     54.72019     239.5336        11     0.918     0.809  33.47   3
        66    205.6868    906.3182 307.8254110  +6.3066246     1219.841     1631.547     1614.949     77.57155     155.5132     310.5331      1.409     3.21     849.4374     54.72019     205.0659        10     0.882     0.793  87.30   3
        67     81.0639    907.4464 307.8771122  +6.3019764     1496.998      2853.79     3075.696     77.69497     155.2048     310.4714      1.972     7.26     847.4258     54.72019     196.6287        20     1.752     0.843  37.09   0
        68    241.4900    903.6445 307.8106382  +6.3089300     616.4251     1196.895     465.9604      77.8182     155.1431     310.5331      1.849     6.63     850.0452     54.72019     97.54938        11     1.747     0.706  27.29   0
        69    346.0461    903.1846 307.7672440  +6.3126235     687.5687     1226.645     2160.932      77.3241     155.0813     310.1935      2.222     5.55      850.213     54.72019     93.41241        10     1.373     0.633  51.85   0
        70    800.3826    903.6318 307.5785878  +6.3276207     699.6523     1116.674     1274.996     77.44792     155.0813      310.317      1.818     3.47     847.8945     54.72019     119.7045         6     0.865     0.536  49.08   2
        71    661.6263    901.2398 307.6362825  +6.3239798     5317.872     10417.71     11431.12     77.44792     155.0813     310.2553      2.043     5.77     849.6881     54.72019     681.7568        39     1.924     1.045  40.59   0
        72     21.4907    899.3860 307.9021226  +6.3033064     904.9782       1821.3     2096.098     77.57155     155.0195     310.2553      2.121     7.12     846.2037     54.72019     117.9103        15     1.963     0.723  32.74   0
        73    899.5189    897.4557 307.5376359  +6.3334768     2186.025     4360.322     4174.209      77.8182     155.2666     310.4714      2.039     5.97     846.2722     54.72019     252.7238        30     1.855     1.064  32.77   0
        74     34.6773    897.7952 307.8967027  +6.3044068      764.405     1687.902     2133.665     77.44792     154.7721     310.2862      2.299     6.26     846.4362     54.72019     117.9744        14     1.908     0.577  42.47   0
        75    344.6548    894.4714 307.7681208  +6.3161776     12543.44      24308.8     26758.28     77.69497     155.1431     310.4097      2.046     6.34     850.0853     54.72019     1533.019        50     1.996     1.061  39.32   0
        76     79.1393    895.5643 307.8783203  +6.3068219     959.5592     1902.784     2070.876     77.81819     155.2666     310.4097      2.018     6.66     847.2064     54.72019     123.8905        15     1.700     0.732  31.35   0
        77    216.6029    894.9280 307.8212704  +6.3116976     826.1106      1466.13     1292.557      77.3241     154.8958     310.2862      1.952     6.19     849.7161     54.72019     129.7914        10     1.204     0.894  53.15   2
