#   1 NUMBER                 Running object number                                     
#   2 X_IMAGE                Object position along x                                    [pixel]
#   3 Y_IMAGE                Object position along y                                    [pixel]
#   4 ALPHA_J2000            Right ascension of barycenter (J2000)                      [deg]
#   5 DELTA_J2000            Declination of barycenter (J2000)                          [deg]
#   6 FLUX_APER              Flux vector within fixed circular aperture(s)              [count]
#   9 FLUXERR_APER           RMS error vector for aperture flux(es)                     [count]
#  12 FLUX_RADIUS            Fraction-of-light radii                                    [pixel]
#  13 FWHM_IMAGE             FWHM assuming a gaussian core                              [pixel]
#  14 BACKGROUND             Background at centroid position                            [count]
#  15 THRESHOLD              Detection threshold above background                       [count]
#  16 FLUX_MAX               Peak flux above background                                 [count]
#  17 ISOAREA_IMAGE          Isophotal area above Analysis threshold                    [pixel**2]
#  18 A_IMAGE                Profile RMS along major axis                               [pixel]
#  19 B_IMAGE                Profile RMS along minor axis                               [pixel]
#  20 THETA_IMAGE            Position angle (CCW/x)                                     [deg]
#  21 FLAGS                  Extraction flags                                          
         1    249.5130     24.4983 307.8396126  +6.6984450     3004.441     9150.487     14505.06     94.80733     189.6897      378.253      3.425    13.86     1284.815     66.66661     337.6666        73     2.863     2.237  57.24   2
         2     25.3087     21.7166 307.9332316  +6.6920673     5874.133     12573.21      18456.5     94.50683     189.5396     378.3658      2.938    11.72     1289.466     66.66661     712.0654        61     3.325     1.446  35.48   3
         3    497.0625     14.1695 307.7366913  +6.7110171      2196.12     6577.554     9328.896     94.50683     189.2393     378.1778      3.068    10.95     1263.192     66.66661      275.303        53     2.617     1.629  72.36  19
         4    501.2558     12.9674 307.7349822  +6.7116554     2229.427     3951.249     4866.476      94.6572     189.1641     378.1778      1.939     6.73     1262.919     66.66661     265.8196        22     1.915     0.871  69.46   3
         5    204.6139     11.1469 307.8587914  +6.7024691     2575.376     5476.357     5926.646     94.05428     189.0889     377.9144      2.120     7.25     1285.644     66.66661     292.7109        31     2.108     0.965  32.41  19
         6    207.9135      7.8830 307.8575247  +6.7039319     2749.065      6976.36     9550.104     94.50683     189.3895     375.8767      2.924    11.06     1285.527     66.66661     327.3148        53     2.896     1.482  35.66  19
         7    346.0689      8.4366 307.7998734  +6.7083358     892.8837     2080.752     4165.513      94.6572     189.2393     378.3282      3.425     6.90     1279.968     66.66661     107.8967         9     1.633     0.818  40.03  16
         8    349.5661      4.9136 307.7985328  +6.7099124     1023.495     2562.997     5403.144     94.80733     189.0137     345.0627      4.168     7.98     1279.821     66.66661     127.4596        13     1.572     1.133 -80.42  19
         9    848.1777      3.3446 307.5905743  +6.7272277     1109.465     2536.494     3487.883     94.35622     180.3895     321.1089      2.702     7.62     1249.973     66.66661     146.8578        17     1.579     1.148  51.93  26
        10    312.0624      1.3845 307.8142966  +6.7101173      758.096     1200.444     886.2607     82.79552     151.0378     285.3705      1.710     3.51     1282.223     66.66661     140.8486         5     0.807     0.442  17.58  24
        11    826.7111      1.0000 307.5996084  +6.7274833       548.77      788.635      890.491     76.36165     143.6043     277.5894      1.554     3.86     1250.389     66.66661     133.7885         5     1.480     0.289   0.00  24
        12    580.9507    991.1375 307.6689816  +6.3091011     646.0387     1434.964     1588.379     94.80733     189.0889     378.2906      2.010     5.15     1317.361     66.66661     96.16272         6     1.383     0.541 -81.69   0
        13    786.1673   1022.5844 307.5823861  +6.3029214     842.6653     1354.015     1064.844     94.35622     168.2325     305.0739      1.796     5.22     1318.018     66.66661     104.4005         8     1.158     0.664  63.90  24
        14    647.9858   1022.5894 307.6399863  +6.2983100     2250.331     4247.694      4757.32     94.35622     167.9787     304.9806      2.010     5.74     1318.317     66.66661     273.8003        25     1.684     1.131  10.19  24
        15    260.3996   1022.8157 307.8015368  +6.2852537     1935.322     3526.641     3264.427      92.5298     164.3842     300.5178      1.938     7.43     1318.848     66.66661     247.3275        22     1.706     1.020  11.32  24
        16    911.8759    987.7517 307.5311459  +6.3215395     970.3321      1891.53     2343.631      94.6572     189.2393     378.2154      2.180     7.00     1313.672     66.66661     139.7644        13     1.303     1.055  73.47   0
        17    748.4218    979.7889 307.5995497  +6.3193919     855.9823     1928.078     3167.013     94.35622     188.8631     378.0649      2.731     6.78     1315.724     66.66661     102.3649        11     1.617     0.797  36.79   0
        18    978.6227    976.2839 307.5037035  +6.3285118      663.202     1627.819     2999.688      94.6572     188.7878     378.1025      2.927     2.33     1311.814     66.66661     147.0116         4     0.752     0.467  77.23   2
        19    664.7173    975.6533 307.6345810  +6.3183126     760.5102      1335.93     1572.485     94.80733     189.1641     378.3282      2.019     5.53     1316.067     66.66661     112.6881         7     1.237     0.696 -15.26   3
        20    666.8008    972.7089 307.6338109  +6.3196019     1006.729     1984.759      2519.24     93.90295     188.5616     377.9897      2.260     6.81     1315.874     66.66661     142.5048        12     1.609     0.810  18.45   2
        21     63.9336    970.8501 307.8851739  +6.3001909     1242.967     3428.937     3544.032      94.6572     189.0137     378.1778      2.463     8.62     1315.266     66.66661     192.2616        23     1.739     1.524  72.40   0
        22    208.7536    969.6151 307.8248504  +6.3055613     892.2371     2209.372     3253.007     94.05428     188.9384     377.9144      2.789     7.38     1317.674     66.66661      128.837        11     1.372     1.116  57.09   0
        23     82.3405    969.7433 307.8775387  +6.3012674     870.4921     1459.692     1923.198     94.95722     189.1641      378.253      1.969     5.52      1315.63     66.66661     131.2012        10     1.156     0.742  52.44   0
        24    659.3367    964.6857 307.6371906  +6.3226766     2300.375       3942.9     4932.391     94.95722     189.3144      378.253      1.890     6.90     1315.646     66.66661     280.4464        18     1.788     0.746  39.80   3
        25    661.7227    962.2110 307.6362787  +6.3237814     3298.885     6661.983     8166.709     94.35622     188.7124     378.0273      2.289     6.82     1315.425     66.66661     354.7828        34     2.038     1.215  40.58   3
        26    898.1168    959.5865 307.5378210  +6.3327495      1391.32     3559.862     3797.524     94.35622     188.8631     378.0273      2.423     7.40     1312.047     66.66661     165.8834        21     1.499     1.319  71.80   2
        27    344.3879    956.8662 307.7687404  +6.3153871     5957.679     20299.85     25380.08     94.20537     188.9384     378.1025      2.860     7.50      1318.11     66.66661     851.2943        75     2.155     2.029  33.72   0
        28    108.3357    946.3964 307.8674881  +6.3118114      934.977     1705.773     1910.378     93.90295     188.9384     377.9521      1.771     3.73     1315.657     66.66661     173.3483         6     1.020     0.392  18.08   0
        29    860.2567    940.5344 307.5542395  +6.3393814     1199.443     3063.665     3273.642     94.95722     189.0889     378.2154      2.571     9.13     1311.206     66.66661     153.3744        22     1.737     1.339  35.83   0
        30    823.6448    940.0854 307.5695173  +6.3383475     1665.303      4157.27     5327.606     94.80733     189.0137     378.2154      2.864     8.24     1311.619     66.66661     224.2814        34     1.980     1.458 -42.55   0
        31     92.2440    941.0220 307.8743764  +6.3134977     1256.355      2894.28     3423.913     94.20537     189.0137     377.9897      2.435     6.83     1315.192     66.66661     189.0862        18     1.659     1.169  65.85   0
        32    889.1889    940.7357 307.5421716  +6.3402616     951.3628     2374.395     1928.366     94.20537     188.9384     378.0273      2.357     6.92     1310.856     66.66661     136.0452        14     1.432     0.936 -30.07   0
        33    559.3237    931.8381 307.6799814  +6.3329443     126048.8     410457.3     505798.2      94.6572     189.2393     378.2154      2.837     7.15     1316.451     66.66661     15321.66       189     2.310     2.191  46.01   0
        34    402.5128    936.2576 307.7452019  +6.3258701     1828.657     3534.218     5092.044     94.80733     189.1641     378.3658      2.192     6.18     1317.338     66.66661     297.0259        16     1.850     0.626  33.02   3
        35    404.4956    933.5308 307.7444668  +6.3270660     3180.596     6932.922     8841.294      94.6572     189.3144      378.253      2.570     8.78     1317.318     66.66661     358.1145        39     2.143     1.561  31.86   2
        36    346.2116    935.2297 307.7687059  +6.3244113     3471.669     7197.805     8719.051     94.20537     188.9384     378.0649      2.073     6.99      1317.56     66.66661      410.942        25     1.980     0.842  29.60   3
        37    347.8588    932.0637 307.7681255  +6.3257780      5063.02        11190     12858.74     94.95722     189.0889      378.253      2.334     7.15      1317.48     66.66661     573.8287        46     2.290     1.196  29.15   3
        38    665.2124    929.0001 307.6359343  +6.3376561     1502.703     4427.761     4900.176     94.35622     188.7878     377.9897      2.631     8.82     1313.652     66.66661     194.0049        37     1.956     1.580 -71.19   0
        39    897.3682    927.7771 307.5391940  +6.3459024     2773.684     7343.101     8484.633     94.20537     188.9384     377.9521      2.534     5.96     1309.896     66.66661     404.7749        45     1.794     1.666  17.70   0
        40    639.1691    925.7059 307.6469012  +6.3381515     941.8133      1607.73     2763.518     94.95722     188.9384     378.1778      6.126     5.98     1314.692     66.66661     161.6295        11     1.593     0.631  37.72   3
        41    640.7300    921.8630 307.6463791  +6.3397956     1426.932     3147.437     4220.577     94.80733     189.1641     378.2906      3.318     8.56     1314.431     66.66661      171.813        25     1.983     1.110  21.98   3
        42    827.6019    921.2370 307.5684968  +6.3462878     839.0732     1858.237     2142.332     93.75137     188.9384     377.9897      2.387     5.95     1310.474     66.66661      149.722        10     1.470     0.944 -77.17   0
        43    955.4550    920.3069 307.5152274  +6.3509308     639.0118     1397.704     2455.182      94.6572     189.0889     378.4409      3.117     5.53     1308.362     66.66661     96.29785         5     1.258     0.685 -42.45   0
        44    633.5206    916.8574 307.6495519  +6.3416285     1000.392     2648.262     4865.361     94.80733     189.1641     378.1778      3.765     8.13     1314.505     66.66661     131.0068        17     1.604     1.152  58.39   3
        45    916.2969    915.3569 307.5317171  +6.3516781     1804.604     4326.618     4806.066     94.80733     189.0889     378.4034      2.326     6.18     1309.096     66.66661     237.6819        32     1.586     1.523  20.78   0
        46    374.8279    911.3344 307.7575783  +6.3352682     960.8943     2968.334     3419.045     94.35622     189.1641     378.1402      2.728     9.29     1317.168     66.66661     144.5087        16     2.040     1.180 -18.40   0
        47    509.8819    903.6313 307.7015365  +6.3429771     971.2205     1868.936     2432.381      94.6572     189.0137     378.2154      2.673     6.51     1315.864     66.66661     175.4741        12     1.972     0.603  49.90   2
        48    512.1411    900.4553 307.7007011  +6.3443683     1471.597     3065.443     4065.617     94.95722     189.1641     378.2154      2.541     7.16     1315.655     66.66661     167.2578        19     1.717     0.870  34.91   2
        49    556.3802    899.1668 307.6823019  +6.3463806       2035.2     3925.718     5224.306     94.20537     188.9384     377.9897      2.069     7.21     1314.995     66.66661     229.4515        21     1.944     0.844  36.61   3
        50    558.4912    896.4274 307.6815136  +6.3475860     2540.693     5541.905     7712.271     94.95722     188.8631     378.0649      2.835     8.59     1314.837     66.66661     293.0112        38     2.377     1.161  17.00   3
        51    893.6450    895.0756 307.5418370  +6.3593259     879.5504     1958.803     1527.028      94.6572     189.2393      378.253      2.229     5.64     1308.483     66.66661     171.8379        12     1.404     1.292   4.56   0
        52    476.9744    895.7067 307.7155203  +6.3451598      644.688     1198.832     1631.971     94.95722     188.8631     378.0273      2.129     3.87     1316.036     66.66661     112.3948         5     0.855     0.502  48.08   0
        53    526.6310    893.3038 307.6949000  +6.3478153     5034.063      8256.96     9459.061     94.95722     188.9384     378.3282      1.825     6.82     1315.097     66.66661     688.8827        20     1.717     0.790  42.40   3
        54    528.9885    890.3057 307.6940176  +6.3491361     7787.629     18537.14     23235.16     94.50683     188.7878     377.9521      2.542     7.81     1314.928     66.66661     873.5271        59     2.379     1.540  39.02   3
        55    941.6385    889.4519 307.5220162  +6.3632535     1860.448     4901.776      5843.55     94.50683     189.1641     378.2154      2.551     7.42     1307.477     66.66661      243.991        35     1.760     1.723  17.67   0
        56    319.9317    882.5320 307.7814288  +6.3453618     990.1912     1751.869     2579.136     94.80733     189.3144     378.2154      2.389     8.36     1316.963     66.66661     136.5385        11     2.129     0.917  67.64   3
        57    322.7817    879.9705 307.7803266  +6.3465184     1466.216      2794.29     3600.646     94.35622     188.9384     378.1402      2.106     7.25     1316.933     66.66661     199.4045        19     1.689     1.043  34.72   2
        58     39.9663    881.2586 307.8981781  +6.3364994     665.4075     1698.866     2402.969      94.6572     189.2393     378.1778      2.458     5.15     1312.288     66.66661     109.7662         8     1.887     0.397  37.90   0
        59    786.4374    875.9005 307.5871716  +6.3636975     23396.72     69466.41     82830.17     94.80733     189.0137     378.4785      2.715     6.70     1309.491     66.66661      2891.95       102     2.136     2.040  44.50   0
        60     19.2530    879.7308 307.9068638  +6.3364366     767.2911     1570.115     1927.704      94.6572     189.0137     378.1025      2.243     7.07     1312.015     66.66661     132.5654         9     1.807     0.775  80.96   2
        61     22.7919    877.9227 307.9054495  +6.3373044     883.0892     2192.772     3048.257     94.35622     188.5616     377.9897      2.641     6.45     1312.072     66.66661     146.8617        14     1.918     0.610  66.70   2
        62    243.4143    852.8828 307.8143220  +6.3550804     613157.9      2505265      3363331     94.35622     188.8631     377.9897      3.176    11.09      1315.33     66.66661     63782.16       541     2.833     2.464  70.66   4
        63    706.5457    868.5031 307.6207254  +6.3640976     26303.64        48289     54488.84      94.6572     189.1641     378.4785      1.986     6.70     1310.432     66.66661     3498.963        35     1.900     0.950  42.19   3
        64    709.0232    865.7368 307.6197850  +6.3653262     35529.05     78429.46     109624.8     94.35622     189.1641     378.1025      3.055     9.82      1310.25     66.66661     4018.347       143     4.501     1.653  38.96   2
        65    352.0815    870.2704 307.7684377  +6.3515179     5316.681     10507.34     12344.41     95.10688     189.5396      378.253      2.123     6.73     1316.894     66.66661     645.2301        34     2.138     1.000  32.97   3
        66    354.6726    867.3815 307.7674544  +6.3528014     8086.474      18816.7     23316.57     94.20537     189.0889     378.1402      2.504     7.46     1316.859     66.66661     890.8757        55     2.435     1.285  31.83   3
        67    414.0519    868.2559 307.7426711  +6.3544268     5867.604     11447.66     14004.02     94.80733     189.1641     378.1778      2.153     6.77     1316.522     66.66661     755.2076        34     2.115     0.957  31.72   3
        68    416.1835    864.8770 307.7418958  +6.3558978     8216.908     19376.27      22895.9     94.20537     188.8631     378.0649      2.414     7.08     1316.474     66.66661     934.7633        49     2.310     1.214  32.11   3
        69    952.4731    863.2843 307.5183716  +6.3744547     973.6595     2556.206     2827.053     94.95722     189.5396      378.253      2.884     7.55     1306.348     66.66661     135.8438        14     1.564     1.020  14.74   2
        70    648.8186    863.9562 307.6449436  +6.3640546     1785.621     3533.864     5257.971     94.20537     189.0137     377.9521      2.186     7.26       1311.7     66.66661     268.8474        19     1.876     0.788  21.66   3
        71    649.6686    860.5388 307.6447035  +6.3654987     2423.293     5675.263     7077.313     94.95722     189.0889     378.2154      2.442     7.67      1311.48     66.66661     262.0509        33     2.068     1.083  16.95   3
        72    911.5491    870.8563 307.5351806  +6.3699555     4178.897     11415.87     13747.17     94.80733     189.1641     378.1778      2.649     6.21     1307.092     66.66661      497.288        60     1.979     1.858  54.73   3
        73    684.9400    850.7759 307.6303253  +6.3707205     1011.161     2799.121     3791.333     94.35622     189.1641     378.0649      2.923    11.21     1309.872     66.66661     131.9321        21     1.969     1.778 -10.51   2
        74    416.3083    850.6428 307.7423209  +6.3617987     14179.31      27089.1     30663.22     94.80733     189.1641     378.3282      2.004     6.92     1315.219     66.66661      1713.39        39     1.902     1.006  41.81   3
        75    419.2879    847.6461 307.7411792  +6.3631398     20152.93     47580.24     58363.82     94.80733     189.0137     378.2154      2.546     7.48     1314.894     66.66661     2195.195        79     2.539     1.529  40.33   3
        76    534.6534    849.4142 307.6930251  +6.3662654     2044.961      4570.78     5743.235     94.05428     189.0889     377.9144      2.504     7.62     1312.576     66.66661     241.8785        31     2.014     1.142  36.30   3
        77    536.9297    846.4496 307.6921754  +6.3675696     2514.263     5420.047     6421.646     94.80733     189.0889      378.253      2.273     7.00     1312.327     66.66661     323.5308        30     2.071     1.000  30.99   3
