#   1 NUMBER                 Running object number                                     
#   2 X_IMAGE                Object position along x                                    [pixel]
#   3 Y_IMAGE                Object position along y                                    [pixel]
#   4 ALPHA_J2000            Right ascension of barycenter (J2000)                      [deg]
#   5 DELTA_J2000            Declination of barycenter (J2000)                          [deg]
#   6 FLUX_APER              Flux vector within fixed circular aperture(s)              [count]
#   9 FLUXERR_APER           RMS error vector for aperture flux(es)                     [count]
#  12 FLUX_RADIUS            Fraction-of-light radii                                    [pixel]
#  13 FWHM_IMAGE             FWHM assuming a gaussian core                              [pixel]
#  14 BACKGROUND             Background at centroid position                            [count]
#  15 THRESHOLD              Detection threshold above background                       [count]
#  16 FLUX_MAX               Peak flux above background                                 [count]
#  17 ISOAREA_IMAGE          Isophotal area above Analysis threshold                    [pixel**2]
#  18 A_IMAGE                Profile RMS along major axis                               [pixel]
#  19 B_IMAGE                Profile RMS along minor axis                               [pixel]
#  20 THETA_IMAGE            Position angle (CCW/x)                                     [deg]
#  21 FLAGS                  Extraction flags                                          
         1     66.8368     29.2593 307.9003001  +6.6511325     3111.245     10591.27     14682.55     90.73425     181.1092     361.9666      3.126     7.99     1164.983      63.8025     394.3938        76     2.462     2.047 -65.58   0
         2    609.2016     20.8023 307.6746235  +6.6726817      6013.04     20070.66     27140.73     90.01355     180.5329     361.6065      3.044     7.81     1139.949      63.8025     607.5018        90     2.457     2.070 -60.39   0
         3    508.9863     17.2250 307.7164976  +6.6708308     1647.079     5788.059     7516.208     90.44666     180.8213     361.8946      2.995     9.74     1143.415      63.8025     206.2184        50     2.045     1.921 -58.10   0
         4    234.9116     13.4376 307.8308129  +6.6632742     2737.384     10316.07     16061.62     90.73425     180.8933     361.9666      4.053    10.76      1163.18      63.8025     350.8269        84     2.884     2.081 -45.46  16
         5    414.6417     12.6535 307.7559589  +6.6695824     7165.664     24936.45     34687.64     90.73425     181.1092     362.0026      3.148     8.29     1148.843      63.8025     793.0103        96     2.508     2.164 -62.63  16
         6      2.0552     13.3125 307.9278280  +6.6555560      882.124     1484.182     1546.537     87.81598     155.7408     285.9263      1.919     6.09     1166.066      63.8025      116.019        12     1.599     0.652 -74.23  24
         7    892.4669     12.3522 307.5568848  +6.6855617     1048.138     2382.577     2745.475     90.73425     180.9653     362.0026      2.563     7.42     1133.648      63.8025     141.1619        15     1.378     1.217 -45.01   0
         8    594.5033     11.2060 307.6810703  +6.6761577     1243.429     3793.161     5961.841     90.44666     180.6771     361.7506      3.422    12.01     1140.032      63.8025      160.651        39     2.172     1.850  41.96  18
         9    221.9583      9.2880 307.8363496  +6.6645566     845.0953     2780.447     5225.811     90.73425     180.9653     362.0026      3.908     8.68     1163.351      63.8025     119.7603        16     2.184     0.963 -36.38  18
        10    663.9534      3.1129 307.6524064  +6.6818059     807.6443     2021.587     2583.406     90.73425     170.1315     303.7321      2.552     7.02     1135.235      63.8025     112.6954        11     1.505     0.918  46.34  24
        11    547.7208   1000.2285 307.6672901  +6.2660518     2380.793      5713.53     7310.306     90.59057     180.9653     361.9666      2.640     6.60     1197.574      63.8025     249.7784        38     1.772     1.536 -55.14   0
        12    773.4038   1020.7640 307.5726457  +6.2650510     9082.317     18835.48     20400.78     89.72365     180.0994     320.6315      2.115     4.85     1195.681      63.8025     1007.604        53     1.851     1.413 -53.56  24
        13     44.3505   1021.4803 307.8761236  +6.2405241     4615.567     9967.415     10759.95     90.73425     174.5905     310.1825      2.193     5.30     1194.608      63.8025     463.0697        44     1.686     1.541 -38.15  24
        14    723.8356    996.5326 307.5940947  +6.2734189     860.8813     1999.333     2933.262     90.59057     181.1092     362.0746      2.393     6.27     1195.725      63.8025     122.8217        12     1.396     0.791 -28.81   0
        15    930.9958    990.5723 307.5080481  +6.2827380     5016.429     9664.197     10743.01     90.15815     180.8213     361.7866      2.035     4.63     1192.303      63.8025     542.8502        43     1.829     1.257 -53.73   0
        16    689.8909    989.3389 307.6084681  +6.2752657     1520.355      3993.75     5581.986     90.59056     181.1811     362.0386      3.342     8.95     1195.242      63.8025     191.9039        37     2.320     1.396 -35.09   0
        17    215.0584    991.0140 307.8060890  +6.2587984     693.7632      1594.05     1681.115     90.01355     180.9653     361.6065      2.094     5.48     1196.959      63.8025     98.86768         6     1.478     0.572 -43.73   0
        18    338.8652    986.0726 307.7547148  +6.2649599     778.8688     1882.234     2830.379     90.73425     181.0373     362.0026      2.541     4.41     1196.925      63.8025     99.53259         6     1.144     0.483 -62.87   0
        19    724.4783    975.8041 307.5945227  +6.2820030      4759.35     10560.84     12527.67     90.30252     180.4607     361.7506      2.416     5.45     1194.444      63.8025     506.9423        53     2.018     1.503 -59.33   0
        20    520.0220    976.3555 307.6796242  +6.2749939     2279.165     5524.941     7062.538     90.15815     180.8933     361.7506      2.552     7.02     1196.411      63.8025     244.3214        41     2.079     1.439 -50.62   3
        21    517.0851    968.7681 307.6811020  +6.2780307      4460.23     10811.51     13266.12     90.73425     180.8213     361.8586      2.548     5.80     1196.113      63.8025     441.5608        53     1.992     1.581 -55.54   3
        22    270.2389    975.5984 307.7836371  +6.2670033     7682.006     20144.68     25030.03     89.72365     180.7492     361.6425      2.660     5.91     1196.686      63.8025      695.176        70     2.130     1.729 -57.05   0
        23    491.2484    976.7496 307.6915899  +6.2738757     570.8093     1308.423     1077.768     90.73425     180.8933     361.9306      1.849     4.84      1196.65      63.8025     98.95337         6     1.499     0.443  33.43   0
        24    785.4052    974.4307 307.5692031  +6.2845885     837.5344     1627.129     1802.125     90.15815     180.8933     361.7146      2.169     4.51     1192.916      63.8025     99.54846         8     1.275     0.453  80.91   0
        25    885.6487    969.1989 307.5276436  +6.2900675     6113.365     12118.81     13768.13     90.01355      180.605     361.4624      2.111     4.74     1191.478      63.8025     739.1697        50     1.915     1.317 -60.97   0
        26    859.2952    965.2900 307.5387465  +6.2908104     8419.863     17764.73     20094.28     90.73425     181.5403     362.0026      2.256     5.15     1191.404      63.8025     891.9449        60     1.995     1.465 -54.59   0
        27    503.7801    964.7260 307.6867771  +6.2792586     2214.279     5767.434     7194.337     90.30252     180.9653     361.8946      2.643     6.86     1196.082      63.8025     254.5909        45     2.030     1.528 -59.29   0
        28    980.9948    964.6029 307.4881011  +6.2951188      3758.74     6999.407     7251.525     90.01355     180.6771     361.7866      1.979     4.81     1189.644      63.8025     431.4756        32     1.767     1.089 -51.99   0
        29    570.9546    965.7125 307.6587776  +6.2810810     677.1829     1527.239     1632.526     90.73425     180.8933     361.9666      2.489     5.59     1195.385      63.8025      97.1582         8     1.471     0.600 -74.65   0
        30    612.0720    963.3309 307.6417394  +6.2834291     823.5514     1711.249     1039.949      90.8777     181.1811     361.9306      2.317     5.30     1194.757      63.8025     122.4258         8     1.215     0.670 -68.96   2
        31    456.4945    961.0380 307.7065871  +6.2792115     1284.351     3188.684     3312.479      90.8777     180.8933     362.1105      2.442     8.02     1196.285      63.8025     143.5638        27     1.838     1.404 -54.22   0
        32    891.0244    952.8550 307.5259530  +6.2969970     29462.39     61998.96     69525.51     90.30252     181.1092     361.7506      2.232     4.90     1190.806      63.8025      3429.41        88     2.085     1.533 -58.99   0
        33    198.6587    951.7897 307.8142392  +6.2744549     763.7103     2137.307     2438.931     90.01355     180.8933     361.6425      2.511     8.31     1195.429      63.8025     91.58618        16     1.751     1.102  73.56   0
        34    737.0514    944.9127 307.5903247  +6.2951807     3625.966     8906.829     10803.87     90.73425     180.8933     362.0746      2.579     6.49     1192.531      63.8025     402.0591        55     2.211     1.519 -59.38   0
        35    788.8308    946.6075 307.5687100  +6.2961956     1484.809     3268.562     3844.408     90.15815     180.8213     361.7146      2.266     7.32     1191.532      63.8025     176.5111        24     1.638     1.123 -31.47   0
        36    207.9104    943.7415 307.8106591  +6.2780876     903.7964     1540.254     2000.495     90.59057     181.0373     362.1105      1.883     5.19     1195.282      63.8025     148.2594         9     1.258     0.716 -47.69   0
        37     32.0715    941.7935 307.8839273  +6.2730310     1363.429     3514.792     4006.325     90.15815     180.5329     361.8586      2.478    10.36     1193.155      63.8025     153.9073        29     1.842     1.625 -52.49   0
        38    925.3390    939.5946 307.5121105  +6.3036098     4635.034     9537.851     10550.16     90.01355     180.8213     361.7146      2.116     5.13       1190.2      63.8025     502.4078        44     1.964     1.274 -59.97   0
        39    898.9781    931.1826 307.5233676  +6.3062129     1436.437     2760.314     2529.978     90.44666     180.8933     361.8946      1.997     5.47     1189.872      63.8025     208.6775        22     1.545     1.008 -65.28   0
        40    232.4821    927.9088 307.8009636  +6.2854460     2059.039     5366.568     6671.518     90.44666     181.3249     362.0386      2.639     7.30     1195.192      63.8025     191.9808        42     1.941     1.568 -74.48   0
        41    619.8077    927.3522 307.6397275  +6.2985481     2382.914      5771.48     6819.485     90.15815     180.8213     361.5345      2.470     6.28     1192.633      63.8025     262.2687        41     1.816     1.555 -41.68   0
        42    758.5156    927.2863 307.5819796  +6.3031731     769.3252     1434.458     1715.189     90.44666      181.253     362.0386      2.171     5.53     1191.139      63.8025     102.6257         9     1.054     0.817 -50.37   0
        43      1.8071    925.7544 307.8970684  +6.2786464     1073.931     1874.173     1781.366     84.95082     151.9304     280.9629      1.758     6.46     1192.793      63.8025     138.2075        14     1.507     0.778  86.22  24
        44    544.1186    920.0192 307.6714862  +6.2990658     792.1434     2053.837     2591.283     90.30252     180.6771     361.8946      2.763     8.19     1193.395      63.8025     97.56653        11     1.931     0.971 -19.27   0
        45    976.3334    918.5081 307.4915848  +6.3140065     764.6667     1500.529     1811.578     90.59057      181.253     362.0026      2.398     4.17      1187.93      63.8025     111.8885         8     0.918     0.721 -51.41   0
        46    583.6751    917.1277 307.6551145  +6.3015730     577.2177      1381.39     1270.106     91.02093     181.3249     361.9666      2.450     6.49     1192.857      63.8025      114.828         7     1.423     0.830  33.35   0
        47    265.5612    914.0961 307.7876578  +6.2922531     584.5974      1614.55     2076.245     90.73425     180.8933     362.1105      3.315     6.46     1195.395      63.8025     97.61365         7     1.986     0.590  77.02   0
        48    867.9182    906.6181 307.5371226  +6.3153329     4416.735     9414.676     10620.39     90.30251     180.6771     361.8946      2.271     5.21      1188.46      63.8025     524.6305        45     1.879     1.404 -51.58   0
        49    404.1876    904.5200 307.7302661  +6.3008201     1081.011     2233.375     2379.197     90.30252     180.6771     361.7866      2.236     6.78     1195.302      63.8025     152.6252        15     1.189     1.084 -59.50   0
        50    305.8840    902.6513 307.7712561  +6.2983226     4359.576     11703.67     14493.51     90.73425     180.9653     362.0746      2.684     6.58     1195.594      63.8025      439.208        61     2.117     1.734 -57.28   0
        51    225.7346    901.8018 307.8046532  +6.2960056     3238.332     8960.659     10865.39     90.01355      180.605     361.7146      2.690     6.62      1194.55      63.8025     344.4121        54     2.068     1.668 -58.93   0
        52    553.4301    895.4874 307.6684342  +6.3095087     821.4464      1439.97     1591.261      90.8777     180.8213     361.8586      1.838     3.80     1192.767      63.8025     107.4392         6     0.973     0.427 -17.31   0
        53    884.1071    889.8063 307.5309455  +6.3228135     762.0322     1727.746     2010.996     90.30252     180.6771     361.7506      2.362     4.60     1187.352      63.8025     120.1277         7     1.236     0.487 -17.19   2
        54    719.8313    883.9392 307.5995404  +6.3197979     904.9617     1862.061     2129.625     90.44666     181.1092     361.8946      2.470     5.25     1190.567      63.8025     99.24719        10     1.218     0.639 -31.43   0
        55    951.2578    879.8840 307.5033186  +6.3291332     913.5455     1718.969      2766.16     90.73425     181.0373     362.0386      2.558     6.50     1186.186      63.8025     101.8275        10     1.400     0.846 -75.74   0
        56    637.7911    877.6989 307.6339081  +6.3196560     1182.871     2854.842     3661.978     90.44666      180.605     361.7506      2.726     8.14     1191.314      63.8025     156.4347        17     1.453     1.276  59.60   2
        57     35.6587    874.7054 307.8847008  +6.3008629     1358.978     3996.694     4721.168     90.59057     181.0373     362.1105      2.654     9.41     1191.349      63.8025     161.7971        37     1.846     1.675  69.68   0
        58     53.6133    874.0410 307.8772484  +6.3017363     1125.266     2319.319     2616.603     90.15815     180.8213     361.6786      2.433     7.57     1191.334      63.8025     141.7732        18     1.449     1.167 -85.16   0
        59    633.1625    867.4061 307.6361810  +6.3237543     3230.282     8510.947     9718.373     89.72365     180.7492     361.6786      2.544     6.43     1191.116      63.8025     364.7867        54     2.131     1.572 -50.81   0
        60    317.8834    860.7054 307.7676738  +6.3160490     6762.252     14187.63     19598.37     90.59057     181.4685     362.1105      2.679     6.97     1195.061      63.8025     696.0898        58     2.404     1.816 -69.67   3
        61    315.3223    860.0434 307.7687625  +6.3162373      5590.27     10220.82     13192.28     90.59056     181.0373     361.9666      2.023     6.39     1195.048      63.8025     658.7885        23     2.226     0.690 -63.07   3
        62    871.3432    863.2601 307.5371496  +6.3333573     1814.441     3814.357     4229.367      90.8777     181.0373     362.0026      2.199     5.88     1185.709      63.8025     211.1824        28     1.635     1.224 -58.23   0
        63    178.5765    873.5013 307.8252411  +6.3061252     1032.774     2541.263     2534.542      90.8777     180.7492     361.7506      2.273     7.75     1193.176      63.8025     136.1444        17     1.654     1.017  40.55   2
        64     79.7734    851.4784 307.8671195  +6.3119289     908.3189     2230.515     2882.389     90.59057     180.9653     361.8946      2.580     7.66     1190.874      63.8025     121.1982        15     1.396     1.175  24.29   0
        65    861.4092    845.2183 307.5418906  +6.3404817      1188.49      2417.32     2693.958     90.44666     180.7492     361.7866      2.271     8.14     1185.186      63.8025     166.6249        18     1.715     1.080 -52.52   0
        66    795.3931    844.1246 307.5694148  +6.3387482      1665.76     4027.305     4911.505     90.30252     180.4607     361.7866      2.485     7.25     1187.783      63.8025     213.5349        35     1.848     1.492 -67.08   0
        67    832.3758    844.5165 307.5540029  +6.3398106     1149.863     2679.579     2784.022     90.59057     180.7492     361.8946      2.291     7.03     1186.451      63.8025     134.1831        19     1.330     1.306 -79.98   0
        68     63.5552    844.5856 307.8741045  +6.3142353     1072.688     3106.041     4274.193     90.01355     180.8213     361.7146      2.814     8.98     1190.734      63.8025     150.6947        24     1.556     1.448  15.65   0
        69    531.4650    835.8683 307.6795841  +6.3334076     145718.7     407155.1     508413.4     90.73425     181.1092     362.0026      2.755     6.53      1191.39      63.8025     14306.73       195     2.471     2.028 -61.37   0
        70    375.7126    838.6462 307.7443398  +6.3270849     3209.074     9157.888     11594.24     90.73425     180.8933     361.9666      2.772     6.99     1194.198      63.8025     336.1791        59     2.103     1.808 -71.18   0
        71    318.9923    837.0421 307.7680096  +6.3258609     5145.369     15252.36     19710.78     90.15815     180.8213     361.6425      2.853     7.01     1194.661      63.8025     492.8109        74     2.265     1.893 -68.63   0
        72    869.5720    831.7841 307.5389420  +6.3463014     3179.552     7091.856     8692.178     90.30252     180.7492     361.8586      2.389     5.37     1184.462      63.8025     368.5148        43     1.902     1.424 -53.97   0
        73    636.0573    833.0424 307.6361301  +6.3380457     1642.812     3138.173     3406.305     90.59057     180.9653     362.0026      2.063     7.05     1189.513      63.8025     205.8462        19     1.429     1.316  76.07   3
        74    638.6761    831.9937 307.6350749  +6.3385658     1362.836     2638.468     3179.067     90.30251     180.4607     361.7866      1.830     7.09     1189.428      63.8025     163.3164        16     1.915     0.735  64.36   3
        75    610.7350    827.2646 307.6468677  +6.3395925     1154.495     2380.017     4153.069     90.73425     181.0373     361.9666      2.508     6.32     1189.556      63.8025     166.6987        13     1.640     0.685 -75.16   3
        76    613.6856    826.6681 307.6456592  +6.3399369      1376.75      3276.19     4926.923      90.8777     181.3249     362.0026      2.702     8.71     1189.516      63.8025     166.5684        25     1.984     1.068 -68.41   2
        77   1003.0963    825.7546 307.4835463  +6.3532074     3133.259     6601.107     7106.735     90.73425     180.9653     362.1465      2.132     5.71     1182.063      63.8025     381.1816        33     1.803     1.190 -56.31   0
