#   1 NUMBER                 Running object number                                     
#   2 X_IMAGE                Object position along x                                    [pixel]
#   3 Y_IMAGE                Object position along y                                    [pixel]
#   4 ALPHA_J2000            Right ascension of barycenter (J2000)                      [deg]
#   5 DELTA_J2000            Declination of barycenter (J2000)                          [deg]
#   6 FLUX_APER              Flux vector within fixed circular aperture(s)              [count]
#   9 FLUXERR_APER           RMS error vector for aperture flux(es)                     [count]
#  12 FLUX_RADIUS            Fraction-of-light radii                                    [pixel]
#  13 FWHM_IMAGE             FWHM assuming a gaussian core                              [pixel]
#  14 BACKGROUND             Background at centroid position                            [count]
#  15 THRESHOLD              Detection threshold above background                       [count]
#  16 FLUX_MAX               Peak flux above background                                 [count]
#  17 ISOAREA_IMAGE          Isophotal area above Analysis threshold                    [pixel**2]
#  18 A_IMAGE                Profile RMS along major axis                               [pixel]
#  19 B_IMAGE                Profile RMS along minor axis                               [pixel]
#  20 THETA_IMAGE            Position angle (CCW/x)                                     [deg]
#  21 FLAGS                  Extraction flags                                          
         1    178.9765     20.0862 307.8649339  +6.6680768     9489.126     16259.58      17363.2     78.24432     155.9305     312.0163      1.830     3.96     828.1013     55.01984     1312.943        46     1.676     1.190  47.14   0
         2    924.6701     17.8679 307.5551930  +6.6939577     3767.342     6124.331     6223.341     78.24432     156.2408     312.1095      1.729     3.89     812.6721     55.01984      554.103        31     1.554     1.055  49.46   0
         3    523.2072     18.1662 307.7219842  +6.6804180     2676.428     4577.434     4994.698     77.74753     155.9305     311.9232      1.883     4.01     816.6683     55.01984     395.0785        25     1.418     1.003  46.57   0
         4    725.6513     16.3499 307.6379340  +6.6879403     1735.306     2711.278     3146.767     78.36803     155.9926     312.0784      1.717     3.92     816.1317     55.01984     303.7888        18     1.373     0.925  47.94   0
         5    461.4146     16.8381 307.7477019  +6.6788961      1692.09     2640.523     2648.409     77.99632     155.9305     311.8611      1.723     4.21     818.3129     55.01984     230.6775        17     1.366     0.818  49.08   0
         6    989.3820     14.1658 307.5284297  +6.6976433     1701.642     2918.466     3652.634     77.74753     155.9305     311.9542      1.951     4.35     809.7125     55.01984     251.6514        15     1.320     0.740  55.09   0
         7    708.6941     10.5610 307.6451741  +6.6897631     6801.455        10949     11357.87     78.36803     156.0547     312.2336      1.738     3.93     816.0558     55.01984     906.5885        34     1.556     1.046  44.45   0
         8    628.9685      9.8785 307.6783217  +6.6873789     3281.004     5323.906     5512.971     78.12042     156.1168     312.1095      1.754     3.91     816.1876     55.01984     483.9343        25     1.596     0.863  51.57  16
         9    330.7916      9.5051 307.8022186  +6.6775428     951.8213     1719.097     1815.009     77.99632      155.744     311.8921      1.804     4.91     826.8019     55.01984     161.9797        16     1.374     0.960  59.60   0
        10    429.1395      6.1598 307.7614711  +6.6822222     5674.648     9412.567     9942.889     78.24432     156.1168     297.6527      1.746     3.97     820.2936     55.01984     834.7203        32     1.562     1.041  50.19  24
        11     30.0939      5.6026 307.9272763  +6.6690476     7623.852     12663.59     13241.63     77.87202     155.8062     292.1009      1.753     3.91     829.6227     55.01984     1044.312        39     1.614     1.104  44.03  16
        12    675.4525      4.6756 307.6591834  +6.6910813      819.535     1194.667     807.6043     78.24432     156.1788     282.1139      1.453     2.76      815.967     55.01984     140.0389         8     0.906     0.594  14.40  16
        13    326.0340      1.9080 307.8044516  +6.6805190      9253.74     12981.48     13636.88     74.56761     132.2675     244.0798      1.467     4.02     827.0616     55.01984     1574.852        28     1.482     0.887  16.46  24
        14    504.8675      3.1672 307.7301090  +6.6859951     843.5638     1111.016      995.947     78.12042     147.2395     262.6608      1.369     4.50     816.5405     55.01984     120.3338         8     0.868     0.664  36.31  16
        15     99.4481      1.9074 307.8985884  +6.6729065     2072.984     2997.282     3226.219     74.43759     132.2675     244.0798      1.557     3.96     826.4792     55.01984     327.7802        16     1.315     0.770  25.39  24
        16    384.5190      7.9876 307.7799479  +6.6799716     713.1003     1119.142      1606.43     77.87202     155.8062     310.4913      1.384     3.82     823.3641     55.01984     102.2103         6     0.839     0.498  86.76   0
        17     90.6660      1.2627 307.9022587  +6.6728772     728.7853     1129.602     1358.345     67.18731     123.0871     233.7819      2.079     4.23     826.6573     55.01984     157.7364         7     1.296     0.393   9.22  25
        18   1006.8856    990.7120 307.4884539  +6.2951047     3767.025     7074.439     7358.064     77.99632     156.3648     312.2646      2.009     4.67     841.5341     55.01984     426.7108        38     1.857     1.171  51.99   0
        19    749.2729   1022.3423 307.5943450  +6.2734575       1207.7     1901.104     1909.378     78.36803     141.9469     255.5196      1.709     4.80     848.4606     55.01984     144.1708        15     1.135     0.977  65.13  24
        20    572.5665   1023.7733 307.6676559  +6.2669619     1004.778     1323.534      1670.82     66.46251     122.3768     233.0348      1.210     3.42     851.0266     55.01984     229.0919         6     0.920     0.416   3.35  24
        21    885.1000    991.1882 307.5389996  +6.2908499     10049.65     19150.85     20987.98     77.99632     155.8684     311.9232      2.052     4.33     845.1676     55.01984     1194.694        60     1.854     1.421  43.35   0
        22    597.4944    991.3837 307.6583955  +6.2811659     1264.414     2231.602     2383.981     77.99632     155.9305     311.9853      1.827     6.85     850.1949     55.01984     155.8514        16     1.626     0.809  40.52   0
        23    529.2187    990.1234 307.6867827  +6.2794024     3442.438     6219.824     7387.865     77.74753     155.8684     312.1095      1.982     4.16     850.7761     55.01984     522.4358        35     1.726     1.122  32.39   0
        24    638.8222    989.2714 307.6413091  +6.2834194     1119.023     2054.565     1986.918     77.87202     155.9305     312.1405      1.918     6.51     849.7693     55.01984     153.6793        17     1.538     0.856  51.34   0
        25     63.9243    988.6633 307.8799923  +6.2644010     841.7421     1530.913     1661.051     78.49154     156.1168     312.1095      2.156     5.89     847.9802     55.01984     118.9036        10     1.290     0.758  58.17   0
        26    482.5088    986.8020 307.7062860  +6.2792101     1891.746     3225.791     3362.936     77.49794     155.8062     311.9232      1.850     5.44     850.7902     55.01984     247.5345        26     1.857     0.909  45.29   0
        27    916.8879    978.8322 307.5262162  +6.2970102     35644.81     65459.27      72629.8     78.36803     155.9305     312.1405      1.995     4.32     844.4028     55.01984     3947.929        88     1.939     1.416  45.53   0
        28    224.0412    977.0956 307.8139137  +6.2745536     1452.544     2458.504     2129.449     78.24432     156.0547     312.2646      1.730     4.23     849.9587     55.01984     222.4306        18     1.419     0.823  52.96   0
        29    111.9168    975.8399 307.8605025  +6.2713070     618.0723     812.1921     303.0339     78.24432     156.1168     312.1094      1.423     3.50     847.6494     55.01984     100.3713         5     0.748     0.679 -15.98   0
        30    622.8604    974.8935 307.6484187  +6.2888211     784.9985     1068.252     955.7834     78.12042     156.0547     312.1715      1.519     4.56      849.722     55.01984     109.0393         7     0.897     0.658  55.02   0
        31    814.6498    972.5620 307.5688726  +6.2961889     1935.779     3299.898     3580.962     77.99632     156.1168     312.0474      1.818     4.46     845.6753     55.01984     236.6318        25     1.462     1.136  60.32   0
        32    763.0621    970.3733 307.5903636  +6.2953707     5635.151     10047.74     11469.99     77.87202     156.1168     312.0784      1.970     4.20     847.0698     55.01984     735.8593        42     1.787     1.174  43.56   0
        33    549.5165    969.4321 307.6790516  +6.2886227     868.8391     1286.364     1487.463     78.24432     155.9305     312.0474      1.779     5.37     850.2451     55.01984     104.5782        11     1.278     0.636  46.35   0
        34    232.3815    969.2141 307.8107172  +6.2780869     1289.992     2212.104     2457.109     77.87202     155.8062     312.0474      1.909     5.40     849.7149     55.01984      150.014        17     1.486     0.816  50.67   0
        35    951.2828    965.5902 307.5123797  +6.3036229     5512.839     9896.761        11071     77.87202      155.744     311.9853      1.947     4.33     843.1414     55.01984     658.4687        45     1.849     1.256  47.77   0
        36    196.9297    969.0513 307.8254400  +6.2769642     707.9564     1173.784     1226.677     78.12042     156.0547     312.1715      1.608     3.96     848.8688     55.01984     119.4995         5     1.308     0.342  32.69   0
        37     57.2550    967.4265 307.8834782  +6.2729430     2335.433     4403.167     4621.519     77.87202     156.1788     311.9853      1.948     4.87     847.6837     55.01984     290.4429        30     1.707     1.116  39.17   0
        38    207.2676    961.5560 307.8214011  +6.2804052     609.6065     897.2767     561.5087     78.24432     156.0547     312.1715      1.262     2.87     848.9349     55.01984     106.7831         5     0.706     0.474 -16.69   0
        39    633.2444    959.3958 307.6446281  +6.2955656     752.4622     1241.398     1381.072     77.62283      155.744       311.83      1.880     4.44     849.3486     55.01984     107.4656        10     1.025     0.755  40.81   0
        40    924.9174    957.1347 307.5236092  +6.3062347     1826.226     3195.581     3227.872     78.36803     156.3648     312.2025      1.880     4.46     843.3883     55.01984     218.2028        23     1.431     1.136  42.64   0
        41    645.6711    953.0833 307.6396810  +6.2985867     3899.316     6760.697     7003.963     78.49154     156.3648     312.1715      1.819     3.90     849.0373     55.01984     523.4377        35     1.706     1.093  48.47   0
        42    784.5524    953.8401 307.5819960  +6.3029129     1164.525     2156.173      2671.71     78.12042     156.1168     311.9542      2.085     5.16     846.1459     55.01984     207.6989        16     1.508     0.806  35.92   0
        43    257.9026    953.2891 307.8006592  +6.2855168     4021.178     6732.475     6749.647     78.24432     156.5505     312.1405      1.800     4.07     849.4316     55.01984     492.5709        32     1.645     1.059  47.04   0
        44    467.9568    951.7335 307.7135070  +6.2931990     1034.692     1696.457     1761.561     78.24432     156.0547     312.1715      1.740     5.20     849.8655     55.01984       162.34        13     1.359     0.730  66.59   0
        45     26.7339    950.7748 307.8967110  +6.2787903     1874.166     3349.177     4012.782     77.87202     156.0547     312.0474      1.996     4.38     847.7467     55.01984     241.8812        23     1.438     1.005  41.69   0
        46    877.1501    949.7997 307.5436870  +6.3076701     743.1553     1533.237     1537.426     77.49794      155.744     311.7057      2.032     4.92     844.2944     55.01984     107.8553         7     1.422     0.483  39.35   0
        47    570.3065    945.6872 307.6712185  +6.2991200     1571.562     2500.767     2291.951     78.24432     156.5505     312.2025      1.694     4.68     849.6954     55.01984     231.7721        16     1.419     0.804  46.83   0
        48    293.7024    946.3846 307.7860297  +6.2895678     777.1344     1055.024     1484.129     78.24432     155.8684     311.9232      1.515     4.63     849.7061     55.01984     129.7249        11     1.235     0.672  27.81   0
        49   1001.3561    945.7115 307.4922556  +6.3134971     632.7346     1329.373     1821.232     78.24432     155.9926     312.1715      2.249     4.02     842.0198     55.01984     71.19775         6     0.915     0.506  46.85   0
        50    609.6042    942.0963 307.6550240  +6.3019165     1068.071     1605.953     1411.688     77.99632     155.8062       311.83      1.557     5.44     849.5154     55.01984     165.6403        15     1.541     0.749  33.87   0
        51     58.8343    942.2824 307.8836720  +6.2833750     652.6389     1063.483     1806.192     78.24432     156.1168     312.1095      2.352     5.81     847.2936     55.01984      92.4679         7     1.414     0.671   2.41   0
        52    289.4488    939.8030 307.7880174  +6.2921419     1333.734     2227.893     2493.226     77.62283     155.8684     311.7368      1.755     4.43     849.5781     55.01984      198.563        17     1.215     0.997  50.17   0
        53    756.5643    935.4547 307.5942328  +6.3095682     661.2391     1197.921     1599.974     78.12042     156.1168     312.1715      1.993     5.05     846.6787     55.01984     89.20728         8     1.110     0.649  77.41   0
        54    893.9026    932.4116 307.5373142  +6.3154066     6130.974      10885.6     11539.34     77.99632     155.8684     311.9542      1.883     4.31     843.3411     55.01984     783.0897        40     1.713     1.141  47.07   0
        55    429.8161    929.6230 307.7300856  +6.3010489     1893.489     3436.597     3983.309     77.99632     155.9305     312.0474      1.950     4.52     848.9676     55.01984     253.3436        21     1.495     0.919  37.36   0
        56    331.3998    927.8989 307.7710023  +6.2984626     8471.138     14347.26     15809.54     77.74753      155.744     311.7368      1.824     3.80     849.3426     55.01984     1161.229        41     1.645     1.138  47.03   0
        57    251.4342    926.8927 307.8042345  +6.2961959     6319.556     10894.85     11229.47     78.36803     155.9926     312.2025      1.857     4.05      848.538     55.01984     830.5575        41     1.684     1.169  43.96   0
        58    763.9354    921.6162 307.5916367  +6.3155269     660.7951     929.4465     1258.471     77.74753     155.9926     312.0163      1.561     6.23     846.3129     55.01984     107.4582         9     1.233     0.919  43.68   0
        59    579.4737    921.0616 307.6682402  +6.3095920     1130.297     1600.872     1518.208     78.36803     156.1168     312.1405      1.492     2.75     849.1219     55.01984     181.0702        10     0.958     0.633  31.62   0
        60    909.1657    917.2089 307.5314864  +6.3221912     946.1691      1556.72     1514.178     77.74753     155.9305     311.9853      1.667     6.00     842.6168     55.01984     129.8386        12     1.153     0.878  53.81   0
        61    866.2377    916.6064 307.5493299  +6.3210085     609.0709     996.3229     1655.838     77.37284     155.8684     311.8921      1.899     3.95     843.7648     55.01984     106.4313         6     0.926     0.483  38.29   0
        62    141.9225    916.5076 307.8500488  +6.2968063     608.0637     934.2089     925.3301     77.99632     156.3648     312.1715      1.360     3.71     847.0837     55.01984     79.89642         6     0.793     0.500   0.95   0
        63    407.4350    914.6199 307.7398825  +6.3064923     576.3149     787.7777     1214.352     77.74753     155.9305     311.9232      1.764     4.64     848.6928     55.01984     84.29755         5     0.983     0.771  89.65   0
        64    977.8073    913.9009 307.5030976  +6.3258443     679.0533      1047.86     1425.919     77.99632      155.744     311.9542      1.725     2.63     841.4562     55.01984     109.5667         5     0.758     0.495 -38.25   0
        65    745.9303    910.3763 307.5994892  +6.3195655     1481.878     2320.131     2806.577     77.87202     155.9926     312.1095      1.767     4.31     846.7339     55.01984     181.1613        15     1.151     0.904  46.60   0
        66    977.5352    906.7402 307.5034503  +6.3287912     1166.279     2033.976     2247.902     78.36803     156.0547     312.1715      1.801     6.43     841.1511     55.01984     154.1965        15     1.477     0.787  43.13   0
        67    610.2649    906.9005 307.6559322  +6.3164673     628.8395     1221.217     967.0436     78.24432     156.2408     312.1095      1.994     3.68     848.6761     55.01984     120.7235         6     1.097     0.904  69.75   0
        68    531.0171    906.3088 307.6888542  +6.3140608     1108.237     1495.594     1603.715     77.99632     155.8684     312.0474      1.494     4.38      848.615     55.01984     142.7742        13     1.162     0.860  61.75   0
        69    664.4316    903.9066 307.6335436  +6.3195138      2248.99     3884.518     4325.772     78.36803     155.9305     312.1715      1.772     4.37     847.7725     55.01984     320.2352        26     1.612     0.983  42.96   0
        70    825.5332    900.4329 307.5667723  +6.3263272     875.1281      1544.81     1728.227     78.12042     156.1788     312.1095      1.854     6.95     844.2138     55.01984     115.4821        15     1.521     0.891  24.65   0
        71    204.7945    899.1293 307.8245336  +6.3060910     1976.401     3135.372      3308.35     77.74753      155.744     312.0163      1.660     4.44     847.6744     55.01984     268.7179        20     1.483     0.890  54.13   0
        72     78.3758    899.2985 307.8770113  +6.3017748     1788.593      3072.57     3408.381     78.36803     155.8684     311.9542      1.931     4.72     845.8445     55.01984     254.2117        21     1.573     0.924  46.66   0
        73     60.9252    899.8427 307.8842376  +6.3009636     2468.653     4313.747      4616.17     78.12042     156.1788     312.1715      1.884     4.27     845.8478     55.01984     344.6345        23     1.471     0.994  57.08   0
        74    942.5695    899.3497 307.5182154  +6.3306770     648.7267     1043.776     783.4464     77.87202     156.2408     312.0474      1.818     3.46     841.6876     55.01984     118.5153         5     0.957     0.446 -11.58   0
        75    238.1611    895.6440 307.8107986  +6.3086496     715.3806     972.7017     1167.635     77.99632     156.1168     311.9853      1.500     5.08     848.1891     55.01984     106.3909         8     0.938     0.779 -85.45   0
        76    659.1516    892.9508 307.6361037  +6.3238599     6070.288     10139.48     10648.53     78.24432     155.9926     312.1405      1.770     3.80      847.644     55.01984     869.2361        37     1.584     1.103  45.13   0
        77    796.6645    893.7576 307.5789823  +6.3281194     677.2483     1137.867     767.4678     78.24432     156.0547     312.1715      1.769     3.37     844.8788     55.01984     111.6681         6     0.767     0.544  42.59   0
