#   1 NUMBER                 Running object number                                     
#   2 X_IMAGE                Object position along x                                    [pixel]
#   3 Y_IMAGE                Object position along y                                    [pixel]
#   4 ALPHA_J2000            Right ascension of barycenter (J2000)                      [deg]
#   5 DELTA_J2000            Declination of barycenter (J2000)                          [deg]
#   6 FLUX_APER              Flux vector within fixed circular aperture(s)              [count]
#   9 FLUXERR_APER           RMS error vector for aperture flux(es)                     [count]
#  12 FLUX_RADIUS            Fraction-of-light radii                                    [pixel]
#  13 FWHM_IMAGE             FWHM assuming a gaussian core                              [pixel]
#  14 BACKGROUND             Background at centroid position                            [count]
#  15 THRESHOLD              Detection threshold above background                       [count]
#  16 FLUX_MAX               Peak flux above background                                 [count]
#  17 ISOAREA_IMAGE          Isophotal area above Analysis threshold                    [pixel**2]
#  18 A_IMAGE                Profile RMS along major axis                               [pixel]
#  19 B_IMAGE                Profile RMS along minor axis                               [pixel]
#  20 THETA_IMAGE            Position angle (CCW/x)                                     [deg]
#  21 FLAGS                  Extraction flags                                          
         1      1.6643     35.5298 307.9345551  +6.6325458       177941     210774.1     228014.2      74.2622       133.03     247.7161      1.150    10.47     912.1714     56.70357     56720.77       180     2.303     1.326 -85.98  28
         2     20.5845     21.0695 307.9271870  +6.6391517      11308.8     18833.72     20248.53     80.12678     160.7664     321.5967      1.769     4.13     910.7556     56.70357     1536.242        43     1.732     1.032 -31.92   0
         3    822.3663     15.7741 307.5942257  +6.6682379     5934.116     9243.181     9388.053     80.12678     160.7024     321.4687      1.640     3.98     884.1288     56.70357     999.8593        27     1.610     0.852 -22.45   0
         4    767.5095     16.0997 307.6170089  +6.6662701     3034.801      4913.62     5190.689     80.63878     161.2776     321.6607      1.685     4.27     884.7614     56.70357     554.8304        24     1.630     0.820 -22.53   0
         5    529.5134     13.8656 307.7159758  +6.6592260     1123.837     1907.509     2470.143     80.63878      161.086     321.7247      1.853     5.54     887.4677     56.70357      190.125        15     1.501     0.869 -20.64   0
         6     45.2601     13.9081 307.9171788  +6.6429388     890.9594     1438.775     787.9285     80.51109     160.8304     321.7886      1.678     5.11     908.0981     56.70357     130.0645         8     1.153     0.640 -41.62   0
         7     60.8875     12.8651 307.9107215  +6.6438956     2969.689      5030.77      4632.83     80.63878      161.086     321.7247      1.757     4.60     906.1551     56.70357     368.0711        26     1.591     0.936 -22.44   0
         8    584.8806      9.6068 307.6931144  +6.6628389     1236.632     1734.575     1373.716     80.25509     160.4461     321.5007      1.533     4.52     887.3071     56.70357     203.7582        14     1.344     0.729 -27.24   0
         9      3.2728      8.4409 307.9348098  +6.6437808     2356.461     3618.416     3894.521     80.51109     152.8937     272.3283      1.649     4.86     913.5305     56.70357     325.3549        19     1.517     0.795 -22.83  24
        10    711.2138      6.2033 307.6407358  +6.6684725     428.5344     747.6437     811.5383     80.25508     160.5743     307.1303      1.700     3.48     885.6837     56.70357     75.08557         5     1.004     0.348 -43.34  16
        11    762.1843      3.4800 307.6196485  +6.6713011     1922.438     2988.775     3289.333     80.25509        154.7     274.9229      1.625     4.09     884.4287     56.70357     296.4528        20     1.514     0.793 -30.19  24
        12    402.5346      3.8325 307.7690768  +6.6591089     869.4516     1387.575     1167.169     80.51109     157.7949     280.0399      1.591     4.92     894.6036     56.70357     119.6228         9     1.320     0.519 -27.24  16
        13     99.4987      2.2937 307.8950392  +6.6495589     905.7262     1510.151     1778.547     79.86955     142.0806     257.6514      1.885     6.10     901.5096     56.70357     117.9243        12     1.436     0.729 -26.56  24
        14    229.7238    998.2108 307.8071024  +6.2428619     1269.951     2029.111     1774.915     80.25509     160.5102     321.5007      1.664     5.69     920.1149     56.70357     173.2324        16     1.572     0.726 -39.19   0
        15    597.2249   1022.5612 307.6537012  +6.2451307      1908.44      2811.33     2752.592     80.25509       143.45     259.7989      1.595     4.64     920.6666     56.70357     273.1769        19     1.502     0.812 -16.78  24
        16    794.9520    989.9720 307.5727082  +6.2651931     12893.52     21617.45     22488.98     80.25509     160.8943     321.6287      1.779     4.44     914.6072     56.70357     1718.461        46     1.746     1.069 -26.84   0
        17     65.5298    990.2415 307.8755400  +6.2406328     7290.374     12036.73     12984.79     80.51109     160.8943     321.7567      1.777     4.47     919.5391     56.70357     1052.656        34     1.719     0.955 -29.60   0
        18    578.3550    980.8493 307.6629465  +6.2617168       151200     244379.6     259284.6     80.63878     160.7664     321.6927      1.738     4.29     919.3823     56.70357     22370.31       101     1.849     1.126 -26.06   3
        19    580.1030    973.6653 307.6624638  +6.2647407     69750.52     114994.5       122568     80.63878     160.9583     321.7247      1.740     4.33     919.1009     56.70357     9559.371        80     1.871     1.109 -26.77   3
        20    212.3508    983.6484 307.8148094  +6.2482893     3591.518     5703.712      5738.49     80.63878     160.7664     321.6927      1.726     4.62     920.0591     56.70357     474.9121        25     1.653     0.882 -26.32   0
        21    395.6998    983.6016 307.7386892  +6.2544617     710.9391      927.065     686.0751     80.12678     160.6383     321.4047      1.347     3.98     919.6634     56.70357     117.2011         6     0.917     0.493 -40.76   0
        22    754.4305    982.6888 307.5897786  +6.2668458      883.346     1464.917     1411.469     80.76627     160.7024     321.6287      1.769     4.74     915.3575     56.70357     160.4539         8     1.326     0.587 -13.99   0
        23    789.3028    977.7817 307.5754652  +6.2700363     6382.749     10814.81     11080.54     80.51109     160.7664     321.4367      1.790     4.51     914.4512     56.70357     816.9836        39     1.713     1.115 -26.30   0
        24    887.3226    974.6521 307.5348724  +6.2746006     1396.392     2343.698     2997.852     80.76627     160.9583     321.6927      1.810     6.61     912.0038     56.70357     196.8292        21     1.752     0.864 -24.55   0
        25    209.8597    973.0470 307.8162036  +6.2525815     2183.494     3408.083     3568.063     80.63878     160.8943     321.7886      1.654     4.61     919.9868     56.70357     328.8323        18     1.524     0.737 -29.43   0
        26    713.1417    970.1982 307.6073435  +6.2706218     6829.769     11439.19     12250.28     79.99827     160.6383     321.4047      1.748     4.52     915.8776     56.70357     1067.166        36     1.706     0.982 -24.71   0
        27    569.2717    969.2424 307.6671105  +6.2662038     3948.529     6674.344     7834.993     80.51109     160.8943     321.7247      1.869     4.46     919.1772     56.70357     573.8446        30     1.681     1.012 -32.38   0
        28    428.0110    970.3124 307.7257244  +6.2610303     3778.393     6214.715     6778.146     80.25508     160.6383     321.5647      1.680     4.33     919.6489     56.70357     603.3815        25     1.661     0.831 -30.41   0
        29    705.3041    969.2024 307.6106314  +6.2707708     1131.027     1783.361     2592.678     80.25509     160.5743     321.3727      1.945     6.15     916.0257     56.70357      147.673        17     1.628     0.761 -30.27   0
        30    745.2010    965.4309 307.5941934  +6.2736611      1280.16      2026.59      2251.19     79.99827     160.7024     321.5007      1.664     4.64     915.0347     56.70357     172.7326        14     1.269     0.753 -32.41   0
        31    952.6661    959.7795 307.5082425  +6.2829196     6141.352      10739.8      10802.5     80.25509     160.8943     321.5647      1.853     4.28     909.4341     56.70357     755.6956        37     1.695     1.111 -27.91   0
        32    712.3024    957.8733 307.6081084  +6.2756812     2564.556     4482.972     6140.083     80.25509     161.0222     321.6927      2.297     8.45     915.5571     56.70357     375.4088        26     2.330     0.857 -32.92   2
        33    237.1427    959.7608 307.8053273  +6.2589819     1398.074     2131.642     2068.772     80.63878     160.9583     321.6927      1.553     4.33      919.885     56.70357     187.3226        17     1.400     0.779 -28.01   0
        34    728.0989    956.9026 307.6015824  +6.2766099     971.0216     1747.278     2095.278     80.63878     161.3413     321.5327      2.173     6.16     915.1641     56.70357     141.4689        14     1.376     0.943  -7.72   0
        35    435.6962    958.4439 307.7229356  +6.2661869     928.8567     1561.044     1654.806     80.63878     160.8304     321.8526      1.759     5.13     919.5625     56.70357      163.048         9     1.142     0.652 -11.73   0
        36    358.9865    955.3309 307.7548902  +6.2648998     1769.503     2835.135     2875.702     80.12678     160.7664     321.5647      1.630     4.70     919.5832     56.70357     283.1007        20     1.578     0.856 -27.29   0
        37    969.5647    952.2863 307.5014784  +6.2865762     586.7039     1130.671     1155.458     80.63878     160.7664     321.6927      1.969     5.97     908.6596     56.70357     98.37006         7     1.532     0.654 -33.91   0
        38    745.9767    944.8697 307.5945658  +6.2821743     7230.869     12125.09     12873.98     80.25509     160.7664     321.6607      1.763     4.31     914.4337     56.70357     1050.296        35     1.713     0.987 -23.58   0
        39    541.4242    945.3904 307.6794798  +6.2751170     4009.829     6633.365      7073.85     80.25509     160.7024     321.5647      1.786     4.35     919.1273     56.70357     527.3172        29     1.655     0.976 -26.32   0
        40    511.6996    946.6428 307.6917790  +6.2736047     1006.268     1510.713     1439.809     80.63878     160.7664     321.9165      1.505     4.93     919.2192     56.70357     158.6199        11     1.293     0.741 -27.01   0
        41    291.6791    944.0435 307.7832181  +6.2673004     14045.41      23421.6     25766.11     80.63878     160.8943     321.6927      1.810     4.57     919.7258     56.70357     2161.071        51     1.989     0.971 -30.38   0
        42    807.2291    944.1006 307.5691589  +6.2845380     975.5263     1679.057      1654.09     80.63878     160.6383     321.7247      1.748     5.63     913.2008     56.70357     158.4202        12     1.499     0.595 -30.16   0
        43    415.6826    944.6193 307.7317135  +6.2712225     1051.647     1520.477         1331     80.25509     160.5743     321.6287      1.608     4.31     919.5414     56.70357     167.5427        11     1.156     0.759 -18.58   0
        44    262.6434    941.7758 307.7953503  +6.2672618     1030.255     1728.989     1985.986     80.12678     160.7664     321.5007      1.812     3.88     919.7659     56.70357     179.2631         9     1.252     0.519 -53.74   0
        45    907.2924    938.2624 307.5278079  +6.2902880     8019.533      13528.8     14551.22     80.63878     160.9583     321.7567      1.810     4.46     910.2693     56.70357     1109.056        40     1.759     1.067 -23.06   0
        46    538.6039    937.6496 307.6809127  +6.2782178     7784.281     12755.25     13820.51     79.99827     160.7024     321.3087      1.743     4.38     918.9565     56.70357     1164.991        34     1.688     0.936 -26.18   0
        47    880.8383    934.4938 307.5389192  +6.2909609      11564.4     19924.32     21056.52     80.76627     160.7664     321.7886      1.868     4.49      910.562     56.70357     1506.686        50     1.802     1.143 -23.65   0
        48   1002.5355    933.9563 307.4884058  +6.2952417     4618.883     7797.156     8557.693     80.63878     160.8304     321.6927      1.828     4.30     906.6288     56.70357     564.7773        32     1.687     1.045 -25.63   0
        49    593.6150    934.8361 307.6581670  +6.2812207     1478.985      2465.12     2476.193     80.25509     160.7024     321.5007      1.715     4.39     917.3003     56.70357     229.6617        14     1.424     0.632 -23.52   0
        50    525.3195    933.4644 307.6865701  +6.2795005     3965.323     6707.681     7625.289     80.89356     160.9583     321.6607      1.914     4.78     918.8589     56.70357     571.0464        35     1.888     1.127 -11.39   0
        51    634.8984    932.8596 307.6410926  +6.2834179      1367.46     2071.079     2229.974     80.38319     160.8304     321.8206      1.662     4.57     916.3484     56.70357     232.0436        16     1.469     0.786 -25.64   0
        52     59.9205    931.8773 307.8798530  +6.2645344     786.2159     1472.342     1908.999     80.89356     161.1499     321.8526      1.904     4.94     918.7181     56.70357     156.8412         9     1.299     0.532 -22.97   0
        53    478.1625    929.8889 307.7062709  +6.2793968     1913.021     2858.885     2783.268     80.63878     160.8304     321.7247      1.643     4.69     918.9026     56.70357      302.441        17     1.523     0.722 -27.68   0
        54    912.6112    922.0302 307.5261467  +6.2971659     40469.68     68629.02     73374.32     80.12678     160.6383     321.5327      1.801     4.38     909.8557     56.70357     5587.867        74     1.847     1.182 -26.15   0
        55    318.2723    923.0613 307.7728886  +6.2768537     567.5354     866.1469     677.3242     80.76627     160.8943     321.7567      1.376     4.74     919.5969     56.70357     94.16089         7     0.954     0.667  89.84   0
        56    219.9405    920.3082 307.8138086  +6.2746888     1786.463     3246.461     3701.651     80.51109     160.8304     321.8526      1.940     5.28      919.644     56.70357     289.2563        19     1.756     0.702 -30.92   0
        57    618.7701    918.4606 307.6482761  +6.2888219     869.4244     1209.887     1197.304     80.38319     160.8943     321.6607      1.508     5.87     916.0023     56.70357     137.1447        11     1.497     0.649 -37.53   0
        58    107.9026    919.4860 307.8603531  +6.2712629     578.3768     862.0595     416.8644     80.63878     161.2776     321.7567      1.527     4.82     918.8131     56.70357     109.6622         6     1.178     0.574 -28.05   0
        59    758.7977    913.7240 307.5902941  +6.2954590     6036.051     10107.41     11329.26     80.12678     160.3819     321.5967      1.809     4.19     913.3847     56.70357     893.7169        40     1.812     1.117 -40.55   0
        60    810.5211    915.8039 307.5687471  +6.2963283     2358.203     3982.562     4547.875     80.25509     160.3819     321.4687      1.752     4.32     912.2234     56.70357     329.9203        23     1.550     0.853 -30.35   0
        61    228.1409    912.6550 307.8106637  +6.2781232     1234.233     2102.562     1797.847     80.76627     160.8943     321.6927      1.834     4.61     919.5955     56.70357     201.1079        18     1.566     0.805 -28.86   0
        62    545.5676    912.7761 307.6788631  +6.2887182     940.7765     1361.923     1339.409     79.99827     160.7664     321.5007      1.495     5.65     918.0895     56.70357     166.2685        11     1.261     0.713 -29.60   0
        63    192.4517    912.2239 307.8254962  +6.2771022     794.5542     1306.344     1324.566     80.12678     160.8943     321.5967      1.621     4.47     919.5268     56.70357     121.6998         6     1.048     0.541 -21.08   0
        64     53.0585    910.6196 307.8834248  +6.2730779     2580.334     4078.524     3964.208     80.25508     160.7664     321.5007      1.675     4.42     918.6706     56.70357      336.186        23     1.431     1.005 -30.51   0
        65    946.9744    908.8154 307.5123236  +6.3037670     6159.709     10671.11     10930.24     80.38319     160.7664     321.6287      1.847     4.58     908.5557     56.70357     768.6201        37     1.748     1.054 -24.44   0
        66    629.2359    903.0078 307.6444531  +6.2955506     773.5297     1454.468     1280.657     79.99827     160.7024     321.4367      1.889     4.67     915.2797     56.70357      128.808         9     1.261     0.615 -34.46   0
        67    920.8019    900.4348 307.5234738  +6.3063534     1951.801     3186.294     3363.578     79.74062     160.7024     321.5007      1.693     4.49     909.3755     56.70357     270.6846        20     1.482     0.832 -21.07   0
        68    780.4846    897.1619 307.5818484  +6.3030201     1194.272     1924.531     2141.932     80.63878     160.8304     321.6287      1.752     5.23     912.4053     56.70357     190.9317        17     1.513     0.902 -20.81   0
        69    641.4896    896.3977 307.6395886  +6.2986891     4486.527     7153.287      7900.87     79.99827     160.5743     321.4367      1.726     4.38     914.8314     56.70357     620.0635        28     1.629     0.899 -26.75   0
        70    253.5215    896.5143 307.8006736  +6.2856379      4250.68     6845.889     7330.759     80.63878     161.2137     321.7886      1.751     4.45     919.5276     56.70357     583.4791        28     1.630     0.911 -23.98   0
        71    463.6944    894.9117 307.7134627  +6.2933496     1009.946     1794.958     1246.182     80.63878     161.3413     321.7567      1.710     5.29     918.2353     56.70357     179.3099        12     1.487     0.685 -23.55   0
        72     22.3401    894.1487 307.8967387  +6.2788427      2073.29     3368.096     3786.261     80.63878     160.8304     321.6927      1.748     4.45      918.683     56.70357     292.5309        18     1.514     0.816 -25.87   0
        73    873.2744    892.8183 307.5434657  +6.3079115     1055.931     1410.885     1714.093     80.12678     160.7024     321.5967      1.514     4.11     910.0592     56.70357      180.722        12     1.261     0.698 -34.50   0
        74    944.5312    890.2925 307.5139625  +6.3113315     645.3531     1182.967     943.1668     80.63878     161.0222     321.6927      1.923     6.16     908.2819     56.70357     93.89819         9     1.200     0.928  12.49   0
        75    566.0078    888.8923 307.6711841  +6.2992611     1520.623     2439.118     2806.013     80.25509     160.5742     321.5007      1.777     5.65     916.5084     56.70357     216.9594        19     1.525     0.828 -27.24   0
        76    289.0450    890.1835 307.7861390  +6.2894437     848.1752     1210.412     2088.703     80.12678     160.7664     321.4687      1.468     3.01     919.5987     56.70357     138.1755         8     0.818     0.655 -43.69   0
        77    997.5441    887.6290 307.4920391  +6.3141986     832.0104     1558.765     1856.894     80.38319     160.9583     321.5967      3.900     7.76     905.6311     56.70357     126.7815        16     2.059     0.817 -57.37   0
