#   1 NUMBER                 Running object number                                     
#   2 X_IMAGE                Object position along x                                    [pixel]
#   3 Y_IMAGE                Object position along y                                    [pixel]
#   4 ALPHA_J2000            Right ascension of barycenter (J2000)                      [deg]
#   5 DELTA_J2000            Declination of barycenter (J2000)                          [deg]
#   6 FLUX_APER              Flux vector within fixed circular aperture(s)              [count]
#   9 FLUXERR_APER           RMS error vector for aperture flux(es)                     [count]
#  12 FLUX_RADIUS            Fraction-of-light radii                                    [pixel]
#  13 FWHM_IMAGE             FWHM assuming a gaussian core                              [pixel]
#  14 BACKGROUND             Background at centroid position                            [count]
#  15 THRESHOLD              Detection threshold above background                       [count]
#  16 FLUX_MAX               Peak flux above background                                 [count]
#  17 ISOAREA_IMAGE          Isophotal area above Analysis threshold                    [pixel**2]
#  18 A_IMAGE                Profile RMS along major axis                               [pixel]
#  19 B_IMAGE                Profile RMS along minor axis                               [pixel]
#  20 THETA_IMAGE            Position angle (CCW/x)                                     [deg]
#  21 FLAGS                  Extraction flags                                          
         1     15.9464     41.8294 307.9272782  +6.6386460     4207.409     14340.52     20597.95     92.28219     184.7847      369.239      3.259     8.32     1232.829     65.09731     500.5115        86     2.537     2.055 -15.23  24
         2    762.3633     34.2832 307.6171501  +6.6667175     1128.848     2215.441     3455.939     92.57561     184.6378      369.239      2.791     5.96      1195.97     65.09731     151.8981        15     1.388     0.964 -12.68   3
         3     83.9815     18.0001 307.8997897  +6.6507688     3169.487     10746.69     14514.45     92.13512     184.1966      368.945      3.064     8.29     1228.292     65.09731     373.0308        73     2.413     1.978 -20.66   0
         4    413.0076     18.7161 307.7629482  +6.6614899     853.2926     2239.115     3321.584     92.13512     184.3438     369.1288      2.987     8.24     1212.295     65.09731     121.6466        14     2.154     0.881 -39.71   0
         5    626.6315     11.2329 307.6743642  +6.6717129     6577.912     14011.38     18239.24     91.98783     184.4174     369.0185      2.440     8.47     1200.154     65.09731     700.5634        51     2.626     1.185 -18.58  19
         6    626.2642      7.4750 307.6746426  +6.6732525     5393.141     11349.88      13552.5     92.72198     184.7113     364.3217      2.334     6.93     1200.142     65.09731     552.4819        40     2.270     1.098  -6.78  19
         7    526.4975      5.7798 307.7161873  +6.6706234     1853.184     5691.556     8115.256     92.42902     184.4909     347.4416      3.118     9.92     1201.624     65.09731     192.7052        52     2.273     1.758 -16.30  16
         8    251.9070      3.4633 307.8304506  +6.6623992     2935.812     7507.587     11204.37     92.57561     177.6763     315.7481      3.410    12.86     1226.018     65.09731     308.6989        59     3.199     1.439 -26.92  24
         9     18.7018      2.7902 307.9274451  +6.6548595     831.8813     1778.997     1308.718     92.28219     169.3932     304.2434      2.163     7.53     1231.171     65.09731     95.63184        18     2.192     0.725 -21.78  24
        10    909.2993      2.0967 307.5571188  +6.6848994     855.2212     1588.225      2089.88     90.20148      160.007     292.1934      2.266     5.58     1193.065     65.09731     119.5691        10     1.374     0.640 -12.34  24
        11    612.4893      1.7728 307.6805616  +6.6751478     1086.187     1951.297      2988.91     86.67482     154.3122     286.0492      2.349     6.10     1200.707     65.09731     162.7357        14     1.468     0.714  -5.76  24
        12    431.7811      2.7100 307.7556775  +6.6687272     7613.081     17127.36     21029.11     92.28219     168.1881     302.9929      2.485     8.83     1211.083     65.09731     808.8787        51     2.501     1.271  -8.41  24
        13    883.3683    994.3356 307.5348503  +6.2742642      1046.24     2158.578     2149.173     92.28219     184.7847     369.2757      2.133     6.76     1254.178     65.09731     139.4653        14     1.314     1.159 -23.52   0
        14    272.5860   1022.5563 307.7876983  +6.2422450     755.2153     1327.176     1596.654     91.84029     164.6846     298.1656      1.827     6.68     1257.707     65.09731     98.24792         9     1.505     0.832  -9.91  24
        15    205.9550    992.5838 307.8163873  +6.2523935     1063.466     2671.104     3206.688     91.98783     184.5644     369.0553      2.403     8.23     1256.735     65.09731     156.5934        20     2.060     0.919   1.71   0
        16    708.3465    989.7504 307.6077304  +6.2703345     4346.119     9951.139     12505.84     92.72198     184.7113     369.3491      2.606     6.65     1255.901     65.09731      508.672        58     2.460     1.491  -3.20   0
        17    423.7543    990.1370 307.7259720  +6.2606847      2269.38       5503.2     6618.322     92.42902     184.6378     369.3491      2.594     6.31     1255.283     65.09731     270.9424        41     1.848     1.540 -18.71   0
        18    741.5398    984.9127 307.5940988  +6.2734376     875.0897     1505.442     2614.355     92.57561      184.858     369.4225      2.209     5.00     1255.509     65.09731     120.2881         9     1.246     0.568 -21.22   0
        19    948.3109    979.1991 307.5083677  +6.2826735     4718.952     9488.318     9819.865     91.69252      184.123     369.0185      2.054     5.06     1252.392     65.09731     631.3473        40     1.889     1.176 -13.40   0
        20    232.6906    979.5340 307.8057158  +6.2586772     781.2513      1628.22     1666.316     92.57561      184.858     369.3124      2.443     7.16     1256.946     65.09731     85.59631        13     1.594     0.900 -59.03   0
        21    707.3855    977.7927 307.6085284  +6.2752408     1597.711     3916.566     5059.805     92.13513     184.4174     369.1288      2.656     9.71     1255.142     65.09731     204.0823        32     2.369     1.110 -22.82   0
        22    355.1767    975.6158 307.7549527  +6.2643907     970.5941     2732.725     2720.674     92.28219     184.4909     369.2022      2.456     9.52     1256.261     65.09731     125.9116        20     1.946     1.299 -30.46   0
        23    537.0848    965.2369 307.6797128  +6.2747501     2333.476     5855.499     8012.787     92.57561     184.7113     369.2757      2.860     7.09      1256.07     65.09731     244.6914        45     2.036     1.579  -6.61   3
        24    534.2970    957.4219 307.6811322  +6.2778845     4571.046     10910.16     13717.98     92.42902     184.4909      369.092      2.654     5.80     1255.856     65.09731     496.7119        56     2.021     1.619  -9.01   3
        25    287.3777    964.1995 307.7835063  +6.2668389     7799.683        19455      23797.6     92.13513     184.3438     368.9818      2.615     6.02     1257.202     65.09731     853.6125        81     2.319     1.760 -19.28   0
        26    741.5971    964.5794 307.5947527  +6.2818367     4921.043     10992.11     12362.12     92.13513     184.3438     369.0185      2.330     5.46     1254.141     65.09731      611.658        53     2.065     1.461 -13.66   0
        27    902.8544    957.6302 307.5279746  +6.2900705     5717.648     11854.11     13396.28     92.42902     184.7847      369.239      2.192     5.37     1251.946     65.09731     684.9556        49     1.974     1.367 -16.14   0
        28    876.3865    954.0468 307.5390926  +6.2906706     8094.691     17496.44      20398.6     91.84029     184.4909     369.0553      2.298     5.37     1251.922     65.09731     914.7915        60     2.071     1.444 -12.92   0
        29    998.0773    953.4249 307.4885445  +6.2949707     3528.912     7026.386     7868.252     92.13512     184.5644     369.2757      2.080     5.74     1249.646     65.09731     393.9012        37     1.942     1.169 -15.99   0
        30    589.4152    954.0762 307.6583405  +6.2811043     772.5848     1767.724     2095.305     91.98783     184.4174     369.1655      2.397     5.67      1255.43     65.09731      107.715         9     1.156     0.785 -71.67   0
        31    520.7640    953.3208 307.6868926  +6.2791267     2219.917     5439.433     6764.791     92.42902     184.7847     369.3124      2.707     7.20     1255.745     65.09731     271.8314        38     2.073     1.362  -6.35   0
        32    630.8487    951.9365 307.6411947  +6.2833691     689.8558     1522.512     1873.826     92.42902     184.6378     369.3858      2.322     7.21     1254.677     65.09731     113.2217         8     1.532     0.950  -5.25   0
        33    474.7698    949.4579 307.7061337  +6.2791871     983.2947     2341.055     2911.467     92.28219     184.7113     369.2022      2.656     8.43     1255.574     65.09731     126.5593        15     1.771     1.154  -9.61   0
        34    908.1563    941.5467 307.5263067  +6.2968889     28407.53     60261.56     68819.98     92.57561     184.7113     369.3124      2.287     5.16     1251.094     65.09731     3436.596        88     2.142     1.539 -16.40   0
        35    215.5834    939.6080 307.8141618  +6.2745927     782.6545      1992.21     3163.152     92.13513     184.4174     369.1288      3.091     4.92     1255.442     65.09731     108.6112         9     1.522     0.450  -7.44   0
        36    806.5385    935.4551 307.5687371  +6.2960256     1523.736     3404.463     4163.542     92.72198     184.7113     369.2757      2.549     7.28     1250.948     65.09731     218.0652        25     1.671     1.480   2.26   0
        37    754.4402    933.4362 307.5904539  +6.2951256     3851.986     8809.972     10688.87      92.2822     184.7113     369.1655      2.462     5.49     1251.714     65.09731     458.2052        49     1.943     1.564 -31.08   0
        38    223.9418    932.4757 307.8109277  +6.2778178       831.97     1937.619     2576.892     92.72198     184.7113     369.2757      2.888     5.97     1255.213     65.09731     103.3307         9     1.283     0.780 -64.32   0
        39     49.4559    930.9833 307.8834793  +6.2725908     1522.262      3525.72     4195.905     91.98783     184.6378     369.0185      2.488     7.73      1253.41     65.09731     186.8215        23     1.685     1.218 -23.30   0
        40    942.3958    928.2881 307.5125194  +6.3035022     4405.496     9711.502     10812.99     91.98783     184.3438      368.945      2.294     5.74     1249.884     65.09731     515.3108        47     1.982     1.431 -28.80   0
        41    915.7836    919.8325 307.5238597  +6.3061099     1348.115     2688.069     2869.544     92.13512     184.4174     369.1655      2.277     6.86     1249.913     65.09731     166.4701        18     1.497     1.036   0.28   0
        42    249.7498    916.6901 307.8007327  +6.2852001     2191.635     5739.952     6798.981     92.57561     184.4909     369.4959      2.662     7.22      1255.63     65.09731      273.683        42     1.916     1.541   7.43   0
        43    637.0474    916.0457 307.6398166  +6.2983976     2444.136     5991.377     6783.921     92.57561     184.5644     369.3491      2.517     6.34     1252.762     65.09731     294.4603        42     1.997     1.407  -5.51   0
        44    776.6454    915.8365 307.5818130  +6.3031330     839.8585     1841.746     2152.157     92.28219     184.7113      369.239      2.307     6.04     1250.463     65.09731     142.6292         9     1.480     0.707 -26.72   0
        45     18.3257    914.1711 307.8969786  +6.2784899     1196.232     2684.548     2994.353     92.42902     184.7113     369.2757      2.311     8.16     1252.829     65.09731     130.1338        21     1.677     1.110 -20.01   0
        46    460.6564    914.1863 307.7131774  +6.2932821     595.6556     1413.497     1505.506     91.84029     184.5644      368.945      1.883     3.65     1254.912     65.09731     107.3394         5     1.000     0.383   4.32   0
        47    562.5808    908.0283 307.6710289  +6.2992261     731.5464     1718.337     1728.706     92.13512     184.4909      369.239      2.534     7.19     1253.863     65.09731      109.787        10     1.448     0.999 -20.92   0
        48    281.8141    902.5994 307.7878809  +6.2920916      739.632     1550.102     2325.366     92.13512     184.3438     369.0553      2.284     6.70     1256.001     65.09731     111.1627         9     1.591     0.791  -9.74   0
        49    885.0883    895.2046 307.5374353  +6.3152605      4248.45     9350.346     10385.79     91.98783     184.3438     368.9818      2.320     5.66     1248.943     65.09731     477.1295        49     2.021     1.385 -11.60   0
        50    322.9379    891.2239 307.7711733  +6.2981642     4400.469     11749.35     14680.28     92.13512     184.7113     369.2022      2.699     6.72     1255.186     65.09731     443.5096        64     2.183     1.739  -6.23   0
        51    243.1087    890.1957 307.8043799  +6.2959192     3317.545     8857.384     10670.53     92.13512     184.3438     369.0553      2.578     6.75     1254.957     65.09731     357.5558        54     2.093     1.681   0.43   0
        52    422.0134    891.9288 307.7299795  +6.3011835     999.0031     2216.463     2618.929     91.98783     184.4174     369.1655      2.479     6.04     1254.666     65.09731     132.5925        11     1.354     0.758 -11.20   0
        53    570.0139    883.6243 307.6687550  +6.3095522     690.6418     1484.539     1754.747     92.28219     184.4909      369.239      1.685     4.06     1252.502     65.09731     96.52991         6     1.397     0.338 -27.78   0
        54    901.5035    880.6772 307.5310972  +6.3218057      642.261     1361.254     2083.732     92.28219     184.9314     369.3858      3.136     6.04     1247.957     65.09731     104.1814         7     1.425     0.720 -52.17   0
        55    737.3554    872.7623 307.5995763  +6.3196139     899.2053     1983.633      3029.25     92.28219     184.7113     369.2022      2.554     6.29     1249.274     65.09731     128.4135        12     1.700     0.653  -5.72   0
        56    968.9525    869.0275 307.5034545  +6.3288581     862.3172     1906.449     3395.093     92.13512     184.7847      369.239      3.301     4.21     1246.363     65.09731     109.3883         9     0.802     0.792 -72.69   0
        57    655.9514    866.9365 307.6335996  +6.3193085     1233.561      3026.46     3288.127     92.42902     184.6378     369.3858      2.252     8.36     1250.245     65.09731     136.6144        23     1.632     1.502  72.79   0
        58    522.4882    868.5599 307.6890080  +6.3141881     624.0114     1466.303     1487.254     92.57561     184.6378     369.3491      2.376     4.27     1253.213     65.09731      106.829         6     1.221     0.425  44.92   0
        59     52.9900    863.4208 307.8842786  +6.3006097     1413.768     3602.231     3985.023     92.13512     184.3438     369.1288      2.586     8.92     1251.607     65.09731     182.4225        27     1.904     1.265   2.98   0
        60    195.4099    863.9807 307.8250791  +6.3051488     622.6891     1877.762     2756.127     92.13512     184.3438     369.1655      2.613     4.23     1253.897     65.09731     114.1801         6     1.518     0.337 -44.97   2
        61     70.5448    862.9176 307.8770009  +6.3014058     849.2134     2025.282     2875.563     92.57561     184.7113     369.3858      2.674     6.96     1251.944     65.09731     148.8467        11     1.465     0.928 -60.97   0
        62    650.3754    856.1275 307.6362775  +6.3235865     3383.852     8484.938     10202.03     92.13512     184.5644      369.239      2.554     6.14     1249.537     65.09731     400.5267        52     2.140     1.558 -15.14   0
        63    888.0929    851.9548 307.5376264  +6.3332218     1710.105     3591.821      3580.04     92.57561     184.6378     369.4592      2.262     6.05     1246.759     65.09731     202.5909        25     1.548     1.285 -11.78   0
        64    333.6986    849.4728 307.7680994  +6.3157658      7386.55     19952.88     25614.56     92.28219      184.858     369.2757      2.789     6.65     1253.887     65.09731     756.5714        80     2.343     1.822 -11.66   0
        65     98.2804    839.9954 307.8662449  +6.3118011      731.946     1444.632     1960.565     92.13512     184.1966     369.0185      1.998     5.14     1251.856     65.09731     96.67224         6     1.351     0.552   6.08   0
        66    878.9056    833.6319 307.5420545  +6.3404833     1160.729     2528.707     2461.846     92.72198     184.4909     369.4225      2.377     6.80     1245.873     65.09731     148.6364        15     1.563     0.830 -19.80   0
        67    850.0995    833.6399 307.5540258  +6.3395222     1052.227     2420.238     2200.264     92.57561     184.5644     369.5693      2.381     8.17     1246.256     65.09731     139.2463        17     1.882     0.992 -18.38   0
        68    812.6182    832.9456 307.5696257  +6.3385622     1618.673     4164.974     4918.981     91.98783     184.7113     369.0553      2.592     7.23     1246.398     65.09731      222.582        33     1.870     1.384 -18.47   0
        69    548.6079    824.5134 307.6796249  +6.3332495       150009     403826.1     511693.5     92.13513     184.3438     369.0553      2.755     6.57     1249.485     65.09731     16724.86       199     2.485     2.039 -15.70   0
        70    393.0073    827.2214 307.7441976  +6.3269368      3293.16     9333.293     11850.15     91.98783     184.4909      369.092      2.770     6.99     1251.958     65.09731     379.2875        64     2.295     1.796  -7.75   0
        71    336.1028    825.8466 307.7678912  +6.3256030     5175.067     14720.27     19039.93     92.57561     184.6378     369.4959      2.841     7.07     1252.823     65.09731     535.7891        76     2.404     1.840 -11.87   0
        72    654.8815    821.7438 307.6355522  +6.3379364     1674.685     4175.531     5520.558     92.57561     184.7113     369.3491      2.702     8.60     1247.148     65.09731     173.2603        34     2.032     1.308  -8.29   0
        73    886.9012    820.4001 307.5391722  +6.3462136     3171.097     7243.269     8920.103     91.98783     184.2702     368.8347      2.511     6.23     1244.857     65.09731     356.1753        42     2.004     1.354 -15.96   0
        74    629.4418    815.6083 307.6463293  +6.3396224     1717.151     4265.942     6329.537     91.84029     184.4909     369.0185      3.233     7.40     1246.904     65.09731     205.2955        34     1.983     1.491  -7.35   0
        75   1020.2585    814.4462 307.4839473  +6.3531030     2949.767     6293.981      6871.05     92.57561     184.7113     334.6787      2.206     5.72     1241.626     65.09731     338.2386        38     1.899     1.290 -13.14  24
        76    817.5820    816.4163 307.5681135  +6.3455536     711.7792     1643.507     1451.912      92.2822     184.3438      369.239      2.301     3.90      1245.32     65.09731     112.4921         5     0.984     0.444 -14.17   0
        77     80.5508    833.6886 307.8738239  +6.3138115     1140.248     3198.089     4590.062     92.57561     184.4909     369.4225      2.926     9.19     1251.468     65.09731     152.8672        21     1.828     1.290  15.78   0
