#   1 NUMBER                 Running object number                                     
#   2 X_IMAGE                Object position along x                                    [pixel]
#   3 Y_IMAGE                Object position along y                                    [pixel]
#   4 ALPHA_J2000            Right ascension of barycenter (J2000)                      [deg]
#   5 DELTA_J2000            Declination of barycenter (J2000)                          [deg]
#   6 FLUX_APER              Flux vector within fixed circular aperture(s)              [count]
#   9 FLUXERR_APER           RMS error vector for aperture flux(es)                     [count]
#  12 FLUX_RADIUS            Fraction-of-light radii                                    [pixel]
#  13 FWHM_IMAGE             FWHM assuming a gaussian core                              [pixel]
#  14 BACKGROUND             Background at centroid position                            [count]
#  15 THRESHOLD              Detection threshold above background                       [count]
#  16 FLUX_MAX               Peak flux above background                                 [count]
#  17 ISOAREA_IMAGE          Isophotal area above Analysis threshold                    [pixel**2]
#  18 A_IMAGE                Profile RMS along major axis                               [pixel]
#  19 B_IMAGE                Profile RMS along minor axis                               [pixel]
#  20 THETA_IMAGE            Position angle (CCW/x)                                     [deg]
#  21 FLAGS                  Extraction flags                                          
         1    257.2048     18.4510 307.8328879  +6.6698819     629.9958     1185.963      1703.53      77.4349      155.553      311.013      2.174     5.85     827.5359     54.88662     98.34583        10     1.765     0.545  54.15   0
         2    179.7014     15.8970 307.8651689  +6.6683266     8367.991     16208.89     17290.58     78.05488     156.2332     311.2299      2.021     5.35     827.3102     54.88662     984.4247        49     1.904     1.181  47.79   0
         3    925.3616     13.8233 307.5554791  +6.6942036     3228.133     5991.678     6275.316     77.68348      155.491     311.1989      1.934     5.75     813.9827     54.88662     426.5518        29     1.718     0.970  49.88   0
         4    523.8302     14.0482 307.7222782  +6.6806613      2256.35     4542.867     5254.237     77.68348     155.8007     311.2918      2.143     6.02     817.2872     54.88662     269.4457        30     1.858     1.059  47.30   0
         5    462.3224     12.7599 307.7478728  +6.6791280     1365.356     2769.162     3411.955     77.93127     155.7388     311.4157      2.218     6.71     818.2231     54.88662     172.0325        23     1.894     0.870  52.47   0
         6    726.2881     12.4293 307.6382273  +6.6881182     1606.258     2978.493     3480.677     78.17829      155.491     311.2609      2.034     6.74     815.0931     54.88662       196.45        19     1.716     0.742  49.93   0
         7    990.2061     10.0278 307.5286677  +6.6979374     1620.354     2962.735     3353.386     77.55929      155.553     311.1989      1.974     5.44      809.676     54.88662     246.6507        23     1.542     1.026  61.39  16
         8    709.4801      6.5204 307.6454085  +6.6899947     6026.267     10648.88     10884.08      78.3015     155.9862     300.1932      1.910     5.25     815.2236     54.88662     785.2526        39     1.807     1.101  45.54  16
         9    629.7180      5.7175 307.6785708  +6.6876530     2838.343     5506.965     5641.909     77.80748     155.9862      292.714      2.002     5.77     816.2427     54.88662     355.9509        31     1.782     1.024  52.85  16
        10    331.8259      5.6660 307.8023218  +6.6776708     738.5413     1312.385     1014.865     77.68348     155.6769     292.0546      1.771     5.18     827.3851     54.88662     116.8161         8     1.228     0.618  80.21  16
        11    386.0587      4.9511 307.7798171  +6.6797895     514.8759     783.3513     748.5504     78.05488     155.7388     284.4631      1.402     3.71     824.1719     54.88662     90.96942         5     0.634     0.625  15.66  16
        12     31.1923      2.3601 307.9273163  +6.6689089     6594.385     9644.664     10338.41     76.93531     137.6681     250.1674      1.601     4.16      827.936     54.88662     809.2823        29     1.433     1.051  31.79  24
        13    430.1441      2.4917 307.7615865  +6.6822864     5068.785     7779.799     8243.213     77.93127     139.4077     252.4689      1.684     5.03     820.2299     54.88662     644.0854        28     1.512     1.028  36.48  24
        14    326.0272      1.5512 307.8048696  +6.6791746     331.4734     476.7389     740.7172      69.9799     126.8819     237.7598      1.362     4.22     827.3896     54.88662     82.16229         5     1.534     0.331 -28.60  24
        15    811.7970    996.6893 307.5696616  +6.2846049     822.8657     1523.085     1738.847      77.4349      155.429      311.075      2.179     6.74     846.7985     54.88662     97.62061        13     1.551     0.822  56.03   0
        16    717.8970   1022.3705 307.6077772  +6.2708598     5152.597     8896.193     9436.499     78.17828     141.0576     254.6361      1.892     5.71     849.9267     54.88662     651.5186        33     1.784     1.019  33.61  25
        17    710.5432   1022.2264 307.6108345  +6.2706731     894.6514     1575.847     1662.559     77.68348     142.8234     256.4092      1.888     6.54     849.9407     54.88662     115.9969        14     1.435     0.836  54.09  25
        18    584.0164   1023.5422 307.6633098  +6.2658913      13072.1     18236.01     19739.27     69.14843     125.5837     236.0508      1.361     3.89     850.7707     54.88662     3113.724        35     1.744     0.746  -1.36  25
        19    574.1523   1021.7032 307.6674660  +6.2663199     3203.472     6103.667     6985.358     78.05488     148.0597     263.9311      2.099     5.33     850.9808     54.88662     392.3124        35     1.846     1.178  39.33  24
        20    432.4190   1022.3826 307.7262736  +6.2612848     2814.295     5045.105     5902.362     77.80748     140.8524     254.1055      2.061     7.22     852.0776     54.88662     368.1476        28     1.908     0.951  33.32  24
        21    213.5214   1023.7632 307.8170846  +6.2533588     737.5173     906.1129     1028.269     66.59175     122.5534     232.8849      1.188     3.70     851.0069     54.88662     151.4777         6     0.927     0.425  -1.12  24
        22    421.6150    997.8351 307.7315848  +6.2710570     729.3359     1225.694     1334.502     77.68348      155.491     311.2299      1.815     4.19     851.4987     54.88662     136.0668         8     1.095     0.679  60.41   0
        23    268.7225    994.9329 307.7951450  +6.2671182     664.5144     955.5535     1138.106     78.17828     155.8007     311.3538      1.441     4.27     851.1718     54.88662     122.7875         7     0.799     0.649  88.31   0
        24    912.2748    990.9702 307.5281446  +6.2903251     6382.937     13011.45     14387.68     77.93127     155.7388     311.3847      2.168     5.19     846.3934     54.88662     706.5189        50     1.967     1.299  46.65   0
        25    885.8170    987.1188 307.5392565  +6.2910311     9215.918      18736.4     21030.02     77.68348      155.429     311.2609      2.179     5.21     846.2914     54.88662     1091.036        54     1.992     1.326  45.17   0
        26     41.9792    989.6548 307.8894370  +6.2616651     409.6398     829.0963     720.6426     77.55929     155.7388     311.1989      1.548     6.18     849.4155     54.88662     93.60852         7     2.164     0.496  46.56   0
        27   1007.5632    986.6321 307.4887349  +6.2952985     3425.142     7385.169     8326.062     77.68349      155.491      311.137      2.256     6.08     840.3742     54.88662     377.4309        40     1.994     1.249  46.47   0
        28    598.7717    987.5539 307.6583949  +6.2812444     1018.331     1953.239     2272.332     77.55929     155.8007     311.2918      2.174     6.11     849.9231     54.88662     144.2167        14     1.552     0.677  50.43   0
        29    529.8953    986.1026 307.6870338  +6.2795344     3118.222     6219.965     6923.674     78.05488     156.2949     311.2299      2.179     5.89     851.0122     54.88662     409.9205        37     1.867     1.140  41.57   0
        30    640.1766    986.2675 307.6412511  +6.2831630     1104.099     2226.184     2960.337     77.68348     155.6769     311.3228      2.223     3.20     849.4241     54.88662     179.0885        10     0.878     0.819 -23.88   2
        31     65.0140    985.5304 307.8800155  +6.2641440     536.2798     997.4575     1259.139     77.55929      155.615     311.2918      1.994     4.23     849.1427     54.88662     75.52417         5     0.772     0.661 -87.33   0
        32    483.0975    982.6158 307.7065765  +6.2794041     1600.165     3214.261     3554.631     78.05488      155.491     311.1989      2.189     6.45     851.3087     54.88662     207.2794        25     1.806     0.998  54.48   0
        33    917.5688    974.6773 307.5264930  +6.2972289     32164.18     64173.62     72304.63     77.93128     155.8007     311.3538      2.144     5.05     845.5046     54.88662     3813.866        93     2.108     1.439  49.10   0
        34    224.7303    972.8826 307.8141489  +6.2747425     1308.293     2417.607     2319.239      78.3015     155.9862     311.4157      1.950     6.40     850.1663     54.88662       206.54        18     1.707     0.958  43.01   0
        35    624.1135    971.4702 307.6484161  +6.2887342     763.9612     1085.993     1136.051     78.17828     155.9862     311.4157      1.738     6.09     849.3505     54.88662     83.00696        11     1.330     0.784  84.71   0
        36    815.7949    968.5057 307.5689475  +6.2963749     1957.163     3440.501     3917.049     77.80748      155.429      311.137      1.935     4.79     846.5354     54.88662     235.1398        23     1.536     0.977  44.11   0
        37    763.6910    966.2296 307.5906527  +6.2955717     5132.995     10051.65     11545.42     78.17829      155.491     311.3228      2.153     5.25     847.4706     54.88662     637.8707        46     1.972     1.220  47.14   0
        38    233.4597    965.4952 307.8107748  +6.2780861      1158.65     2112.451     1864.958     77.93128     155.7388     311.4776      1.883     5.50      850.114     54.88662     180.5025        17     1.693     0.817  62.61   0
        39    550.4509    965.7980 307.6791842  +6.2886069     704.9127     1143.692     1218.036      77.4349      155.367      310.982      2.128     6.12     850.3711     54.88662     90.42316        10     1.374     0.767  37.14   0
        40     58.1126    963.4028 307.8836279  +6.2730470      2061.56     3848.756     4326.919     77.43489      155.367      311.137      2.068     6.15     848.3509     54.88662     268.6165        27     1.967     0.938  47.51   0
        41    197.8146    964.5149 307.8256035  +6.2772917     718.2695     1206.636     889.5124     77.68348      155.491     311.2609      1.890     6.29     849.5078     54.88662     95.90509        11     1.421     0.782  38.23   0
        42    951.9047    961.3926 307.5126848  +6.3038609     4896.574     9833.504     10701.27     77.80748      155.367     311.1989      2.097     5.11     843.3094     54.88662     565.1241        43     1.907     1.207  48.55   0
        43    634.2524    956.3438 307.6447158  +6.2953192     599.5519     1029.884      906.317     78.05488     155.7388     311.3538      2.017     4.96     848.9725     54.88662     94.35492         5     1.079     0.646  63.90   0
        44    925.9120    953.2213 307.5237486  +6.3063664     1530.679     2970.676     3105.363     78.05488      155.553     311.2609      2.041     6.43     844.0899     54.88662     218.0778        25     1.840     1.039  47.09   0
        45    785.4996    949.8666 307.5821488  +6.3030572     1072.834     1868.799     2466.806     78.05488     155.8625     311.3538      1.819     5.40     846.8344     54.88662     172.3634        14     1.435     0.750  49.65   0
        46    646.4273    948.9575 307.6399101  +6.2987767     3503.923     6840.992     7257.451     77.68348     155.7388     311.2609      2.023     5.01     848.6501     54.88662     483.1364        34     1.783     1.095  46.94   0
        47    258.5535    949.1656 307.8009096  +6.2856719     3340.515     6463.558      6771.98     77.68348     155.6769     311.3228      1.984     5.53     850.2461     54.88662     423.3574        32     1.742     1.096  52.29   0
        48    468.7833    947.8184 307.7136895  +6.2932905      731.067     1375.136     1522.573     77.80748      155.491     311.3228      2.187     5.97     850.2808     54.88662     136.1381         9     1.566     0.640  44.39   0
        49     27.1026    946.4025 307.8970740  +6.2790207     1626.508     3391.128     3336.016     77.68348      155.491      311.075      2.080     6.72     847.6495     54.88662     217.9244        25     2.000     0.880  48.83   0
        50    878.2440    945.3890 307.5437991  +6.3080073      753.487     1577.381     1449.276     77.55929      155.615      311.106      2.336     6.35     845.0787     54.88662     96.65503        12     1.513     0.748  43.00   0
        51    294.1760    942.8725 307.7863352  +6.2894678     551.7183     1124.477      1545.48     77.68348      155.615     311.3228      1.992     4.34     850.7239     54.88662     97.71771         5     1.506     0.356  84.66   0
        52    571.0969    941.5339 307.6714300  +6.2993171      1337.56     2461.332     2206.104     78.05488     155.8007     311.4157      1.993     6.03     849.6248     54.88662     177.5865        19     1.650     0.904  50.85   0
        53   1003.5229    941.7991 307.4919131  +6.3136743     590.7847     1081.426     1317.255      77.3103     155.1807      311.137      2.186     4.42     840.5468     54.88662     98.20911         5     0.907     0.613  49.15   0
        54     60.8722    939.2874 307.8832975  +6.2830962      659.825     1110.828     1313.929     78.17828     155.9862     311.3847      1.875     6.43     847.5006     54.88662     98.50232         9     1.379     0.841  44.35   0
        55    610.3073    937.8465 307.6552774  +6.3021538      998.422     1878.305     1406.999     77.93127     155.6769     311.5085      1.891     5.78     849.1307     54.88662     138.2283        14     1.495     0.793  54.06   0
        56    290.1903    935.6920 307.7882318  +6.2922984     1203.144     2162.922     2363.145     77.68348      155.367      311.137      2.230     6.56     850.6201     54.88662     149.2935        15     1.635     0.738  45.39   0
        57    756.9564    931.8490 307.5946023  +6.3095412      699.778     1355.004     1697.442     78.05488     155.6769     311.3228      2.293     6.73     846.7951     54.88662     95.04022        11     1.544     0.822  46.08   0
        58    894.6078    928.3521 307.5375772  +6.3155884     5189.163     10042.75     10960.08     77.55929      155.615      311.044      2.053     5.29     843.8979     54.88662     641.2964        43     1.952     1.159  51.32   0
        59    430.4642    925.5298 307.7303464  +6.3012066     1607.141     3171.661     3605.686     78.05488     155.8007     311.3847      2.008     5.42      849.967     54.88662     248.4022        26     1.829     1.054  50.48   0
        60    332.1651    923.8128 307.7712086  +6.2986137     7469.128     14419.19     15759.08     77.55929      155.553     311.1989      2.028     5.44     850.4077     54.88662     1020.646        45     1.849     1.161  47.37   0
        61    252.1760    922.7431 307.8044482  +6.2963663     5448.706     10589.85     11543.42     77.68348     155.7388     311.1989      2.056     5.39     849.6846     54.88662     705.6447        40     1.795     1.175  48.11   0
        62    581.0130    917.9972 307.6681052  +6.3093672     1009.195      1543.91     1469.035     77.68348      155.429     311.2299      1.603     4.60     849.0453     54.88662     128.0505        10     1.087     0.784  81.51   0
        63    910.6600    913.3723 307.5314155  +6.3223096     873.6245     1418.553     1598.841     77.68349     155.8007     311.2918      1.674     6.00     843.1002     54.88662     135.6631        12     1.560     0.766  62.80   0
        64    867.2856    912.6632 307.5494454  +6.3211527     628.2644     1154.679     794.0731     78.17829     155.8625     311.4157      1.417     4.79     844.7311     54.88662      116.121         9     1.459     0.446  87.11   0
        65    143.0054    913.7302 307.8500686  +6.2964139     449.9421     806.2157     804.9583     77.55929      155.367     311.2299      1.660     3.74     847.8857     54.88662     90.24481         5     1.218     0.331  65.38   0
        66    408.8744    912.0642 307.7397620  +6.3060412     530.2117     718.6494     1169.641     78.17828     155.7388     311.3538      1.643     4.52     849.7278     54.88662     87.22827         5     1.196     0.485  22.42   0
        67    746.5472    906.5308 307.5997733  +6.3196461     1259.579     2340.693     2384.605     77.93128      155.615     311.3228      1.933     6.72     846.1987     54.88662     173.6035        20     1.837     0.961  53.12   0
        68    840.5835    907.8837 307.5606906  +6.3222333     444.3107     600.7383     627.9372     77.68348      155.429     311.2918      1.471     3.49     845.1561     54.88662     77.68567         5     0.785     0.447  71.15   0
        69    978.3737    902.8145 307.5036589  +6.3289306     883.0457     1878.437     2419.237     77.80748      155.553     311.3228      2.585     7.42     840.3375     54.88662     129.9471        15     1.566     0.984  71.55   0
        70    532.5834    903.2801 307.6887042  +6.3138195     663.0655     863.5356     863.8451     77.68349      155.491     311.2299      1.320     3.44     849.1063     54.88662     133.7542         5     0.769     0.444  63.64   3
        71    531.1114    901.0000 307.6893920  +6.3147115      801.303     1322.722     1330.518      77.3103     155.2428      311.044      1.564     3.69     849.0666     54.88662       138.63         7     0.934     0.750  -8.08   2
        72    665.0797    899.8469 307.6338173  +6.3196780     1902.817     3665.283     4110.088     78.05488     155.7388     311.3847      2.114     5.49     847.4084     54.88662      262.749        26     1.821     0.957  43.75   0
        73     61.7778    895.8391 307.8843901  +6.3010646     2302.029     4481.335     4501.422     77.68348      155.491     311.1679      2.027     5.28     846.6821     54.88662     269.0585        27     1.652     1.075  48.53   0
        74    827.1296    896.7228 307.5666501  +6.3263915     640.7979     928.6104     856.6156      78.3015     155.9862     311.3847      1.656     5.52      845.145     54.88662     98.69055         8     1.027     0.836  40.10   0
        75     79.5769    895.4000 307.8770167  +6.3018455     1387.788     2739.116     2934.542     77.55929      155.367     311.1989      2.093     6.49     846.7417     54.88662     172.7061        22     1.689     1.072  50.84   0
        76    943.9310    895.1554 307.5182140  +6.3309426     659.5043     1145.457     867.4998     78.05488     155.6769     311.4157      1.687     4.64     841.6373     54.88662     155.7208         9     1.149     0.950  41.23   0
        77    205.7048    894.8777 307.8246787  +6.3063076     1722.897      3171.02     3187.241     77.80748     155.9244     311.4157      1.975     5.47     848.6385     54.88662     240.9009        22     1.660     0.908  42.13   0
