#   1 NUMBER                 Running object number                                     
#   2 X_IMAGE                Object position along x                                    [pixel]
#   3 Y_IMAGE                Object position along y                                    [pixel]
#   4 ALPHA_J2000            Right ascension of barycenter (J2000)                      [deg]
#   5 DELTA_J2000            Declination of barycenter (J2000)                          [deg]
#   6 FLUX_APER              Flux vector within fixed circular aperture(s)              [count]
#   9 FLUXERR_APER           RMS error vector for aperture flux(es)                     [count]
#  12 FLUX_RADIUS            Fraction-of-light radii                                    [pixel]
#  13 FWHM_IMAGE             FWHM assuming a gaussian core                              [pixel]
#  14 BACKGROUND             Background at centroid position                            [count]
#  15 THRESHOLD              Detection threshold above background                       [count]
#  16 FLUX_MAX               Peak flux above background                                 [count]
#  17 ISOAREA_IMAGE          Isophotal area above Analysis threshold                    [pixel**2]
#  18 A_IMAGE                Profile RMS along major axis                               [pixel]
#  19 B_IMAGE                Profile RMS along minor axis                               [pixel]
#  20 THETA_IMAGE            Position angle (CCW/x)                                     [deg]
#  21 FLAGS                  Extraction flags                                          
         1    188.8310     20.7268 307.8650527  +6.6681161     11259.42     16612.99     17417.89     78.35586     156.5873     313.0812      1.569     3.33     840.0127     55.18565     1585.018        38     1.446     1.033  75.80   0
         2    533.0943     18.9215 307.7220731  +6.6804144     3039.961     4593.575     4504.094     78.23138     156.7739     313.1123      1.537     3.32      830.801     55.18565     468.5535        22     1.418     0.883  78.08   0
         3    934.4313     18.5162 307.5553234  +6.6939980     4414.368     6420.739      6270.48     78.48013     156.4005     312.9567      1.600     3.41     828.4238     55.18565     610.3572        25     1.329     0.956  81.78   0
         4    471.1632     17.0552 307.7478687  +6.6791094     1868.579     2669.057     2904.383     78.35586     156.5873     313.1123      1.411     3.68     831.6046     55.18565     286.4587        16     1.309     0.739  81.00   0
         5    735.3353     17.0378 307.6381023  +6.6879597     1904.649     2697.884      2154.05     78.35586      156.525     313.1746      1.463     3.43     831.8886     55.18565     293.0439        16     1.205     0.770  73.84   0
         6    999.1179     14.7689 307.5285696  +6.6977020     1972.413     2881.445     2519.507     78.35586     156.4005     313.0501      1.487     3.62     824.9321     55.18565     303.6735        17     1.253     0.852  83.98   0
         7    718.6163     11.2582 307.6452433  +6.6897865     7680.388     10967.99     11025.49     77.85677      156.525     312.8009      1.502     3.25      831.795     55.18565     1043.097        28     1.359     0.925  77.46   0
         8    638.8776     10.4526 307.6784033  +6.6874519      3944.05     5550.895     5655.231     78.60421     156.5873     313.0812      1.517     3.40     831.5882     55.18565     615.2028        23     1.311     0.883  80.82   0
         9    341.0623     10.1356 307.8021588  +6.6776016     986.7188     1336.318      1598.47     78.48013     156.5873     313.1123      1.484     4.15     839.4366     55.18565     130.8878        11     0.911     0.871  56.95   0
        10    439.0260      6.7899 307.7615672  +6.6822692     6565.562     9686.353     10417.05     78.10671     156.4005      303.856      1.568     3.45     834.4731     55.18565     961.3569        33     1.427     1.005  81.28  16
        11    394.5776      8.3286 307.7799840  +6.6801433     817.2825     1208.844     949.5267     78.10671     156.4005     312.7386      1.577     2.65     837.5188     55.18565     154.3923         8     0.868     0.651  -2.36   0
        12     39.9837      6.2979 307.9273831  +6.6690639      8772.01     12989.96     13466.03     78.48013     156.3381     299.6251      1.554     3.50     840.2831     55.18565     1245.235        34     1.384     1.079  80.90  16
        13    685.8510      5.6021 307.6590478  +6.6910255     996.2677     1406.328     1108.897     77.85677     156.2134     292.7816      1.531     5.60     831.6383     55.18565     124.7474        12     1.040     0.849  78.22  16
        14    335.5947      2.2493 307.8046963  +6.6806733     12429.56     15943.47     17224.64     76.97558      137.145     249.7417      1.409     3.48      839.562     55.18565     1757.033        29     1.154     1.072  85.73  24
        15    514.7390      3.9714 307.7302026  +6.6859705     945.4109     1255.967     1523.999     78.10671     154.3305     274.1122      1.391     3.30      830.222     55.18565     146.5665         8     0.839     0.635  51.49  16
        16    109.1083      2.2383 307.8988002  +6.6730662     2609.812     3601.548     3758.661     77.60602      137.145     250.0927      1.439     3.22     839.1418     55.18565     382.6505        19     1.185     0.953  43.59  24
        17    430.6338      2.5589 307.7651966  +6.6837343     1006.911      1243.58     1935.118     78.23138     140.9991     254.6111      1.447     5.29     835.2974     55.18565     126.3203        12     1.043     0.840  80.91  24
        18    100.5839      1.5830 307.9023641  +6.6730498     1089.321     1332.663     1359.541     70.91303     127.8784     239.5439      1.240     2.76     839.0511     55.18565     235.7189         9     0.893     0.680  17.41  24
        19    803.9839      1.3516 307.6101032  +6.6967288     548.3409     710.3146     1280.686     67.82224     124.5583     235.6886      1.030     3.35     827.7949     55.18565     126.8895         5     0.771     0.422 -20.20  24
        20    401.7983      1.3362 307.7772192  +6.6832718     931.0161     1083.146     632.4571     67.67841     123.9308     235.4404      1.072     2.40     837.3597     55.18565     220.4009         7     0.862     0.469   4.81  24
        21    895.0703    991.8513 307.5390993  +6.2908948     11240.84     19223.32     21138.37     78.35586      156.525     313.1123      1.849     3.74     860.8255     55.18565     1332.227        57     1.610     1.447  80.05   0
        22    759.3866   1022.7998 307.5943987  +6.2735909     1265.011     1739.949     1704.935     76.97558     136.5039     249.1948      1.516     3.94     863.5816     55.18565     169.1862        17     1.260     0.900 -17.64  24
        23   1016.6990    991.3077 307.4886167  +6.2951735     4304.741     7741.465     7839.288     78.48013     157.0844     312.6763      1.884     4.10     855.9935     55.18565     491.3016        37     1.596     1.230  72.57  16
        24    607.7072    992.5890 307.6583867  +6.2809923     1415.216     2029.938     1969.693     78.23138     156.2758     312.8632      1.599     3.36     865.4915     55.18565     183.5048        14     1.056     0.840  68.90   0
        25    539.3566    990.9583 307.6868198  +6.2793785     4209.354      6936.84     7976.901     78.23138     156.5873     312.9878      1.842     3.57      865.708     55.18565     566.0087        34     1.480     1.271  34.94   0
        26    648.6211    990.2429 307.6414783  +6.2833289     1378.248     2043.598     2100.353     77.98184     156.4628     312.9255      1.612     3.95     864.8773     55.18565     199.8337        14     1.240     0.768 -89.70   0
        27     73.9697    989.2708 307.8800920  +6.2644633     926.6199     1404.784      1776.64     78.35586     156.5873     313.0501      1.638     3.75     861.3823     55.18565     126.2302        10     0.885     0.840  37.98   0
        28    492.1537    987.2001 307.7065439  +6.2793496     2161.236     3240.276     3435.507      77.7315     156.2134     312.6139      1.622     3.40     865.6561     55.18565     295.9706        15     1.136     0.805  65.48   0
        29    926.7473    979.4703 307.5263609  +6.2970621     41240.57     67879.25     72828.78     78.35586     156.4628     313.0189      1.805     3.66     859.9575     55.18565     4751.862        82     1.689     1.378  76.22   0
        30      1.1925    979.4320 307.9106377  +6.2660767     841.9984     932.4899     1168.879     65.77982     122.1088     233.1109      1.224     3.77     860.2713     55.18565     181.5861         6     1.034     0.394 -89.95  24
        31    234.1288    977.7107 307.8139893  +6.2746157     1878.709     2888.899     2286.928     78.48013      156.836     313.0812      1.563     3.20     863.4059     55.18565     318.6819        20     1.210     0.982  70.66   0
        32    632.6921    975.6945 307.6485798  +6.2888018     966.8072     1604.816     1783.374     78.48013     157.0844     313.0812      1.776     5.80      864.715     55.18565     113.6017        15     1.269     0.983  48.54   0
        33    122.0171    976.9061 307.8605615  +6.2711822     713.1112     1008.747     1006.869     78.35586     156.4005     312.9567      1.509     4.81     861.6342     55.18565     115.2455         8     0.981     0.667 -88.88   0
        34    824.6030    973.1188 307.5689844  +6.2962764     2199.104     3287.992     3035.928     77.85677      156.151     312.8009      1.589     3.51     860.9757     55.18565     287.7483        19     1.246     0.900  83.11   0
        35    772.8719    971.1663 307.5905288  +6.2953554     6513.071     10472.79        11254     78.35586     156.5873     313.0501      1.721     3.56     861.9596     55.18565     859.9159        35     1.534     1.116 -89.56   0
        36    242.2141    970.3019 307.8108819  +6.2779453     1649.806     2342.676     2012.623     78.35586     156.3381     312.8632      1.568     3.78     863.3228     55.18565     199.0602        18     1.191     0.953  87.06   0
        37    206.4378    969.7413 307.8257542  +6.2769756     877.4261     1547.976     1641.021     78.48013     156.6495     313.1123      1.803     5.96     862.7094     55.18565     114.4814        12     1.355     0.783 -60.36   0
        38     67.2358    967.9462 307.8836068  +6.2730391     2665.381     4133.952     4472.332     78.35586     156.5873     313.1123      1.657     3.97     860.9742     55.18565     345.9716        25     1.462     1.020  85.00   0
        39    961.1785    966.2172 307.5125078  +6.3036808     6310.435     10928.85      11881.8     78.23138     156.4005     313.0189      1.861     3.90     858.2665     55.18565     759.1803        42     1.563     1.300  75.39   0
        40    559.4710    969.9993 307.6791719  +6.2887034      929.838     1538.526     1674.141     77.85677      156.151     312.8944      1.939     4.47      865.077     55.18565     126.0022         9     0.992     0.723  62.18   0
        41    934.9016    957.9481 307.5236948  +6.3062183     1948.476     3163.918     3121.827     78.35586     156.5873     313.2679      1.714     4.44     859.0917     55.18565     221.3077        22     1.300     1.142 -89.34   0
        42    643.4014    960.2523 307.6446511  +6.2955344     702.4727     874.3447      719.621     77.85677     156.2134     312.6763      1.510     4.16     864.1486     55.18565     129.1882         6     0.722     0.683  23.09   0
        43    794.4471    954.5293 307.5821277  +6.3029435     1269.383     2244.287     2774.003     78.48013      156.525     313.0812      1.943     4.71     860.9563     55.18565     171.1312        15     1.247     0.940  55.50   0
        44    655.5201    953.9103 307.6398320  +6.2985575     4682.557     6900.883     7169.041     78.23138     156.7739     313.1746      1.557     3.24     863.8058     55.18565     598.5371        27     1.355     1.007  86.95   0
        45    267.7788    953.9813 307.8008174  +6.2855403     4380.994     6523.799     6521.056     78.23138      156.525     313.0189      1.543     3.19     863.4594     55.18565     630.3463        24     1.284     0.967  83.70   0
        46   1004.8802    952.5648 307.4948183  +6.3107729     630.6317     1064.272     1315.302     78.35586     156.6495     313.1123      1.887     5.60     856.4699     55.18565     74.05621        10     1.244     0.710 -88.94   0
        47    477.6851    951.9127 307.7137362  +6.2934313      1134.18     1627.211     1514.986     78.23138     156.7739     313.1434      1.542     4.41     865.0991     55.18565     135.0388        13     1.119     0.856  72.96   0
        48     36.4566    951.3513 307.8969449  +6.2788540     2365.269     3609.158      3502.03     78.48013     156.5873     313.1746      1.615     3.45     860.4594     55.18565     301.6021        22     1.298     0.968  81.16   0
        49    887.0644    949.7982 307.5438301  +6.3079873     903.1784     1271.157     1200.844     77.85677     156.3381     312.8632      1.651     5.26     860.0102     55.18565     129.5976        11     1.305     0.722  81.29   0
        50    303.5281    947.8412 307.7861814  +6.2892743     850.6397     1325.069     1688.188     78.35586     156.5873     313.1434      1.675     4.48      863.947     55.18565     160.0891         8     1.159     0.604  75.12   0
        51    979.8258    948.0308 307.5053729  +6.3118097     467.9924     853.8687     482.8986     77.98184     156.4005     312.9255      1.572     4.81     857.3013     55.18565     76.08661         5     0.981     0.668  57.73   0
        52    580.2730    946.2804 307.6713308  +6.2991904     1900.089      2878.82     2609.478      78.7281      156.836     313.1123      1.605     3.90     864.3522     55.18565     247.9766        17     1.262     0.835 -83.95   0
        53   1011.5636    946.2560 307.4922540  +6.3135999     766.7523      1457.06      1846.31     78.35586     156.5873     313.1123      2.020     6.06     856.2184     55.18565     101.6975        10     1.160     1.016   7.20   0
        54    619.3930    942.5755 307.6552123  +6.3020284     1328.751     1923.617     1971.196     77.98184     156.4628     312.9255      1.580     3.74     864.0297     55.18565     199.6056        15     1.078     0.979  63.30   0
        55    167.9583    943.4487 307.8426155  +6.2865363     458.6641     629.8899     676.2183     78.48013      156.525     313.0189      1.456     4.68     861.8712     55.18565     86.57391         5     1.023     0.608 -67.95   0
        56     69.3143    943.5928 307.8835651  +6.2831615     782.8894     1092.063     1112.698     78.10671     156.2758     312.8944      1.463     5.10     860.6401     55.18565     114.7349         9     1.094     0.671  59.81   0
        57    299.3489    940.2072 307.7881735  +6.2922853     1596.365     2339.537     2275.293     77.98184     156.4005     312.7074      1.557     3.35     863.8259     55.18565     205.6863        14     1.060     0.858 -80.95   0
        58    766.5790    937.0214 307.5942852  +6.3092402     784.5698     1224.815     1164.636     78.23138      156.525     313.0812      1.596     5.00     861.4747     55.18565     111.9915         9     0.931     0.831  87.50   0
        59    567.2845    938.0676 307.6769993  +6.3021460     676.0913     1055.857     1214.164     78.85178      156.836     313.1123      1.691     3.72     864.1821     55.18565     103.8652         6     0.986     0.640  38.50   0
        60    903.8080    933.0936 307.5374366  +6.3154415     6836.123     10668.28     11117.34     78.10671     156.2758     312.8944      1.641     3.42       859.21     55.18565     884.4987        35     1.466     1.107  74.17   0
        61    439.6924    930.3087 307.7302364  +6.3010766     2317.035     3331.559     3636.588     78.48013     157.0844     313.0812      1.548     3.43     864.4435     55.18565     304.4907        19     1.341     0.851  89.17   0
        62    341.3287    928.6373 307.7711330  +6.2984693     9994.373     14829.87     15565.33     78.35586     156.5873     313.1434      1.621     3.25     864.1235     55.18565     1368.867        36     1.375     1.119  76.85   0
        63    608.7371    929.9128 307.6600615  +6.3068990     494.8661     563.4418     568.6829     78.48013     156.7739     313.1123      1.155     4.17     863.8287     55.18565     99.39679         6     1.167     0.426 -59.29   0
        64    261.4518    927.6827 307.8043294  +6.2961835     7430.937     11064.97     11604.13     78.48013     156.5873     313.1434      1.629     3.43      862.877     55.18565     976.5692        34     1.439     1.036  81.86   0
        65    589.4564    922.1430 307.6683277  +6.3094614     1144.682     1538.498     1641.617     78.60421     156.6495     313.1434      1.481     4.21     863.6929     55.18565     162.9771        14     1.337     0.762  71.53   0
        66    773.6460    921.9224 307.5918565  +6.3157090     659.8679     798.2624     835.7795     78.35586     156.6495     313.0812      1.431     4.87     860.9761     55.18565     96.12677         8     1.292     0.662 -83.76   0
        67    919.6410    917.9896 307.5313674  +6.3222044     1098.727      1726.67      2086.13     77.85677     156.4005     312.8009      1.710     4.78     858.4478     55.18565     175.1085        13     1.286     0.862  70.92   0
        68    151.7388    917.7582 307.8502151  +6.2965959     609.8601      669.371     445.6501     78.48013     156.5873     313.1434      1.217     3.76     861.4008     55.18565     93.96631         5     0.915     0.444  44.57   0
        69    876.1445    916.4158 307.5494810  +6.3214033     616.9999     1036.084     869.5413     77.85677      156.525     312.8009      1.766     5.33      859.495     55.18565     103.7193         8     1.139     0.705  44.61   0
        70    986.2160    913.9247 307.5038594  +6.3261017     800.9549     1190.533      1740.25     77.98184     156.3381     312.9567      1.854     5.53      856.496     55.18565     116.1638        10     1.105     0.780  23.80   0
        71    755.8420    911.0775 307.5996124  +6.3195912     1770.019     2693.726     2580.089     78.35586     156.5873     313.1434      1.595     3.57      861.176     55.18565     279.8158        16     1.258     0.836  64.05   0
        72    579.6609    912.0954 307.6727320  +6.3132812     699.2343     998.1016     945.4376     78.35586     156.5873     313.1434      1.464     3.58     863.4697     55.18565     115.2246         7     0.825     0.628  70.96   0
        73      6.4243    908.3634 307.9108638  +6.2955880     1008.182     1595.911     837.5581     78.10671     156.4005     300.7289      1.449     4.58     858.5692     55.18565     152.2617        11     1.306     0.593  85.12  16
        74    620.2112    907.9072 307.6560354  +6.3163666     879.3197     1362.048     1117.589     78.23138     156.2758     312.8944      1.637     4.71     863.1749     55.18565     129.8749        10     1.131     0.832 -65.39   0
        75    987.3779    906.7455 307.5036168  +6.3291040     1049.355     1788.106     2356.689     77.98184     156.5873     312.8944      1.890     4.36     856.2682     55.18565     155.8201        10     1.162     0.689 -80.41   0
        76    540.9574    906.9716 307.6889742  +6.3141011     1291.168     1795.227     2086.462     78.10671     156.6495     312.9567      1.418     3.17     863.4739     55.18565     193.5932        11     0.998     0.698  85.03   0
        77    674.4108    904.7401 307.6336368  +6.3194862     2676.978     3956.473     3949.647     77.85677     156.4628     312.8009      1.526     3.36     862.5798     55.18565     348.3728        23     1.329     0.973 -86.24   0
