#   1 NUMBER                 Running object number                                     
#   2 X_IMAGE                Object position along x                                    [pixel]
#   3 Y_IMAGE                Object position along y                                    [pixel]
#   4 ALPHA_J2000            Right ascension of barycenter (J2000)                      [deg]
#   5 DELTA_J2000            Declination of barycenter (J2000)                          [deg]
#   6 FLUX_APER              Flux vector within fixed circular aperture(s)              [count]
#   9 FLUXERR_APER           RMS error vector for aperture flux(es)                     [count]
#  12 FLUX_RADIUS            Fraction-of-light radii                                    [pixel]
#  13 FWHM_IMAGE             FWHM assuming a gaussian core                              [pixel]
#  14 BACKGROUND             Background at centroid position                            [count]
#  15 THRESHOLD              Detection threshold above background                       [count]
#  16 FLUX_MAX               Peak flux above background                                 [count]
#  17 ISOAREA_IMAGE          Isophotal area above Analysis threshold                    [pixel**2]
#  18 A_IMAGE                Profile RMS along major axis                               [pixel]
#  19 B_IMAGE                Profile RMS along minor axis                               [pixel]
#  20 THETA_IMAGE            Position angle (CCW/x)                                     [deg]
#  21 FLAGS                  Extraction flags                                          
         1    706.7885     21.6081 307.6452509  +6.6898135     7544.501     11335.91     12143.84     77.16467     154.5141     309.2436      1.626     3.27     806.5271     54.52005     1013.755        37     1.415     1.104 -79.25   0
         2    626.9357     20.7830 307.6784586  +6.6874777      3841.46     5560.073     5790.896      77.0413     154.6372     309.1513      1.531     3.25     806.9538     54.52005     553.4011        23     1.315     0.920 -83.85   0
         3    427.1182     17.0535 307.7616097  +6.6823102     6347.371     9752.423     10235.02     77.53358     154.6987     309.3666      1.607     3.30     810.6155     54.52005      869.664        35     1.444     1.099 -87.64   0
         4     28.1140     16.6102 307.9274059  +6.6690586     8426.206     13303.21      14334.4     77.16466     154.3909     309.1513      1.689     3.44     817.1998     54.52005     1118.837        38     1.510     1.107 -87.44   0
         5    673.8812     15.8002 307.6591196  +6.6911085     961.9158     1342.734     1362.389     76.79397      154.206     308.9974      1.457     4.05     806.7701     54.52005      129.424        11     1.075     0.873 -88.31   0
         6    503.0270     13.9856 307.7301726  +6.6861264     876.6081     1133.633     1195.986     77.16466     154.5141     309.2436      1.394     3.83     808.5716     54.52005     140.4013        11     1.051     0.757 -72.76   0
         7    323.7153     11.9951 307.8047440  +6.6809222     12995.75     20182.06     22007.33      77.0413     154.3293     308.9666      1.671     3.31     817.2077     54.52005     1742.242        49     1.563     1.166 -80.00   0
         8     97.3314     12.4542 307.8987883  +6.6731088     2495.867      3826.87     4282.331     77.53358     154.6372     309.2436      1.645     3.95      818.739     54.52005      328.942        24     1.540     0.936 -83.47   0
         9    418.7323     12.5471 307.7652459  +6.6838888     780.0952     1153.444     1149.112      77.4108     154.6372     309.2128      1.347     5.17     810.8918     54.52005     143.2529        12     1.298     0.785  79.69   0
        10     88.6453     11.2429 307.9024382  +6.6733160     1586.116      2511.23     3032.554     77.53358     154.6987     309.2436      1.748     4.41      818.447     54.52005     207.9323        20     1.347     1.016 -74.47   0
        11    792.1646     10.6359 307.6101441  +6.6972024     918.3384     1283.625     963.2163     77.28783     154.4525      309.059      1.500     3.49     804.9962     54.52005     172.0129        11     0.994     0.890  70.19   0
        12    389.9865      9.7929 307.7772827  +6.6840597     2360.989     3401.905      3506.34     77.16466     154.4525     309.1513      1.467     3.18     813.2639     54.52005     372.6291        17     1.214     0.813 -78.12   0
        13    458.3961      9.8402 307.7488567  +6.6863389     522.3645     794.3793     335.2899     76.79397     154.4525      309.059      1.317     3.38     809.4386     54.52005     84.29175         5     0.768     0.432 -68.76   0
        14    650.6820      5.5025 307.6691056  +6.6945822     11250.74     16717.62      18121.7      77.4108     155.0672     288.6249      1.633     3.29     806.4453     54.52005     1462.331        40     1.448     1.072 -80.23  16
        15    985.0154      6.7810 307.5301384  +6.7052429     698.9922     861.5103     627.5056     77.28783     154.4525     300.1278      1.601     4.24     802.8713     54.52005     114.0417         6     1.066     0.482 -82.80  16
        16    815.1801      4.7535 307.6007781  +6.7004013     1679.908     2668.594     3250.275     77.16466     154.6987      280.231      1.916     4.04     804.6264     54.52005     257.0203        16     1.275     0.861  89.73  16
        17    528.2665      5.4004 307.7199745  +6.6905180     1314.664     1766.329     1689.619     76.79398      154.206     287.4029      1.430     3.86     808.3194     54.52005     219.2707        14     1.217     0.803 -81.07  16
        18     69.2625      5.6360 307.9106809  +6.6749770     725.5727     872.3426     884.3837     77.53358     154.6987     289.9073      1.196     2.84     817.4431     54.52005     121.5244         6     0.689     0.641  82.13  16
        19    885.7575      2.8269 307.5715158  +6.7035577     1417.714     2205.971     2304.853     77.16466     142.5384     255.4798      1.616     4.35     804.4252     54.52005     219.0975        16     1.382     0.844 -78.39  24
        20    251.0560      2.5161 307.8352535  +6.6823904     6576.465     9683.803     10577.87     77.53358     138.9566      251.086      1.663     3.52      818.639     54.52005     851.4412        35     1.593     1.171 -22.00  24
        21    773.1954      2.9630 307.6182840  +6.6997351     488.0482     684.5195     1055.266     76.67001     143.6021     257.3347      1.696     3.73     804.9092     54.52005     72.22473         5     1.426     0.281 -78.45  24
        22    427.0143      2.8042 307.7621331  +6.6881893     676.7294     967.6693       1047.8     77.16466     141.9366     255.1073      1.438     5.05     810.5687     54.52005     106.8616         9     1.101     0.656 -87.56  24
        23    672.2823      1.6171 307.6602609  +6.6969103     4356.969     5701.042     6204.312     70.73334     127.0118     237.4172      1.234     2.75     806.3096     54.52005     1061.698        22     1.385     0.794  -5.69  24
        24    642.1990      1.8518 307.6727532  +6.6958050     6916.563     8441.303     9185.008      72.9836     130.0461     240.4823      1.232     2.84     806.3096     54.52005     1353.433        21     1.044     0.904   7.84  24
        25    412.0993      1.8667 307.7683620  +6.6880751     6191.243     7729.774      7937.37      73.2438     130.7027      241.272      1.291     2.89       811.39     54.52005     1150.224        22     1.122     0.928   0.13  24
        26    727.8895      1.3000 307.6371655  +6.6989044     764.0391     938.1041     1204.973     67.00424     122.7464     232.1914      1.074     2.74     805.3951     54.52005     192.4944         6     1.062     0.473  23.75  24
        27    230.0528    980.0072 307.8109961  +6.2781391     1356.697     1969.513     2425.559      77.0413     154.5141     308.9974      1.598     4.00     841.7717     54.52005     206.4196        17     1.247     0.930 -36.22   0
        28    730.5070   1023.5579 307.6017542  +6.2769516     670.9369     971.3212     987.9039     68.82496      124.516     234.7175      1.540     4.71     839.8842     54.52005     100.2186         8     1.271     0.495   1.85  24
        29    714.8887   1023.4900 307.6082409  +6.2764568     981.4251     1295.366     1542.329     69.51254      125.959     235.6478      1.338     3.13     840.3685     54.52005       228.38        11     1.192     0.675  11.21  24
        30    361.3531   1022.7266 307.7550452  +6.2649163     1799.303     2259.842     2356.765     76.54585     136.0513     247.4994      1.359     3.27     843.1924     54.52005      256.633        14     1.061     0.847 -56.80  24
        31    195.0324    979.9728 307.8255366  +6.2769751     778.6777      1287.08     1423.781      77.0413     154.4525     309.1205      1.675     6.17     840.9695     54.52005     103.0572        10     1.154     0.929 -77.52   0
        32     55.5009    978.2897 307.8835215  +6.2729718     2794.254     4404.086     4364.517     77.53358     155.1285     309.2744      1.679     3.32     838.9814     54.52005     392.3804        28     1.538     1.041 -61.41   0
        33    949.1884    976.4888 307.5125360  +6.3036963     6240.477     10634.58     11252.91     77.28783     154.3909     309.1821      1.836     3.74     834.9122     54.52005     758.3788        39     1.530     1.267 -89.99   0
        34    922.8729    968.2369 307.5237387  +6.3062240     2140.478     3407.354     3487.248      77.4108     154.6987     309.3666      1.694     4.13     835.6584     54.52005     277.3654        22     1.378     1.022 -88.95   0
        35    631.5679    970.2169 307.6446232  +6.2956602     689.4185     1007.742     863.6799     77.16467     154.4525     309.1821      1.374     4.47     840.6308     54.52005     101.7829         7     1.097     0.519 -43.75   0
        36    643.6758    964.1926 307.6397983  +6.2985530      4524.41     6984.157     7053.607     77.16467      154.206     309.1205      1.665     3.49     840.3514     54.52005     585.7712        30     1.395     1.102 -87.21   0
        37    255.7693    964.1823 307.8008528  +6.2855372     4408.508     6817.261     7256.332     77.16466     154.5141     309.2128      1.613     3.57     841.4492     54.52005     568.5342        33     1.544     1.082 -87.22   0
        38    782.4882    964.5817 307.5821500  +6.3030397     1401.202     2201.956     2622.084     77.28783     154.4525     309.2128      1.803     4.46     837.8762     54.52005     174.1634        18     1.371     0.928 -54.79   0
        39    466.0767    962.5287 307.7135924  +6.2932849     1244.398     1676.979     1421.803     77.77855     154.9444     309.3051      1.565     3.54     841.8425     54.52005     183.9888        12     0.992     0.888 -42.24   0
        40     24.6747    961.5920 307.8968833  +6.2788264     2099.514     3236.479     3105.064     77.16467     154.2677     309.1513      1.608     3.78      838.465     54.52005     272.4055        21     1.281     1.028  83.32   0
        41    875.4875    960.5919 307.5436697  +6.3077969     766.6174     1318.185     1347.058     77.16467     154.3909     309.0898      1.714     5.63     836.6321     54.52005      118.379        12     1.335     0.872 -56.43   0
        42    568.3739    956.4008 307.6713253  +6.2992462      1802.25      2674.85     2881.997     77.16467     154.3909     309.1205      1.668     3.86     841.1669     54.52005      219.613        19     1.326     0.903 -85.11   0
        43    291.7868    957.4572 307.7861257  +6.2895246     912.1803     1311.064     1570.851     76.91773     154.5757     309.0282      1.528     3.22     841.5742     54.52005     154.6034         7     0.847     0.600 -77.08   0
        44    999.6719    956.3119 307.4922499  +6.3137123     823.3842     1473.542     1981.916     77.65616     154.9444     309.3051      1.874     5.25     832.1369     54.52005     109.9625         9     1.190     0.654  89.98   2
        45   1000.6393    952.0756 307.4919900  +6.3154936     410.6646     844.1553     1598.249      77.4108     154.6987     309.3358      3.259     3.09     831.9817     54.52005     80.34369         5     0.808     0.668 -49.85   2
        46    946.6583    957.2076 307.5142320  +6.3115722     627.4077     923.3376     796.4009     76.91773     154.5757      309.059      1.351     2.19     834.3998     54.52005     116.2049         5     0.708     0.442 -71.97   0
        47    607.5508    953.2241 307.6551658  +6.3018710     1076.992     1545.066     1137.372     77.16467     154.7601     309.2128      1.530     4.28     840.8798     54.52005     162.7367        10     1.101     0.690 -89.33   0
        48     57.1826    953.7440 307.8836524  +6.2831618      718.746     1223.774     1314.307      77.0413     154.6372      309.059      1.633     4.30     838.8304     54.52005     97.45728         7     1.069     0.492  66.84   0
        49    287.4045    950.6588 307.7881743  +6.2921839     1431.553     2263.683     2458.969     76.91773     154.5757     309.0898      1.735     4.25     841.4235     54.52005      212.725        17     1.279     0.938 -71.83   0
        50    754.3382    946.4457 307.5944464  +6.3095853     944.4453     1423.466      1569.83      77.4108     154.5757     309.3666      1.601     3.44     838.1281     54.52005     161.5182         9     0.954     0.670 -48.04   0
        51    891.8584    943.3499 307.5374499  +6.3154625     6852.639     10968.54     11264.54     77.53358     154.6987     309.3051      1.703     3.61     835.7526     54.52005     836.1512        37     1.479     1.192 -77.18   0
        52    427.7734    940.4692 307.7302378  +6.3011064     2112.173     3428.289     3371.137     77.16467     154.5757     309.2436      1.700     3.52     841.2281     54.52005     311.5819        20     1.315     0.891 -69.16   0
        53    329.3946    938.8375 307.7711389  +6.2984756     9494.276      14909.2      15439.4     76.67001     154.4525      309.059      1.668     3.37     841.2137     54.52005     1285.594        45     1.531     1.153 -81.29   0
        54    249.4688    937.7523 307.8043596  +6.2962367     7182.604     10827.66     11503.24     77.53358     154.6372     309.3051      1.659     3.33     840.6307     54.52005     895.2217        34     1.440     1.050 -80.52   0
        55    167.8895    935.8921 307.8382926  +6.2942599      672.946     1102.796     698.5823     77.53358     155.1898     309.3666      1.673     3.92     839.9695     54.52005     114.7749         7     1.093     0.577 -81.78   0
        56    577.5585    932.4184 307.6683178  +6.3094553     1172.285     1608.465     1188.962      77.0413     154.5141      309.059      1.482     4.49     840.9199     54.52005     160.8531        14     1.344     0.757 -88.59   0
        57    762.1973    931.8752 307.5916719  +6.3158638     689.8293     856.6955     1227.713      77.0413      154.206     309.2128      1.483     4.19     837.6201     54.52005     103.6592         8     1.044     0.538 -38.53   0
        58    907.5471    928.3663 307.5314375  +6.3221729     951.2859     1587.753     1897.714      77.4108     154.6987     309.2436      2.074     4.51     834.8762     54.52005     145.3774        12     1.117     0.894 -80.40   0
        59    863.9554    928.0816 307.5495473  +6.3208335     731.8898     1303.322     1210.399     77.53358     154.6987     309.2744      1.876     5.36     836.2111     54.52005     105.6566        10     1.188     0.683 -46.52   0
        60    211.5166    927.7631 307.8204536  +6.2990840     542.6762     583.9783     445.7835     77.53358     154.6372     309.2436      1.283     3.46      839.974     54.52005     95.14496         5     0.757     0.457  70.48   0
        61    406.3617    925.7847 307.7396222  +6.3064500     571.9695     784.3801     862.4201     77.28783     154.5141      309.059      1.381     2.94     840.8707     54.52005     130.8687         5     0.725     0.664  11.38   0
        62    743.8502    921.4217 307.5996406  +6.3195656     1699.528     2717.162     3218.173      77.0413     154.7601     309.1821      1.784     3.86     837.8872     54.52005     218.2617        17     1.186     0.943 -85.28   0
        63    567.6041    922.0972 307.6727977  +6.3133827     676.1691     864.5844     720.8979     77.28783     154.3909     308.9974      1.371     3.42     840.6581     54.52005     119.8609         5     0.841     0.403 -67.92   0
        64    619.4437    918.1594 307.6514057  +6.3167460     582.1332     868.7593      242.745     77.28783     154.6987     309.1821      1.502     5.26     840.0945     54.52005     119.5414         5     1.031     0.758  79.33   0
        65    608.2558    918.1551 307.6560512  +6.3163729     780.6747     1213.203     916.6509     77.53358     154.6987     309.3051      1.572     4.28     840.3917     54.52005     142.8542         7     1.281     0.407  82.51   0
        66    529.0648    917.4077 307.6889572  +6.3140264     1068.344     1617.911     1565.689      77.0413     154.4525     309.1821      1.688     4.82     840.5132     54.52005     140.9812        14     1.287     0.730 -85.13   0
        67    975.0735    917.2629 307.5037706  +6.3290128     1263.555      1913.46     2955.744     77.77855     154.6987     309.3051      1.734     4.14     832.1581     54.52005     160.3433        16     1.233     0.922 -88.38   0
        68    662.4241    914.7345 307.6336746  +6.3196000     2500.095     3819.383     4363.208     77.16467     154.6987     309.2128      1.572     3.79     838.7414     54.52005     335.0944        19     1.245     0.951  86.33   0
        69    952.8085    913.0407 307.5131571  +6.3300123     551.0841     1032.335     1188.579     76.91773     154.5141     309.0282      1.555     3.99     832.9574     54.52005      78.2312         6     0.923     0.495 -54.39   0
        70    823.2940    911.5234 307.5669858  +6.3263101     903.5195       1726.9     1703.241     77.28783      154.883     309.3051      1.976     6.78     835.9545     54.52005     115.8242        12     1.323     0.975  87.50   0
        71     59.1420    910.7119 307.8842924  +6.3009930     2735.452     4484.804     4610.328     77.53358     154.6987     309.4281      1.728     4.06     837.9999     54.52005       422.88        25     1.468     0.961 -75.73   0
        72    940.7283    910.4295 307.5182605  +6.3306869     766.5805     1289.975     890.9695      77.4108     154.6987     309.2744      1.810     4.03     833.3732     54.52005     124.8826         6     1.046     0.444 -88.31   0
        73    202.7313    909.8351 307.8247058  +6.3061898     2277.124     3543.498      3784.55      77.4108     154.7601     309.3973      1.663     3.62     839.8368     54.52005      297.498        18     1.215     0.915  85.90   0
        74     76.6020    910.0887 307.8770644  +6.3018385     1826.479     2968.571     3273.593     76.91773     154.3293      309.059      1.720     3.86     838.1786     54.52005     247.1135        20     1.361     0.913 -63.44   0
        75    657.1360    903.9207 307.6362334  +6.3238874     6948.464     10707.66     11254.69     77.77855     154.7601     309.2744      1.643     3.44     838.5654     54.52005     978.7021        41     1.517     1.183 -81.69   0
        76    341.6390    905.9534 307.7671628  +6.3124631      913.809     1562.964     2183.345      77.4108     154.6987     309.1513      1.821     5.29     840.7661     54.52005     120.2191        11     1.233     0.699 -66.31   0
        77    236.6889    906.5169 307.8107188  +6.3087021     835.5924      1366.65     1078.849     77.28783      154.883     309.3358      1.608     4.55     840.1453     54.52005     106.5674         8     1.111     0.530 -70.83   0
