#   1 NUMBER                 Running object number                                     
#   2 X_IMAGE                Object position along x                                    [pixel]
#   3 Y_IMAGE                Object position along y                                    [pixel]
#   4 ALPHA_J2000            Right ascension of barycenter (J2000)                      [deg]
#   5 DELTA_J2000            Declination of barycenter (J2000)                          [deg]
#   6 FLUX_APER              Flux vector within fixed circular aperture(s)              [count]
#   9 FLUXERR_APER           RMS error vector for aperture flux(es)                     [count]
#  12 FLUX_RADIUS            Fraction-of-light radii                                    [pixel]
#  13 FWHM_IMAGE             FWHM assuming a gaussian core                              [pixel]
#  14 BACKGROUND             Background at centroid position                            [count]
#  15 THRESHOLD              Detection threshold above background                       [count]
#  16 FLUX_MAX               Peak flux above background                                 [count]
#  17 ISOAREA_IMAGE          Isophotal area above Analysis threshold                    [pixel**2]
#  18 A_IMAGE                Profile RMS along major axis                               [pixel]
#  19 B_IMAGE                Profile RMS along minor axis                               [pixel]
#  20 THETA_IMAGE            Position angle (CCW/x)                                     [deg]
#  21 FLAGS                  Extraction flags                                          
         1    604.8784     28.7652 307.6753225  +6.6715651     6106.562     13274.97     17271.79      93.2989     186.5237     372.8252      2.529    11.48     1217.661     65.70996     607.1499        47     2.834     1.296  76.52   3
         2    608.3942     26.8007 307.6739239  +6.6724931     5567.991     11401.26     13734.07     92.70464     186.0787     372.5656      2.192     7.11      1217.56     65.70996     599.2246        35     2.025     1.187  73.08   3
         3    506.2188     24.4249 307.7165932  +6.6700806     1741.734      5324.44     8124.161     92.85355      186.153      372.714      3.475    11.06     1221.472     65.70996     197.1381        42     2.387     1.428 -49.23   2
         4    232.1628     19.3842 307.8309941  +6.6630417     2839.504     10570.76      15138.6     93.00224     186.2272     372.4915      3.444     8.70     1246.281     65.70996      366.417        74     2.402     2.100 -47.44   2
         5    411.9994     19.8477 307.7560211  +6.6688381     7152.074     22704.16     30143.81     92.70463     186.0045     372.2688      2.928     8.97     1230.505     65.70996     774.0726        79     2.512     2.077 -56.61   2
         6    888.1549     18.8505 307.5575816  +6.6850494     686.1491     2026.092     2717.253     93.59461     186.3014     372.8252      2.912     5.97     1210.418     65.70996     116.1082         8     1.966     0.510  71.48   0
         7    592.4714     16.8953 307.6808976  +6.6760551      1156.51     4239.162     5967.081      93.2989     186.5237     372.7881      3.211    11.22     1217.627     65.70996     154.4703        39     2.032     1.725  75.28   0
         8    222.0171     15.5902 307.8353523  +6.6642703      1066.46     2689.344     5440.123     93.15069      186.153     372.6398      5.048     8.42     1246.361     65.70996     136.3105        17     2.021     0.980  63.22   3
         9    149.6326      2.7942 307.8659592  +6.6671409     3718.763     9486.715     10283.94     92.70464     171.0682     307.1967      2.385     9.45     1246.323     65.70996     405.8473        41     2.146     1.298 -13.82  24
        10    493.5996      1.5273 307.7226326  +6.6791170     793.6157     1633.396     1318.665     82.95087     150.8069     284.1103      2.073     6.50     1222.861     65.70996      112.274        11     1.856     0.639   3.35  24
        11    894.3259      1.1377 307.5556099  +6.6925685     758.8568     704.9008      946.152     78.50072      144.538     276.5695      1.001     2.85     1209.322     65.70996     219.3154         5     1.049     0.291 -10.53  24
        12    516.8171    982.7353 307.6795887  +6.2746785     2460.509     6157.713     7556.396     92.85355     186.3755     372.6398      2.485     5.98     1278.156     65.70996     297.4298        41     1.786     1.566 -67.41   3
        13    770.7381   1023.8897 307.5724355  +6.2661031     1279.292     1939.189     2007.832     77.61568      144.251     276.1195      1.450     3.86     1277.854     65.70996     338.8333         8     1.516     0.281  -5.32  24
        14    553.7325   1017.8846 307.6630198  +6.2613883     95047.33     219462.6     260011.1     93.74213     186.7458      364.846      2.446     5.75     1279.719     65.70996     9819.316       135     2.246     1.858 -65.58  19
        15    555.4100   1010.3473 307.6625771  +6.2645567      43858.8     96051.96     106871.7     92.70464     186.3014     372.4915      2.243     5.31     1279.264     65.70996     4853.461        68     1.814     1.531  -3.57   3
        16    187.7487   1020.9785 307.8153378  +6.2479416     2261.714     5188.127     6226.085     92.85355      184.363     327.2752      2.463     5.92     1277.374     65.70996     295.5029        31     1.645     1.356 -72.47  24
        17    513.9166    974.7858 307.6810669  +6.2778652     4586.648     11521.15     13963.86     93.00224      186.153     372.5656      2.555     5.56     1277.735     65.70996     508.4919        57     1.988     1.697 -51.52   2
        18    267.0056    981.5515 307.7836728  +6.2668626      7956.36     20328.71     24409.99     92.70463     186.2272     372.4173      2.516     5.48     1278.524     65.70996     858.7319        69     2.023     1.775 -61.72   0
        19    721.1417    981.8122 307.5945188  +6.2818371     5022.285     11330.84     11566.93     92.70463     186.3755     372.4544      2.255     4.99     1276.068     65.70996     528.7913        46     1.660     1.568 -47.91   0
        20    782.3757    980.3088 307.5690654  +6.2844864     586.6206     1227.624     741.1343     93.59462     186.2272     372.6027      1.467     4.93     1275.188     65.70996     101.9651         6     1.699     0.405   7.75   0
        21    882.3918    975.1428 307.5275825  +6.2899303     6547.564     13038.02     14633.79     92.70463     186.3014     372.4915      2.116     4.45     1273.852     65.70996      826.213        45     1.674     1.422 -59.61   0
        22    856.1158    971.3658 307.5386547  +6.2906207     8773.409     18334.72     20552.28     93.44688     186.3014      372.751      2.198     4.60     1274.029     65.70996     1022.582        58     1.815     1.538 -56.79   0
        23    977.8149    970.5882 307.4879914  +6.2949666     4003.732     7336.118     7603.662      93.2989     186.0787      372.714      1.897     4.04     1272.201     65.70996     517.5864        35     1.466     1.347 -47.89   0
        24    500.3897    970.6260 307.6868422  +6.2791338     2273.998     5919.931     6283.277     93.00224     186.2272     372.6398      2.454     5.95     1277.544     65.70996     326.0579        43     1.783     1.692 -62.43   0
        25    453.5840    966.8965 307.7064635  +6.2791193     1179.596     3010.855     3361.544      93.2989     186.2272     372.6027      2.563     9.07     1277.499     65.70996     170.8777        20     1.950     1.344 -43.94   0
        26    610.5855    969.0682 307.6409984  +6.2834346     723.0392      1479.24     1196.874     92.85355     186.3014     372.6769      1.987     5.23     1275.818     65.70996     165.3893         6     1.438     0.537  -3.49   0
        27    887.8489    958.8031 307.5258628  +6.2968588     30831.98        63389     69630.08     92.70463      186.153      372.306      2.143     4.42     1272.613     65.70996     3553.347        77     1.782     1.614 -66.76   0
        28    196.1721    957.0441 307.8140090  +6.2746247     818.6846     1676.106     2058.671     93.00224     186.5237     372.6769      2.120     6.34     1277.175     65.70996     96.95105        10     1.351     0.835  32.47   0
        29    785.9782    952.5211 307.5685066  +6.2960814     1488.591     3250.805     3665.558     93.00224     186.0787     372.7881      2.181     6.98     1273.516     65.70996     160.7333        26     1.596     1.345 -64.43   0
        30    733.9413    950.3972 307.5902528  +6.2952349     3927.117     9459.477     11124.79     92.70463     186.2272     372.4915      2.455     5.55     1274.469     65.70996     454.9675        49     1.885     1.636 -68.42   0
        31     28.8362    948.3538 307.8839978  +6.2726350      1591.55     3515.127     4022.757     93.15069     186.4496     372.6769      2.246     6.32     1274.331     65.70996     213.4269        26     1.530     1.294  82.62   0
        32    521.4674    949.3775 307.6787853  +6.2886088     598.1876     1278.263     1453.207     93.00224     186.3755      372.751      2.116     3.44     1276.341     65.70996     99.30261         5     1.107     0.309  20.59   0
        33    922.0940    945.5607 307.5120472  +6.3034603     4927.924     9830.625     10516.77     93.59461     186.3755     372.8993      2.107     4.53     1270.929     65.70996     559.7914        42     1.696     1.372 -58.19   0
        34    896.1829    936.8625 307.5231343  +6.3061955     1423.268     2779.303     2704.304     92.85355     186.3755     372.6027      1.968     6.28     1270.922     65.70996     153.1689        19     1.360     1.025 -31.34   0
        35    755.5850    933.2853 307.5818180  +6.3030188     983.5569     2081.771     2346.427     93.00224      186.153     372.6769      2.289     7.28     1273.122     65.70996     110.3879        14     1.712     0.868 -84.56   0
        36    616.7749    933.3423 307.6396332  +6.2983939     2536.268       6028.8     7319.036     93.00224     186.4496     372.6398      2.429     5.74     1274.393     65.70996     308.2013        41     1.766     1.548 -35.44   0
        37    229.1421    934.1254 307.8010584  +6.2851873     2070.531     5699.862     6408.461     93.44687     186.4496     372.7881      2.565     7.21     1277.643     65.70996     242.8094        41     1.794     1.656 -26.36   0
        38    440.2572    930.7485 307.7132433  +6.2936045     582.5173     1141.258     1391.259     93.44688     186.4496     372.7881      2.409     4.29     1275.964     65.70996     116.7812         5     1.303     0.402 -51.70   0
        39    972.9266    925.9774 307.4915366  +6.3132285     637.5897     1387.598     2371.053     93.00224     186.2272      372.751      3.413     6.80     1268.813     65.70996     116.0865         9     1.875     0.691 -54.63   0
        40    940.9910    926.6647 307.5048155  +6.3118889     589.4225     1037.908      1633.51     92.85355     186.2272     372.6398      1.912     4.71     1269.349     65.70996     89.67664         5     1.052     0.598 -71.63   0
        41    542.1419    925.6359 307.6709808  +6.2990998     995.8874     2350.925     3169.365     93.44688     186.4496     372.7881      2.557     7.43     1275.109     65.70996     126.0646        16     1.543     1.001   2.49   0
        42    580.6734    921.7914 307.6550623  +6.3019663     597.1973     1364.176     1228.949     93.00224     185.9302     372.6027      1.922     4.73     1274.571     65.70996     110.2692         6     1.425     0.445  24.71   0
        43    261.0763    920.2317 307.7882312  +6.2919882     824.8286     1901.155     2531.385      93.2989     186.5237      372.751      2.649     7.15     1277.516     65.70996     127.3784        14     1.480     1.219  45.01   0
        44    864.8765    912.3898 307.5370029  +6.3152666     4680.887     9895.418     10383.29     93.00224     186.0045     372.5656      2.188     4.75      1270.23     65.70996     531.8362        46     1.662     1.512 -40.06   0
        45    402.1751    909.7695 307.7298185  +6.3010025     1130.115      2593.82     3438.242     92.85355     186.3014     372.6027      2.975     8.06     1276.065     65.70996     147.4425        19     1.836     0.989 -71.61   2
        46    302.6122    908.6334 307.7713263  +6.2981603      4505.59     12634.89     14770.67     92.85355      186.153     372.6398      2.637     6.08     1277.299     65.70996     526.0765        60     1.962     1.837 -48.69   0
        47    222.6740    907.6163 307.8046558  +6.2959193     3535.025     9594.146     10968.74     92.85355      186.153     372.6398      2.575     6.28     1277.242     65.70996     412.2485        51     1.844     1.780  86.98   0
        48    837.4046    896.0256 307.5490002  +6.3211155      612.284     1224.279     1059.016     92.85355     186.2272     372.6027      1.878     4.80     1269.841     65.70996     83.06335         5     1.057     0.618  -0.81   0
        49    716.8124    889.6696 307.5994468  +6.3197464     785.3048     2089.378     3004.713     92.85355     186.2272     372.6398      2.803     6.13      1271.59     65.70996     103.6194         8     1.384     0.763  21.11   0
        50    947.2927    886.4745 307.5035506  +6.3286951     1162.962     2005.084     2136.236     93.44688     186.5978      372.751      1.819     5.34     1267.469     65.70996     147.7578        11     1.049     0.830 -41.23   0
        51    635.2150    884.1519 307.6336222  +6.3193199     1182.514     3213.737     3615.461     92.70463     186.3755     372.4544      2.516     8.26     1273.098     65.70996     148.5684        26     1.697     1.512  58.08   0
        52    502.7761    886.1586 307.6887190  +6.3140958     715.9357     1393.607     2204.216     93.00224     186.2272     372.5286      2.350     4.31      1274.48     65.70996     87.61414         5     0.741     0.713  62.36   0
        53     32.5131    880.6013 307.8847798  +6.3007366     1519.018     4011.747     4908.607     92.55547     185.9302     372.4544      2.669     7.24     1273.233     65.70996     232.2257        34     1.931     1.519 -82.16   0
        54     50.1689    879.7706 307.8774545  +6.3016687     910.2012     2206.789     2323.684     92.85355      186.153     372.4915      2.275     7.99     1273.375     65.70996     125.4865        15     1.547     1.155  45.74   0
        55    630.2415    873.5012 307.6360554  +6.3235535     3566.376      9001.94     10112.42     93.44688     186.3014     373.0475      2.505     5.71     1273.024     65.70996     397.6777        52     1.856     1.730 -56.75   0
        56    867.7951    869.5845 307.5372369  +6.3330409     1774.611     3717.344     3766.483     93.00224     186.0788     372.6027      2.066     4.84     1268.062     65.70996     283.2822        25     1.482     1.233 -72.35   0
        57    174.2191    880.2617 307.8257701  +6.3056016     936.5382     2777.902     3660.927     93.00224     186.3755     372.6398      2.794     7.94     1275.509     65.70996     147.0525        14     1.637     1.076  73.17   2
        58    313.3486    866.8694 307.7682766  +6.3157647     7287.276     20967.59     25804.31      93.2989     186.3014     372.7881      2.727     6.21     1276.621     65.70996     815.7607        73     2.094     1.909 -63.36   0
        59     47.6540    868.1807 307.8788977  +6.3063709     673.3094     1750.942      1936.44     92.85355     186.4496     372.5656      2.399     7.42     1273.255     65.70996     105.5492         9     1.517     1.016 -23.65   0
        60     77.4184    857.3528 307.8668701  +6.3118352      945.531     2274.708     2906.162     92.85355     186.3755     372.5656      2.613     8.32     1273.147     65.70996      123.072        14     1.471     1.316  38.12   0
        61    393.1041    856.9219 307.7353949  +6.3225254     647.4649     968.9802     1865.568     93.15069     186.7458     372.8622      2.746     6.12     1275.109     65.70996      92.4668         7     1.253     0.841  85.41   0
        62    858.0519    851.1644 307.5419193  +6.3403256      1158.76     2576.528     2241.015      93.2989     186.4496      372.714      2.151     7.38     1267.066     65.70996      158.823        18     1.338     1.138 -73.91   0
        63    828.9067    850.3351 307.5540879  +6.3397034     1097.556      2549.84     2665.998      93.2989     186.6718     372.8252      2.249     6.43     1267.547     65.70996     158.6852        15     1.448     1.191   4.15   0
        64    792.3152    850.0078 307.5693413  +6.3386271     1827.277     4110.712     4761.988     93.00224     186.0788     372.6027      2.392     5.82     1268.177     65.70996     221.6843        28     1.586     1.350 -54.38   0
        65     60.7853    850.5640 307.8740298  +6.3140839         1259     2633.138     3138.989     93.00224     186.2272     372.5656      2.222     6.88     1272.912     65.70996     150.8309        17     1.529     0.923  36.08   0
        66    528.3189    841.8227 307.6795863  +6.3332535     148085.8     425739.8     510594.2     93.00224     186.0787      372.714      2.691     6.29     1272.661     65.70996     15426.66       193     2.256     2.087 -70.33   0
        67    372.6823    844.7161 307.7443166  +6.3268870     3189.768     9761.527     11302.88     93.15069     186.7458     372.8622      2.692     6.94     1274.978     65.70996     352.0881        59     2.041     1.891 -43.82   0
        68    315.8945    842.9286 307.7680314  +6.3257362     5319.624     15604.25        18858     93.44688     186.5237     372.7881      2.702     6.61     1275.843     65.70996     562.6871        69     2.109     1.897 -73.69   0
        69    634.2352    838.8990 307.6355665  +6.3379758     1648.246     4281.054     4634.243     93.44688     186.3014     372.9734      2.409     8.13     1270.633     65.70996     187.0116        33     1.674     1.566 -37.74   0
        70    866.5568    837.8478 307.5388276  +6.3461065     3239.081     7546.718     8548.957     93.44688     186.3755      372.714      2.341     5.48     1266.055     65.70996     366.6155        46     1.795     1.591 -52.17   0
        71    608.6953    833.1014 307.6464020  +6.3395229     1472.382     4194.401     5907.128     93.44688     187.0415     372.6027      3.471     8.94      1270.51     65.70996     178.0052        33     1.711     1.583  -8.55   0
        72    999.9700    831.8522 307.4834556  +6.3529944     3255.344     6833.333     7113.042     93.15069     186.5978      372.714      2.154     4.92      1262.29     65.70996     449.7874        36     1.654     1.354 -71.01   0
        73    599.8215    830.2491 307.6501952  +6.3404064     828.6243     2381.618     4544.142     92.85355     186.5237     372.6398      3.588     7.09     1270.476     65.70996     127.1293         7     1.714     0.822  75.19   2
        74    885.3014    825.5490 307.5314358  +6.3518059     2143.219     4448.534     4739.516     93.44688     186.4496     373.0475      2.187     5.56     1265.078     65.70996       244.49        27     1.507     1.236 -52.17   0
        75    343.5962    821.7000 307.7572155  +6.3354245     1171.616     3683.479     5021.514     93.15069      186.153     372.3802      3.130    10.64     1274.805     65.70996     167.6356        29     2.007     1.573 -30.87   0
        76    482.2708    811.6411 307.6997934  +6.3441884     1062.115      1764.88     2568.581      93.2989     186.4496     372.8622      1.548     5.41     1271.632     65.70996     160.5815         9     1.272     0.649 -80.93   3
        77    479.1630    810.7145 307.7011194  +6.3444678     1144.901      2665.92     3045.824     93.44688     186.3755     372.7881      2.421     8.17     1271.619     65.70996     179.7096        16     1.613     1.158 -76.25   2
