#   1 NUMBER                 Running object number                                     
#   2 X_IMAGE                Object position along x                                    [pixel]
#   3 Y_IMAGE                Object position along y                                    [pixel]
#   4 ALPHA_J2000            Right ascension of barycenter (J2000)                      [deg]
#   5 DELTA_J2000            Declination of barycenter (J2000)                          [deg]
#   6 FLUX_APER              Flux vector within fixed circular aperture(s)              [count]
#   9 FLUXERR_APER           RMS error vector for aperture flux(es)                     [count]
#  12 FLUX_RADIUS            Fraction-of-light radii                                    [pixel]
#  13 FWHM_IMAGE             FWHM assuming a gaussian core                              [pixel]
#  14 BACKGROUND             Background at centroid position                            [count]
#  15 THRESHOLD              Detection threshold above background                       [count]
#  16 FLUX_MAX               Peak flux above background                                 [count]
#  17 ISOAREA_IMAGE          Isophotal area above Analysis threshold                    [pixel**2]
#  18 A_IMAGE                Profile RMS along major axis                               [pixel]
#  19 B_IMAGE                Profile RMS along minor axis                               [pixel]
#  20 THETA_IMAGE            Position angle (CCW/x)                                     [deg]
#  21 FLAGS                  Extraction flags                                          
         1      2.8629     23.7645 307.9360379  +6.6320169     724398.6      1452870      1550309     79.96145     147.5792      264.474      2.070     7.22     894.9703     56.31646     64200.18       251     2.095     1.511  83.94  28
         2    432.1658     21.8679 307.7577410  +6.6472482     4320.512      6550.41      7018.98     79.96145     159.8594     319.5918      1.594     3.72     875.6337     56.31646     607.4348        25     1.376     0.934  82.30   0
         3    886.6812     18.2962 307.5690123  +6.6639500     2274.429     2922.155     3173.471     79.83443     160.1132     319.5601      1.332     3.01     866.7673     56.31646     380.4764        16     1.221     0.731  68.64   0
         4    904.5431     17.2155 307.5616268  +6.6649930     4059.023     6075.466       6781.1     79.45213     159.7324     319.2423      1.620     3.52     866.0592     56.31646     665.6174        25     1.487     0.913  65.64   0
         5    596.7631     15.7377 307.6895596  +6.6553015     1915.091     2656.953     2342.664     80.08827     159.8594     319.4966      1.504     3.63     872.5654     56.31646     272.2178        16     1.183     0.844  66.63   0
         6    395.5949     13.8158 307.7732074  +6.6493438     2058.523     3280.225     3546.749      79.7072      159.478     319.3377      1.670     4.05     878.2348     56.31646     296.5005        21     1.402     0.944  75.84   0
         7    242.5624     14.9666 307.8367499  +6.6437237     924.4394     1091.108     1440.229     79.83442     159.6053     319.2741      1.375     3.96     885.8585     56.31646     133.9782         8     1.110     0.461  79.48   0
         8    143.4990     10.6357 307.8780541  +6.6421766     3629.898     5287.204     5391.485     80.08827     159.6688     319.6871      1.576     3.47     884.0666     56.31646      472.304        22     1.289     0.938  80.92   0
         9     25.4015      8.4839 307.9271919  +6.6390847      13221.9     19391.14     20441.95      79.3243     159.3507     319.2105      1.596     3.37     892.7252     56.31646     1751.078        44     1.530     1.058  76.47  16
        10    291.7981      8.9856 307.8164959  +6.6478488      1319.31     1722.125      1540.19      79.7072      159.478     319.3059      1.446     3.43     885.8537     56.31646     221.8607        13     1.126     0.736  73.96   0
        11    565.0172      8.0264 307.7030096  +6.6574203     819.3174     1257.548     1299.968      79.7072     159.5417     318.0958      1.528     5.49     872.5922     56.31646     133.4916        10     1.220     0.698  58.44  16
        12    552.4672      7.7791 307.7082324  +6.6571015     761.0147     1001.155     937.0178      79.7072     159.7959     316.8491      1.375     4.42     872.6407     56.31646     122.5092         7     1.125     0.494  86.06   0
        13    946.2198      7.5496 307.5446343  +6.6703757      564.706     586.2427     1454.911     79.57977     159.8594     315.4366      1.347     3.71     864.3005     56.31646     102.7844         5     0.990     0.399  83.02   0
        14    760.4919      7.7533 307.6217991  +6.6640817     791.6353     1110.915     1445.935     80.08827     159.7324     316.8811      1.433     4.08     869.3762     56.31646     127.2665         7     1.020     0.466 -78.53   0
        15    827.1542      3.1145 307.5942564  +6.6682270      6710.89     9030.267     9344.674     80.08827     150.2373     268.0948      1.407     3.32     868.6312     56.31646     1044.832        27     1.306     0.926  83.90  24
        16    772.2486      3.5876 307.6170542  +6.6661949     3364.638     4770.981     5024.355     79.45213     154.6315     274.5287      1.485     3.36     869.3735     56.31646     488.3717        20     1.215     0.835  75.85  24
        17    417.2483      3.4568 307.7645603  +6.6543474     1128.512     1661.808     1616.358     80.08827     153.5778     273.0832      1.563     4.85     876.2005     56.31646     161.1883        11     1.145     0.679  83.83  24
        18    917.5511      2.5141 307.5567156  +6.6714967     547.0898     766.1777     1227.325     80.08827     143.4645     259.2418      1.606     3.99     864.8665     56.31646     110.2094         5     0.956     0.493  85.21  24
        19    758.9981      2.8307 307.6225854  +6.6660639     571.6514     975.2086     1157.571     79.45213      147.028     263.7054      1.633     4.34      869.218     56.31646     99.30371         6     1.285     0.417  55.35  24
        20    534.8196      1.9136 307.7157626  +6.6589309     1197.196     1311.787     1466.914     75.92495     135.2346     249.8725      1.216     3.44     872.7508     56.31646     177.8035         9     0.813     0.728  75.52  24
        21     65.7320      1.5709 307.9106704  +6.6432981     1844.798     2121.267      1937.97     72.50622     130.4987     244.2863      1.052     2.02     887.2021     56.31646     507.9975        10     0.865     0.681 -16.69  24
        22     50.3656      1.6669 307.9170513  +6.6427405     864.8701     1068.464     1057.498     73.89269     132.1986     245.9837      1.150     3.30     889.4039     56.31646     132.4159         8     0.885     0.672  14.13  24
        23    234.4300    985.3774 307.8073453  +6.2428584      1406.62     2002.318     2263.793     79.45213     159.5417     319.3059      1.580     4.22     904.9403     56.31646     182.4402        15     1.186     0.870  67.60   0
        24    968.9958   1022.1583 307.5011426  +6.2522800     3476.182     5735.723      5950.22     79.45213      147.028     263.8978      1.713     4.00      893.875     56.31646     415.9286        28     1.396     1.171  53.88  24
        25   1010.7512    984.4104 307.4850712  +6.2692567     616.1116     1006.442     1313.103     79.57977     159.6053     319.1787      2.029     5.99      892.554     56.31646     79.11047         8     1.235     0.817 -36.41   0
        26    799.6850    977.3663 307.5729394  +6.2651155     14262.63      21617.3     23115.31     80.08827     159.6688     319.4648      1.658     3.45     898.2585     56.31646     1928.121        44     1.560     1.076  76.50   0
        27    714.8272    980.2450 307.6080741  +6.2610889     790.1808     1034.934     1221.654     79.57977     159.8594     319.4012      1.386     4.45     899.6543     56.31646     166.3083         7     1.036     0.543  75.75   0
        28     70.2496    977.5581 307.8757682  +6.2405628     8099.264     11796.71     12265.05     80.21489     159.7959     319.4648      1.605     3.47     903.8967     56.31646     1042.696        30     1.458     0.958  84.77   0
        29    991.6193    976.3600 307.4932843  +6.2719418      824.887     1130.095     1288.323      79.7072     159.6053     319.2105      1.522     5.08     892.6158     56.31646     122.8763         9     1.094     0.667  46.04   0
        30    583.0848    968.1556 307.6631770  +6.2616687     166382.6     244812.3     259331.6     80.08827     159.7324     319.4966      1.565     3.47     902.8539     56.31646     24066.43       109     1.646     1.184  75.98   3
        31    584.8169    961.0120 307.6626982  +6.2646757     77910.38     114683.6     121799.6     79.83443      159.478     319.4012      1.550     3.31     902.5257     56.31646     11609.59        74     1.599     1.108  72.10   3
        32    216.8761    970.9729 307.8151191  +6.2482146     3949.497     5876.497     5647.321     79.96145     159.7959     319.4648      1.559     3.40     904.7056     56.31646     541.5272        26     1.351     0.991  70.34   0
        33    400.5421    970.8188 307.7388737  +6.2544480     641.4772     812.6448     645.3997      79.7072     159.6688     319.3059      1.598     4.61     904.1871     56.31646     113.4133         8     1.130     0.617  73.13   0
        34    758.6913    970.1934 307.5902001  +6.2667058     873.2495     1218.306      825.166      79.7072      159.478     319.2741      1.612     5.15     898.7613     56.31646     145.8595        10     1.277     0.588  68.94   0
        35    965.1609    967.8423 307.5045551  +6.2745751     592.0672     1246.783     1461.144     79.83442     159.8594     319.3695      2.181     4.65      892.912     56.31646     73.31537         7     1.466     0.418 -58.64   0
        36    794.0065    965.1312 307.5757077  +6.2699766     6881.555     10410.96     11157.73     79.57977     159.4144     319.3377      1.607     3.59     898.1079     56.31646     944.4026        32     1.451     1.019  76.42   0
        37    493.2866    967.8716 307.7004685  +6.2587760     634.0565      907.649     736.8022     80.21489     160.0498     319.4966      1.747     5.11     903.6644     56.31646     105.7128         7     1.172     0.630  30.27   0
        38    891.9694    961.8892 307.5351433  +6.2745888     1500.188     2371.022     2522.948     80.21489     159.6053      319.433      1.801     4.53     895.0892     56.31646     232.4795        17     1.516     0.721  69.40   0
        39    214.6319    960.2879 307.8164116  +6.2525500     2359.708     3559.114     3450.071     80.21489     159.6053     319.4966      1.613     4.08     904.4894     56.31646     313.4567        19     1.309     0.896  78.97   0
        40    751.0345    959.6364 307.5937337  +6.2708079     815.3833     1270.833     1323.891     79.83442     159.5417     319.2423      1.862     5.53     898.7302     56.31646     127.7558        11     1.295     0.666  66.95   0
        41    979.3749    960.1498 307.4989113  +6.2782252     514.7728     758.4062     936.6221      79.7072     159.7959     319.4012      1.473     4.19     892.4756     56.31646     88.97162         6     0.754     0.663 -47.00   0
        42    717.8790    957.5515 307.6075695  +6.2705594     7742.106      11534.3     12590.64     80.08827     159.8594     319.4648      1.594     3.52     899.2281     56.31646     1114.167        34     1.445     1.046  74.11   0
        43    432.6331    957.6461 307.7259944  +6.2609628     4164.017     6219.055     6898.284     79.83443     159.7959      319.433      1.600     3.56     903.7928     56.31646     604.8383        27     1.370     1.034  78.78   0
        44    573.7898    956.5837 307.6674254  +6.2661344     4310.823     6234.342     7537.796     79.83443     159.5417     319.3695      1.587     3.58     902.5062     56.31646     670.1073        25     1.453     0.890  70.86   0
        45    709.7962    956.5654 307.6109584  +6.2706960     1298.162     1916.533     2953.784      79.3243     159.6688     319.2741      1.818     4.13     899.3327     56.31646     212.9849        14     1.102     0.946  40.99   0
        46    749.8812    952.9288 307.5944378  +6.2735384     1349.142     2126.216     1663.823     80.34132     160.1132     319.5283      1.705     5.16     898.6375     56.31646     196.9594        18     1.518     0.860  76.89   0
        47    957.4456    947.1424 307.5084523  +6.2828630     6704.149     10723.96     11616.52     80.08827     159.7959     319.5918      1.746     3.75     892.7284     56.31646     792.4753        39     1.567     1.191  79.85   0
        48    241.8673    947.2371 307.8055452  +6.2588531     1313.179     2061.035     2205.137     79.96145     159.7959     319.5918      1.663     4.64     904.3049     56.31646     191.5864        14     1.395     0.639  79.57   0
        49    712.0134    947.2173 307.6103520  +6.2746293     928.0412     1564.222     2836.419     79.83442      159.478     319.4012      2.253     3.74     899.1255     56.31646      124.766        10     1.005     0.745  88.65   2
        50    717.1564    945.0019 307.6082911  +6.2757160     2718.649     4168.693     5117.216     79.45213     159.4144     319.1469      1.624     3.87     899.0222     56.31646     369.2136        19     1.242     0.937  70.41   2
        51    440.2775    946.0248 307.7232122  +6.2660168     1065.494      1420.04     1209.888      79.7072     159.6688     319.4648      1.558     5.32     903.5215     56.31646      154.296        15     1.208     1.005  79.79   0
        52    732.7932    944.6035 307.6018122  +6.2764037     1118.348     1597.727     1326.412     79.45213      159.478     319.3377      1.444     4.31      898.805     56.31646     184.6552         9     1.254     0.492  78.47   0
        53    363.7577    942.6576 307.7550948  +6.2648385     1935.009     2924.113     3121.014     79.96145     159.7959     319.5601      1.678     3.13     904.0638     56.31646     351.3931        18     1.290     0.858  59.29   0
        54    974.4028    940.8098 307.5016238  +6.2860433     467.5141     707.0836     1100.622     79.57977      159.478     319.3059      1.919     3.41      892.188     56.31646     81.86438         5     0.767     0.438 -69.42   0
        55    614.0415    936.4709 307.6513901  +6.2757857     451.2224     666.2755     1024.457     79.96145     159.7959     319.5601      1.859     4.19     900.9171     56.31646     77.03961         5     1.135     0.442  63.60   0
        56    296.1862    931.4851 307.7835253  +6.2671811     16214.68     23380.27     24695.99      79.7072     159.5417     319.4012      1.556     3.49     903.9774     56.31646     2277.607        48     1.510     1.094  81.21   2
        57    300.5800    928.7887 307.7817921  +6.2684419     1125.404     1909.816     2718.883      79.7072      159.478     319.4012      1.977     3.82     903.9692     56.31646     180.3099        11     1.212     0.646  68.24   3
        58    750.6807    932.2164 307.5948016  +6.2821157     8441.888     12540.51     13379.34      79.7072      159.478     319.3377      1.596     3.47     898.2894     56.31646     1198.313        36     1.466     1.039  75.24   0
        59    546.1907    932.7791 307.6796851  +6.2750364     4372.137     6711.827     8197.579      79.7072      159.478     319.3059      1.716     3.48     901.9756     56.31646     654.0095        31     1.472     1.025  78.36   3
        60    543.2974    924.8974 307.6811517  +6.2781932     8763.168     12971.33     14604.33     80.08827     160.3032     319.3377      1.589     3.45     901.7393     56.31646     1178.007        35     1.522     0.959  79.68   3
        61    516.3713    933.8747 307.6920288  +6.2735846     1247.374     1832.437     1883.997     79.96145     159.7959     319.4648      1.576     5.29     902.3976     56.31646     163.4976        14     1.390     0.750  82.69   0
        62    122.4249    932.5494 307.8556291  +6.2608988     636.6982     817.3004     1231.704      79.7072     159.7959     319.4012      1.884     5.45     903.3321     56.31646     94.69269         6     1.619     0.518  65.40   0
        63    811.4448    931.3458 307.5696016  +6.2845070     1228.452     1766.523     1456.267     80.08827     159.7959     319.5283      1.581     6.37     896.7616     56.31646     178.5428        15     1.579     0.754  41.81   0
        64    420.5894    931.8856 307.7318627  +6.2711930     1054.799     1549.364     1829.087      79.7072     159.5417     319.3377      1.603     4.00     903.4773     56.31646     189.1533         8     1.142     0.432  77.11   0
        65    267.3992    928.7408 307.7955695  +6.2673467     1064.311     1573.439     1912.087      79.3243     159.5417     319.1787      1.550     5.14     904.0112     56.31646     137.4407        13     1.237     0.833 -88.58   0
        66    911.9949    925.6584 307.5280438  +6.2902146     9049.784        13919     14430.22     79.57977     159.6688     319.2741      1.624     3.59     893.3758     56.31646     1338.682        34     1.508     1.008  71.38   0
        67    629.2570    927.2078 307.6453843  +6.2801193     455.2015     614.1713     384.0158     79.45213     159.6688     319.2423      1.123     3.78     900.2173     56.31646     88.38763         5     0.961     0.428  43.98   0
        68    885.6650    921.8615 307.5391035  +6.2909027     12429.34     19526.17     21681.91     80.08827     159.7959     319.5283      1.731     3.50     893.5499     56.31646     1540.759        57     1.610     1.313  63.06   0
        69   1007.3723    921.2653 307.4885896  +6.2952121      4983.81     7866.284     7989.407      79.7072     159.7959     319.4012      1.711     3.63     890.8307     56.31646     587.4202        32     1.512     1.044  69.27   0
        70    598.2639    922.2872 307.6584179  +6.2811125      1464.75     2210.078     2156.466     80.08827     159.9229     319.5283      1.559     4.31     900.7414     56.31646     198.1005        14     1.384     0.681  76.81   0
        71    529.7096    920.7547 307.6869326  +6.2794479     4318.938     6558.566     7200.558     80.08827     159.7324     319.6236      1.651     3.43     901.7936     56.31646     654.4421        27     1.409     0.985  79.86   2
        72    639.3667    920.2417 307.6414211  +6.2833336     1477.739     2191.048     1962.661     79.83443     159.7959     319.3377      1.615     4.59      899.836     56.31646     177.6262        14     1.256     0.780  79.61   0
        73     64.6414    919.8766 307.8800468  +6.2641850     923.8099     1546.993     1330.915     79.96145     159.7959     319.5283      1.816     5.45     903.5471     56.31646     130.5554        10     1.174     0.715  70.25   0
        74    482.8623    917.2502 307.7065011  +6.2793238      2304.98     3199.287     3081.936     80.08827     159.7324     319.5601      1.482     3.67      902.335     56.31646       333.58        17     1.305     0.770  74.88   0
        75    917.3616    909.3764 307.5263615  +6.2971155     45229.08     68663.38     73021.66      79.7072     159.5417     319.3059      1.649     3.47     893.1559     56.31646     5722.141        70     1.612     1.189  73.42   0
        76    322.9188    911.6617 307.7730954  +6.2762625     477.8057     821.7605      996.026     80.21489     159.7959     319.4648      1.826     4.16     903.9001     56.31646     87.09314         5     0.813     0.608  79.20   0
        77    224.8067    907.6279 307.8139654  +6.2746305     1809.346     2567.177      2570.48     79.57977     159.6688     319.3059      1.521     3.61      903.806     56.31646     248.0563        14     1.137     0.771  78.03   0
