#   1 NUMBER                 Running object number                                     
#   2 X_IMAGE                Object position along x                                    [pixel]
#   3 Y_IMAGE                Object position along y                                    [pixel]
#   4 ALPHA_J2000            Right ascension of barycenter (J2000)                      [deg]
#   5 DELTA_J2000            Declination of barycenter (J2000)                          [deg]
#   6 FLUX_APER              Flux vector within fixed circular aperture(s)              [count]
#   9 FLUXERR_APER           RMS error vector for aperture flux(es)                     [count]
#  12 FLUX_RADIUS            Fraction-of-light radii                                    [pixel]
#  13 FWHM_IMAGE             FWHM assuming a gaussian core                              [pixel]
#  14 BACKGROUND             Background at centroid position                            [count]
#  15 THRESHOLD              Detection threshold above background                       [count]
#  16 FLUX_MAX               Peak flux above background                                 [count]
#  17 ISOAREA_IMAGE          Isophotal area above Analysis threshold                    [pixel**2]
#  18 A_IMAGE                Profile RMS along major axis                               [pixel]
#  19 B_IMAGE                Profile RMS along minor axis                               [pixel]
#  20 THETA_IMAGE            Position angle (CCW/x)                                     [deg]
#  21 FLAGS                  Extraction flags                                          
         1    176.1120     17.9911 307.8650531  +6.6681570     11101.65     16917.09     16811.56     77.63546     155.3329     310.9756      1.570     3.18     824.1178      54.8527     1621.256        42     1.472     1.110 -54.61   0
         2    520.2417     16.3217 307.7221399  +6.6804257     2972.929      4395.05     4088.885     77.88311     155.6425     311.1923      1.549     3.12     818.0567      54.8527     411.4838        21     1.287     0.898 -58.63   0
         3    921.7480     15.8235 307.5553408  +6.6940894     4078.285     6147.975     6578.988     77.51134     155.6425     311.0685      1.566     3.20     814.2273      54.8527     650.7253        24     1.346     0.920 -56.13   0
         4    722.7380     14.3961 307.6380735  +6.6880150     2048.684     2925.632     3142.785     77.38703     155.3949     310.9137      1.523     3.42     816.6593      54.8527     303.3044        17     1.209     0.858 -59.34   0
         5    458.5248     14.5281 307.7478414  +6.6790923     2041.167     2907.434     2563.596      78.2531     155.8898     311.1923      1.547     3.75     818.7354      54.8527      254.219        15     1.132     0.861 -59.96   0
         6    986.6851     12.0229 307.5284879  +6.6978296     2001.199     3217.521     3783.572     78.00663     155.3949     311.0994      1.759     4.10     811.0793      54.8527     267.8314        20     1.448     0.853 -68.58   0
         7    705.9496      8.5156 307.6452466  +6.6898796     7671.515     11193.41     11721.24     78.00663     155.5807     311.2851      1.535     3.15     816.5625      54.8527      1213.66        33     1.391     1.032 -57.81  16
         8    626.2295      7.8195 307.6783918  +6.6874932     3850.512     5816.981     6621.946     77.63546     155.4568     308.8319      1.586     3.10     816.8289      54.8527     633.4772        24     1.353     0.921 -56.13  16
         9    328.1104      7.3799 307.8022644  +6.6776566     1001.365     1531.534     2359.798      77.8831     155.3949     306.2019      1.547     2.84     824.0548      54.8527     190.0668         9     0.891     0.666 -63.65  16
        10    426.3238      3.9844 307.7615755  +6.6823620     6419.675     9842.365      10281.5     77.51134      153.211     272.5997      1.584     3.20     819.7399      54.8527     901.5541        36     1.478     1.079 -55.66  24
        11    381.5527      5.9903 307.7801084  +6.6800283     906.0019     1340.742     1223.692     77.51134     155.5188     294.8607      1.452     3.91     822.2598      54.8527     119.2053         8     0.842     0.714  42.32  16
        12     27.2778      3.4661 307.9273761  +6.6691315     8912.358     13218.16     13647.81     78.12997     149.7147     266.0215      1.594     3.35     823.4998      54.8527     1242.905        33     1.401     1.090 -56.12  24
        13    673.2957      2.8928 307.6590028  +6.6911056     815.1128     1348.864     1509.853     78.00663     144.4116      258.048      1.822     5.67      816.527      54.8527     142.5877        10     1.376     0.658 -47.36  24
        14    322.1646      1.2733 307.8049409  +6.6799771      2097.84       2735.8     3195.969     67.12679       122.87     233.2369      1.163     2.58      824.033      54.8527     660.1939        12     1.181     0.519  -8.02  24
        15    502.0995      1.2506 307.7301855  +6.6860371     717.5947     1009.956     1060.838     66.55059      122.399     232.9477      1.692     4.20     817.6535      54.8527     141.0402         7     1.174     0.429   3.26  24
        16    808.0598    999.0023 307.5695486  +6.2844396     1239.406     1911.248     2001.677     77.38703     155.3329     310.9137      1.556     3.85     845.5277      54.8527     180.2273        12     1.027     0.891 -33.14   0
        17    714.5932   1023.4774 307.6075289  +6.2712071     3605.043     4639.072     5229.119     69.66077      125.889     237.0855      1.206     2.88     848.6703      54.8527     794.4648        17     1.283     0.687  -1.16  24
        18    706.7822   1023.6179 307.6107669  +6.2708874     773.2592     866.8974     1285.266     68.12343     124.1175     234.8823      1.199     4.11     848.8627      54.8527     160.4349         8     1.115     0.480  -4.24  25
        19    581.2477   1023.9319 307.6628702  +6.2665498     740.3629     1467.204     2342.391     64.34387     119.6141     229.9107      2.006     3.91     849.2872      54.8527     169.0977         8     1.771     0.247   1.58  25
        20    570.7059   1023.1745 307.6672719  +6.2665089     3262.246     4216.275     4966.764     73.82122     130.7659     242.1882      1.310     2.92     849.2516      54.8527     556.1606        19     1.243     0.871   4.40  24
        21    429.3380   1023.2309 307.7259559  +6.2617403     1731.627     2712.259     3182.314     72.77032     129.9534     241.0325      1.800     4.31     849.1921      54.8527     364.0119        18     1.759     0.871  10.53  24
        22    417.4430    999.6125 307.7316896  +6.2710899     1062.815     1581.578     1860.574     77.38703     155.4568     310.9446      1.611     5.22     848.7878      54.8527      145.889        11     1.233     0.624 -48.51   0
        23    908.6050    992.9868 307.5280085  +6.2902861     8257.559     13579.14      14426.1     77.63546     155.3949     311.0685      1.756     3.47     845.4255      54.8527     1020.792        40     1.478     1.229 -60.48   0
        24    264.4341    995.9841 307.7953302  +6.2674435     941.8983     1391.973     1480.788     77.63546     155.3949     311.0375      1.580     4.20      847.601      54.8527     151.4869         9     1.098     0.598 -54.68   0
        25    539.8230    992.2616 307.6811328  +6.2782332       8606.4     13173.03     14928.95     77.63546     155.5807     311.0994      1.635     3.09     848.4516      54.8527     1288.574        39     1.416     1.136 -63.42   0
        26    594.8495    989.8127 307.6583713  +6.2810899     1429.359     2165.178     2548.857     77.38703     155.5807     310.9446      1.675     4.26     848.3783      54.8527     198.4721        17     1.249     0.979  89.32   0
        27     38.4040    992.1395 307.8892887  +6.2614174     458.4826     790.6935     552.9128     77.38703     155.4568     310.9446      1.658     4.17      844.244      54.8527     91.79761         5     0.901     0.552 -42.88   0
        28   1003.9319    988.5618 307.4885808  +6.2952984     4641.343     7973.374     8599.798      77.8831     155.6425     311.2851      1.838     3.56     840.8928      54.8527     536.9136        39     1.518     1.278 -55.97   0
        29    882.1536    988.9929 307.5391240  +6.2910502     11742.65      19754.3     21860.79     77.51134     155.4568     310.8517      1.805     3.49     845.2955      54.8527     1584.464        55     1.668     1.360 -56.69   0
        30    526.2344    988.0565 307.6869155  +6.2795129      4343.23     6731.401         7414      77.8831     155.6425     311.1923      1.660     3.44     848.3965      54.8527     593.6804        30     1.483     1.029 -57.78   0
        31    635.6353    987.4595 307.6415184  +6.2834289     1552.223     2295.389     1986.778     78.00663     155.6425     311.1613      1.594     4.34     848.1652      54.8527     227.6638        18     1.372     1.014 -49.20   0
        32     60.7601    986.8837 307.8801862  +6.2643406     900.4552     1158.572     696.2953     78.00663     155.5807     311.1304      1.466     3.53     844.5817      54.8527     145.2753         9     0.913     0.812 -38.21   0
        33    791.3746    986.0477 307.5769103  +6.2892287     555.5251      672.697      799.824     77.63546     155.7044     311.0994      1.258     2.67     845.5703      54.8527     104.5701         5     0.848     0.480  85.11   0
        34    479.4155    984.5515 307.7064699  +6.2793882     2289.619     3223.022     3222.563     77.51134     155.6425     310.9446      1.476     2.98     848.4719      54.8527     379.4117        15     1.127     0.777 -55.81   0
        35    913.9318    976.6746 307.5263440  +6.2971977     42587.61     68623.07     73260.01     78.12996     155.7662     311.1923      1.742     3.30     844.7241      54.8527     5517.694        76     1.619     1.381 -56.23   0
        36    515.8257    978.7896 307.6915485  +6.2829888      406.757     719.1003     1174.184     77.63546     155.4568     311.0685      2.196     4.63     848.1935      54.8527     64.49542         5     1.323     0.459 -61.24   0
        37    804.3914    976.7552 307.5718183  +6.2935002     5179.716     5152.862     5311.174     77.51134     155.5188     310.9137      0.750     1.00     845.1634      54.8527     2205.493         6     0.515     0.480 -62.47   0
        38    221.1128    974.9724 307.8140232  +6.2746587     1798.942     2865.407     3357.394     78.12996     155.3949     311.0685      1.756     3.69      846.978      54.8527     309.6837        20     1.312     1.009 -46.66   0
        39    620.0836    973.3164 307.6484502  +6.2887456      930.353     1202.613      883.658     77.75938     155.8898     311.2851      1.428     4.72      847.823      54.8527      119.527        10     0.981     0.901 -82.20   0
        40    759.9860    968.4779 307.5905315  +6.2954305     6812.116     10575.25     11941.14     77.63546     155.3329     311.0066      1.681     3.35     845.8577      54.8527     932.5259        40     1.620     1.140 -68.37   0
        41    811.8547    970.4699 307.5689308  +6.2963445     2491.589     3796.143     3610.721      77.8831     155.5188     311.1613      1.646     3.55     845.0183      54.8527     323.2816        22     1.289     1.005 -62.22   0
        42    546.9377    967.6680 307.6790068  +6.2886237     888.4123     1364.931     1359.714     78.00663     155.5807     311.2232      1.528     4.23     847.8174      54.8527      144.181         8     1.028     0.596 -25.12   0
        43    229.5415    967.0831 307.8107905  +6.2781990     1445.801     2228.269     2809.495     78.12996     155.6425     311.2541      1.693     3.92     847.0463      54.8527      212.383        15     1.325     0.735 -65.18   0
        44    193.9553    967.1440 307.8255613  +6.2769759     922.6769     1380.696     1822.418     78.00663     155.6425     311.1923      1.591     5.69     846.3765      54.8527     107.6813        11     1.291     0.706 -60.81   0
        45     54.3555    965.5826 307.8835651  +6.2729170     2884.944     4263.312      4228.41     77.63547     155.5188     310.9756      1.591     3.22     844.3881      54.8527     400.7354        22     1.240     0.979 -61.17   0
        46    948.2616    963.4354 307.5125353  +6.3038103     6562.425     10569.97     10791.91     78.00663     155.6425     311.1613      1.739     3.34      843.135      54.8527     830.5945        39     1.506     1.196 -58.55   0
        47    630.5577    957.5238 307.6446329  +6.2956157     731.3029     1046.373     1356.733     77.88311     155.6425     311.2232      1.849     4.47     847.2521      54.8527     104.1707         7     1.200     0.486 -51.84   0
        48    922.0455    955.3366 307.5236909  +6.3062772     1957.247     3321.089     2322.258     78.00663     155.5807     311.2232      1.813     4.01      843.652      54.8527     255.9541        25     1.417     1.130 -48.33   0
        49    781.3369    951.8666 307.5822253  +6.3030023     1335.183     2099.371     2253.535     78.00663     155.6425     311.1923      1.643     4.56     845.0834      54.8527     188.2727        15     1.290     0.973 -35.69   0
        50    642.7108    951.1339 307.6398024  +6.2986608     4933.363     7078.806     7677.417     78.00663      155.828     311.1613      1.515     2.84     846.8745      54.8527     761.2092        26     1.287     0.967 -57.36   0
        51    254.9535    951.1997 307.8007773  +6.2856104     4469.343     6806.403     7269.865     77.26251     155.3329     310.7588      1.556     3.04     847.1326      54.8527     710.1335        27     1.379     0.954 -54.28   0
        52    992.4387    950.8919 307.4946146  +6.3104644     768.2148     1421.933      1502.95     78.12996     155.5807     311.2541      2.024     6.52      841.088      54.8527     90.22809         9     1.317     0.907  57.35   0
        53    465.0216    949.6174 307.7136221  +6.2933251     1192.896     1692.657     1667.414     77.75938     155.4568     311.1304      1.474     3.77     847.6528      54.8527     162.8267        14     1.131     0.835 -67.93   0
        54     23.5799    948.7615 307.8969097  +6.2788225     2282.091     3268.954     2940.868     77.63547     155.4568     310.9446      1.542     3.35     844.0994      54.8527     323.7068        21     1.245     1.038 -50.02   0
        55    874.6719    947.7308 307.5436142  +6.3078327     882.2723      1344.97     1746.272     78.12997     155.7662     311.1613      1.750     5.76      844.075      54.8527     137.9001        11     1.473     0.634 -61.28   0
        56    290.5718    945.3557 307.7861879  +6.2892210     796.2412     1316.708     1749.938     77.63547     155.7044     311.0994      1.956     5.20     847.3589      54.8527     140.3392        12     1.299     0.727  82.65   0
        57    204.5743    959.2839 307.8214185  +6.2805778     769.5358     1152.946     1129.003     78.00663     155.3949     311.1304      1.552     5.01     846.5284      54.8527     135.9232         8     1.205     0.589 -55.79   0
        58    998.9092    942.6982 307.4922027  +6.3140629     828.1804     1505.053       1637.1     78.00663      156.075     311.1613      2.082     5.65     840.7625      54.8527     142.4537        11     1.297     0.695 -77.92   0
        59    946.5286    943.8650 307.5139108  +6.3118310     612.8806     844.0598     1274.323     78.00663     155.7044     311.2541      1.742     4.83     842.4396      54.8527     77.49261         7     1.050     0.630 -40.12   0
        60    567.4597    943.4582 307.6713017  +6.2993057     1707.137     2414.729     2417.728     78.00663     155.5807     311.2232      1.572     3.46     847.1456      54.8527      255.675        15     1.123     0.821 -58.63   0
        61     56.3431    940.4348 307.8835905  +6.2833643     792.4614     1244.982     1708.148     77.88311     155.6425     311.2232      1.424     4.26     844.2884      54.8527     131.0068         9     1.082     0.646 -49.13   0
        62    606.5610    940.0445 307.6551833  +6.3020264      1350.21      1835.74     1680.807     77.75938     155.6425     311.0994      1.417     3.17      847.004      54.8527      187.902        10     0.964     0.677 -25.67   0
        63    286.5439    937.6464 307.7881202  +6.2922677       1599.3     2352.727     3033.179     78.00663     155.6425     311.2541      1.739     3.52     847.2524      54.8527     224.1824        17     1.305     0.823 -51.48   0
        64    554.1384    936.4780 307.6770671  +6.3017401     618.1725     884.0952     909.5415      78.2531     155.7044     311.1923      1.333     3.83     846.9835      54.8527     133.4578         6     0.940     0.545 -66.33   0
        65    753.0975    934.1423 307.5945446  +6.3093732     913.7056     1131.075     734.3759     77.75938     155.5807     311.3469      1.350     3.63     844.9725      54.8527     138.7123         8     0.935     0.694 -28.73   0
        66    891.0321    930.3005 307.5374066  +6.3155749     7122.789     11200.16     11587.09     78.00663     155.5188     311.3469      1.678     3.22     843.1775      54.8527      968.911        40     1.462     1.237 -64.05   0
        67    129.2998    932.0237 307.8535883  +6.2892950     520.2511     792.1643     694.4127      78.2531     155.3949     310.9756      1.674     4.69     844.8212      54.8527     93.17114         5     1.059     0.590  -0.53   0
        68    100.4971    929.2503 307.8656390  +6.2894692     552.2827     639.7342     416.6118     77.88311     155.5807     311.3469      1.041     3.43     844.4059      54.8527     101.4068         5     0.784     0.434 -67.68   0
        69    426.7094    927.4130 307.7302756  +6.3012038     2099.649     3137.416     3713.069     77.75938     155.3949     311.0066      1.659     3.18     847.6071      54.8527      325.109        18     1.206     0.902 -35.56   0
        70    328.4863    925.7849 307.7711081  +6.2985745     10108.69     14888.71        15799     77.63547     155.3949     311.0994      1.583     3.09     847.4977      54.8527     1449.075        37     1.441     1.037 -61.05   0
        71    248.6571    924.7050 307.8042855  +6.2963349     7486.908     11031.71     11444.92     77.88311     155.6425     311.3778      1.592     3.16     846.9008      54.8527     1055.427        33     1.355     1.068 -54.79   0
        72    576.5887    919.0943 307.6683315  +6.3096690     1270.581     1733.232     1568.448     77.75938     155.3329     310.9756      1.427     3.71     846.6283      54.8527     184.5742        14     1.058     0.897 -62.48   0
        73    761.2864    919.1329 307.5916489  +6.3158432     774.3395     1080.779     1339.839     78.12996     155.8898     311.2232      1.365     3.31     844.6414      54.8527     123.7991         7     0.839     0.586 -71.46   0
        74    906.7794    915.7601 307.5313563  +6.3221037     1077.961     1652.465     2479.429     77.63546     155.4568     310.9446      2.006     4.44     842.5342      54.8527      182.889        11     1.241     0.741 -70.72   0
        75    863.3934    914.4366 307.5494138  +6.3211991     902.4833     1323.738     1539.837     77.13779     155.3949     310.9756      1.705     4.66     843.5223      54.8527     155.6653        12     1.248     0.833 -71.66   0
        76    139.4284    914.8831 307.8499628  +6.2967114     593.8243     1102.283       765.12      77.8831     155.4568     311.1304      1.743     4.37      844.729      54.8527     82.63336         7     0.888     0.613 -14.05   0
        77    405.2942    913.5388 307.7396339  +6.3062113     793.5012     970.1291     1243.463     77.88311     155.7044     311.2232      1.479     4.36     847.5353      54.8527     131.9871         8     1.025     0.624 -40.05   0
