#   1 NUMBER                 Running object number                                     
#   2 X_IMAGE                Object position along x                                    [pixel]
#   3 Y_IMAGE                Object position along y                                    [pixel]
#   4 ALPHA_J2000            Right ascension of barycenter (J2000)                      [deg]
#   5 DELTA_J2000            Declination of barycenter (J2000)                          [deg]
#   6 FLUX_APER              Flux vector within fixed circular aperture(s)              [count]
#   9 FLUXERR_APER           RMS error vector for aperture flux(es)                     [count]
#  12 FLUX_RADIUS            Fraction-of-light radii                                    [pixel]
#  13 FWHM_IMAGE             FWHM assuming a gaussian core                              [pixel]
#  14 BACKGROUND             Background at centroid position                            [count]
#  15 THRESHOLD              Detection threshold above background                       [count]
#  16 FLUX_MAX               Peak flux above background                                 [count]
#  17 ISOAREA_IMAGE          Isophotal area above Analysis threshold                    [pixel**2]
#  18 A_IMAGE                Profile RMS along major axis                               [pixel]
#  19 B_IMAGE                Profile RMS along minor axis                               [pixel]
#  20 THETA_IMAGE            Position angle (CCW/x)                                     [deg]
#  21 FLAGS                  Extraction flags                                          
         1    708.0897     20.1358 307.6450198  +6.6899786     6018.698     10641.77     11324.32     78.07027     156.2025     311.9711      1.895     4.72     817.4894     54.98451     832.8088        41     1.900     1.021 -35.29   0
         2    628.2330     19.3517 307.6782224  +6.6876357     3076.972     5329.397     5892.935     77.94624     156.0166     311.8781      1.863     4.54     817.5289     54.98451     435.3074        27     1.678     0.903 -35.15   0
         3    428.3993     15.5888 307.7613680  +6.6825066     5205.523     9236.018     10165.34     77.82203     155.7062     311.7539      1.911     4.63     822.5574     54.98451     702.5198        36     1.799     1.010 -35.31   0
         4    675.4225     14.5417 307.6587790  +6.6911977     775.9069     1430.544     1888.404     77.82203     156.0166      311.785      1.930     5.09     817.2769     54.98451     141.2299        11     1.389     0.620 -25.36   0
         5    325.0161     10.5881 307.8044851  +6.6811084     10785.64     19455.85     21372.49     78.07027     155.7062      311.847      1.959     4.55     828.7721     54.98451      1404.26        52     1.953     1.137 -34.74  16
         6     98.5618     10.9618 307.8985471  +6.6733562     2102.102     3858.858     4200.466     77.94624     155.8925      311.816      1.915     4.74     830.2717     54.98451      282.987        25     1.699     0.917 -39.72  16
         7     29.3051     15.2469 307.9271726  +6.6692599     6952.992     12492.76     13729.15     78.07027     155.9545     312.0641      1.949     4.55     830.6288     54.98451     899.1463        45     1.929     1.106 -31.99   0
         8     89.6850      9.8085 307.9022735  +6.6735342      1229.56     2337.481     2405.486     77.82203     155.7062      311.785      1.870     5.46      830.223     54.98451     191.4213        19     1.689     0.830 -30.68  16
         9    793.1982      9.2304 307.6100267  +6.6973208     727.0547     1360.221     1679.812       77.573     155.8304     311.7539      1.912     4.63     815.5443     54.98451      98.2251         8     1.329     0.457 -41.58   0
        10    391.0496      8.5005 307.7771228  +6.6841825     2013.834     3216.293     3666.595     78.19408     156.0166     312.0951      1.834     4.93     824.6215     54.98451     236.9537        19     1.558     0.837 -32.73  16
        11    651.9077      4.0434 307.6689004  +6.6947469     8963.614     16011.45     17499.23     78.19409     154.2705     274.3501      1.920     4.42     816.9164     54.98451     1301.688        50     1.920     1.118 -35.83  24
        12    816.2302      3.5199 307.6006492  +6.7004464     1197.172     2446.618      2792.46     78.07027     150.2678     267.2768      2.218     7.27     815.0801     54.98451     180.3168        19     1.789     0.827 -48.74  24
        13    985.8013      5.5954 307.5301292  +6.7052382     562.5656     884.0023     826.9735       77.573     155.5819     291.7145      1.405     4.35     811.8514     54.98451     92.30646         5     1.108     0.487  -3.64  16
        14    529.3480      4.0404 307.7198178  +6.6906522     989.0106     1834.535     1780.095     78.19408     154.3332     274.1738      1.864     6.06     817.6561     54.98451     132.5861        13     1.556     0.664 -45.73  16
        15     70.0676      4.4690 307.9106031  +6.6750795     691.5316     1156.864     1437.624     78.19408     156.1405     279.4512      1.961     5.49     829.8684     54.98451      107.792         9     1.117     0.760 -15.06  16
        16    886.4028      2.0440 307.5715445  +6.7033946     1075.353     1610.439     1652.327     75.29466     133.7108     245.7014      1.509     5.32     815.1967     54.98451     180.9026        13     1.585     0.714 -40.65  24
        17    251.4133      1.8438 307.8353564  +6.6822511     4314.966       6175.2     6586.987     73.73667     131.3014     242.6506      1.519     4.49     831.2001     54.98451     717.4828        23     1.511     0.829 -17.48  24
        18    642.1860      1.4102 307.6730277  +6.6955094     2677.377     3299.545      3827.13      68.8515     124.8814     235.8983      1.167     2.95     816.8331     54.98451     644.0179        16     1.299     0.599  -3.65  24
        19    412.1869      1.3794 307.7685810  +6.6878304     2518.411     3183.203     3399.543     68.14532     124.2601     235.3645      1.210     2.84     823.3834     54.98451     632.7105        13     1.275     0.533  -4.50  24
        20    672.3929      1.2503 307.6604834  +6.6965842     1173.875     1627.146     2167.087     66.71052     122.4563     232.9683      1.229     3.08     816.7487     54.98451     325.5045        10     1.402     0.432   1.32  24
        21    621.8063    984.9465 307.6485144  +6.2887465     601.6998     1061.479     1099.893     77.69761     155.7683     311.6608      1.682     3.83      850.278     54.98451     87.71362         5     0.810     0.519 -32.51   0
        22    957.1165   1023.7919 307.5080199  +6.2838840     1257.386     1880.095      2010.36     66.27402      121.902      232.719      1.381     4.93      847.313     54.98451      350.141        12     1.724     0.404   1.27  24
        23    731.7297   1022.7834 307.6016161  +6.2767922      770.421     1140.238     1051.448     76.69502     136.5034     248.7148      1.620     3.55     849.9708     54.98451     143.8293         9     1.063     0.817 -13.24  24
        24    716.4272   1023.2642 307.6079523  +6.2760833     1794.573     2717.249      2829.82     72.27902     129.8194     241.0505      1.631     5.21     850.0715     54.98451     248.9432        17     1.546     0.716 -10.97  24
        25    362.8375   1021.6022 307.7547853  +6.2649554     1481.133     2828.681     3058.622     77.32317     149.2989     265.5336      1.993     5.14     852.7849     54.98451     189.8252        20     1.585     0.836 -29.83  24
        26    762.1359    980.2584 307.5904168  +6.2953640     5194.968       9937.7     12082.87     78.31772     155.9545     311.9711      2.201     4.95      848.875     54.98451     648.5979        47     1.958     1.298 -47.78   0
        27    231.6953    978.9830 307.8106551  +6.2781595     1096.716     1944.916     2066.667     78.07027     155.8304      311.785      2.029     6.83     852.0056     54.98451     147.1218        16     1.737     0.828 -59.40   0
        28    548.8838    979.3447 307.6789739  +6.2886239     706.6556     1372.686     1881.675     78.19409     156.0166     312.0331      2.173     6.10     851.3597     54.98451     112.7755         9     1.664     0.628 -34.69   0
        29     56.7573    977.1251 307.8833340  +6.2730588     2130.561     4006.432     4145.734     78.07027     156.0786     311.9711      1.971     5.20     850.6612     54.98451     278.8967        26     1.753     0.947 -37.15   0
        30    950.5929    975.1949 307.5123509  +6.3037320     5059.201     9926.461     11399.33       77.573     155.7683      311.785      2.133     4.87      845.644     54.98451     578.7774        47     1.925     1.304 -40.11   0
        31    196.6040    977.6053 307.8252679  +6.2775521     640.9857     1225.461     1461.238     77.44818     155.6441      311.816      1.915     5.69     851.4564     54.98451     88.30951         7     1.134     0.805 -18.27   0
        32    207.4081    970.9930 307.8210056  +6.2806443     549.9277     740.0327     447.0725       77.573     155.8304      311.785      1.396     3.82     851.4262     54.98451     92.15167         5     0.765     0.611  -1.12   0
        33    632.6245    968.8043 307.6445643  +6.2957725     625.3306     1182.209     944.9876     77.69762     155.7683      311.785      1.856     6.36     850.0047     54.98451     87.53192        12     1.263     0.970 -67.70   0
        34    924.2070    966.9579 307.5235799  +6.3062547     1487.198     3030.512     3235.246     77.69761     155.7062     311.6608      2.136     7.18     845.8508     54.98451     176.3256        21     1.699     0.901 -40.37   0
        35    783.7936    963.3965 307.5819900  +6.3030480     1052.702     1975.813     2113.145       77.573     155.7062      311.816      1.920     6.80      848.256     54.98451     130.5137        18     1.536     1.003 -43.39   0
        36    644.8854    962.8134 307.6396752  +6.2986553     3744.066       6715.9     6857.294     77.82203     155.8304      311.847      1.922     4.64     849.7911     54.98451     468.2137        34     1.818     1.049 -40.67   0
        37    257.1275    962.8740 307.8006398  +6.2856627     3672.892     6806.325     7421.254     78.44115     156.1405     312.0021      2.012     4.77     851.8062     54.98451     451.9272        35     1.753     1.128 -41.11   0
        38     25.7802    960.4352 307.8967549  +6.2789093     1744.615     3369.933     3543.997     77.69762     155.8304     311.7229      2.030     5.28     850.2151     54.98451     237.9796        22     1.599     0.950 -28.07   0
        39    467.0835    961.0518 307.7135447  +6.2934426     885.9479     1534.211     1502.335     78.19409     155.9545     312.0331      1.872     4.11     851.7231     54.98451     119.8814         7     0.948     0.509 -45.84   0
        40    876.7989    958.6946 307.5435371  +6.3080881     735.0344     1350.708     1145.139     77.69762     155.5819     311.5988      1.716     4.26     846.5798     54.98451     139.1813         9     1.255     0.640 -30.65   0
        41    569.7878    955.1358 307.6711078  +6.2993177     1418.818     2838.783     2591.493     77.69761     155.8304     311.7539      2.114     5.76     850.6624     54.98451      180.922        22     1.702     1.021 -31.66   0
        42    293.4370    956.5020 307.7857815  +6.2895099     794.2779     1289.969     1388.163     78.19409     155.8925     312.1261      1.711     4.35     852.0934     54.98451     113.8853         8     1.194     0.777 -13.60   0
        43   1000.8634    954.3879 307.4921761  +6.3139954     774.0557     1550.203     1556.141     77.69761     155.8304     311.7539      2.449     6.84     843.8795     54.98451     123.0944        13     1.763     0.745 -60.85   0
        44    608.4156    952.1454 307.6551724  +6.3018424     952.0089     1602.727      1685.68       77.573     156.0166     311.6608      1.899     6.71     850.1797     54.98451     139.1666        16     1.736     0.834 -36.24   0
        45     58.2543    952.3300 307.8835481  +6.2833460     611.0734     1227.498     1127.097     78.07027     155.8925     311.9091      2.095     4.11     850.0052     54.98451      111.288         6     1.144     0.556 -67.76   0
        46    288.6728    949.4028 307.7879978  +6.2922814     1222.654     1861.596     2197.408     77.69762     155.5819      311.785      1.956     3.65     851.9908     54.98451     224.3159        12     1.289     0.622 -43.04   0
        47    556.3770    947.3918 307.6769346  +6.3020670     540.9061     1103.919     973.0049     77.82203     155.8304     311.7539      1.498     3.60     850.6948     54.98451     96.92859         5     1.252     0.298 -45.07   0
        48    755.6530    945.4604 307.5942724  +6.3095154      802.655     1524.757     1498.591     78.19409     155.9545     311.9401      1.944     5.76     848.1401     54.98451     114.8484         9     1.230     0.759 -26.12   0
        49    893.2924    942.1147 307.5372440  +6.3154830     5405.017     10105.42     11066.24     77.94624       156.45     312.0331      2.009     4.74     845.9403     54.98451      636.681        44     1.914     1.184 -29.36   0
        50    429.2619    939.0805 307.7299828  +6.3012492     1834.636      3174.35      3158.88     78.31772     156.0166     311.9091      1.831     5.58     851.6172     54.98451     246.9034        23     1.763     0.913 -36.83   0
        51    330.7299    937.5069 307.7709389  +6.2986014     8137.589     14137.03      15591.5     78.19409     156.1405     311.9401      1.897     4.69     851.8497     54.98451     1129.364        45     1.902     1.102 -35.36   0
        52    250.8256    936.4977 307.8041428  +6.2963416     5915.168     10514.76     11825.04     78.31772     155.7683      311.847      1.947     4.77     851.0782     54.98451      848.222        42     1.899     1.101 -32.56   0
        53    168.8750    935.0462 307.8382107  +6.2941937     502.3594     884.0894     799.2878     78.07027     156.0786     311.9401      1.994     4.59     850.1301     54.98451     87.92688         5     0.932     0.641 -62.79   0
        54    578.9377    930.8182 307.6681245  +6.3096636     1003.457     1722.498     2189.109     77.82203     155.9545      311.816      1.683     5.22     850.2448     54.98451     140.0053        11     1.352     0.570 -35.89   0
        55    908.9910    926.8716 307.5312360  +6.3222994       855.31     1826.257     2221.364     77.69762     155.5819      311.785      2.396     6.14     845.1686     54.98451     113.6243        11     1.602     0.661 -31.28   0
        56    407.7331    925.4365 307.7393782  +6.3061622     519.8679     921.3492     824.4598     78.07027     156.0166     312.0021      2.025     3.67      851.513     54.98451     95.11993         5     1.465     0.265 -45.69   0
        57    974.6498    922.6710 307.5041177  +6.3262190     478.7463      783.932     1420.441     78.19409     156.0166     311.9711      1.771     4.28     843.2724     54.98451     77.71179         5     1.292     0.403  37.08   0
        58    745.2940    920.2945 307.5994151  +6.3195606     1338.654     2624.895     3610.615     78.19409     156.5737     311.9091      2.700     6.10     847.8146     54.98451     207.9125        20     1.772     0.915 -31.71   0
        59    569.0096    920.8076 307.6725817  +6.3134651     548.0721     860.1115     1220.382     77.69762     155.8304      311.816      1.635     3.94     850.1779     54.98451     75.24799         6     0.941     0.474 -35.97   0
        60    608.6398    917.3768 307.6562445  +6.3162052     767.0037     1272.486     1163.688     77.82203     155.8304     311.7229      1.777     5.15     849.6914     54.98451      93.3902         9     1.052     0.712  33.08   0
        61    663.7733    913.5409 307.6334845  +6.3196295     2061.011     3584.331     3974.159     77.82203     156.0786      311.785      1.910     5.46     848.6945     54.98451     280.8151        25     1.847     0.892 -36.18   0
        62    976.5533    915.6475 307.5035619  +6.3291822     1028.948     1674.078     2291.734     78.19409     155.8925     311.9401      1.841     4.41     843.0392     54.98451     144.7905        13     1.154     0.833 -14.32   0
        63    530.2532    915.6542 307.6888439  +6.3142979     841.7394     1570.184     1440.991     78.44115     155.9545     311.9401      2.093     6.03     850.5864     54.98451      138.244        13     1.652     0.619 -27.40   0
        64    203.9484    908.6722 307.8245386  +6.3062587     1807.582     3123.471     3579.809     78.19408     156.0166     311.9711      1.964     5.86      850.001     54.98451     224.2203        22     1.730     0.883 -37.82   0
        65     77.9109    908.8876 307.8768522  +6.3019418      1689.68     2857.033     3209.927     77.94624     156.5119     312.0331      1.851     5.20     848.7518     54.98451     204.6182        22     1.624     0.907 -35.96   0
        66     60.2813    909.6429 307.8841450  +6.3010381     2304.521     4272.002     4212.216     78.19409     156.0166     311.9091      1.953     5.71      848.704     54.98451     296.2787        28     1.816     0.993 -41.08   0
        67    824.9267    909.8006 307.5667064  +6.3265479     724.5429     1379.619     1751.903     77.44818     155.3952      311.785      1.986     5.15     846.5532     54.98451     102.4573         9     1.201     0.624 -24.28   0
        68    237.9478    905.1918 307.8105416  +6.3088353     699.9427      1069.76     870.6973     77.69761     155.8925     311.6608      1.750     4.55     850.4052     54.98451     111.6301         7     1.138     0.517 -57.09   0
        69    797.0654    903.9930 307.5784675  +6.3280172     530.3948     815.8313     900.6576     77.69762     155.7683      311.785      1.543     4.03     846.8815     54.98451     101.8527         5     1.358     0.341  58.32   0
        70    658.4861    902.6824 307.6360432  +6.3239363     5769.676     10396.94        11177     77.94624     156.2025     312.0331      1.946     4.55     848.5161     54.98451     784.8895        40     1.843     1.069 -35.08   0
        71    343.2734    904.1863 307.7668514  +6.3127786     605.9629     1172.794     1701.886     77.69762     155.7683     311.7229      1.923     4.77     851.1207     54.98451     122.3719         7     1.415     0.456 -22.42   0
        72    896.2485    898.9719 307.5374584  +6.3333946     2201.114     3981.191     4216.837     77.82203     156.0786     311.8781      1.956     4.85     844.8731     54.98451     273.9109        29     1.685     1.039 -37.43   0
        73    447.4047    900.6514 307.7237412  +6.3177225      376.395     1028.945     466.0369       77.573     155.8304     311.5367      2.228     4.27     851.0032     54.98451     83.45935         5     1.205     0.431 -53.15   0
        74     18.7469    900.5533 307.9016929  +6.3033962     903.5311     1459.642     1526.349     78.19409     156.0166     311.9711      1.950     5.90     848.1044     54.98451     105.8965        12     1.381     0.708 -28.44   0
        75     31.2649    899.1620 307.8965434  +6.3043910     844.3625     1458.513     1230.992     78.07027     155.9545     312.0331      1.857     3.62     848.0961     54.98451     148.9697        10     1.050     0.664 -46.71   0
        76    341.4791    895.8173 307.7678776  +6.3161738     13579.52     24005.71     27049.86     77.82203     155.7062     311.8781      1.923     4.59     850.9278     54.98451     1774.986        58     1.971     1.150 -34.20   0
        77     76.0731    896.5063 307.8780322  +6.3069919     1099.011      1603.89     1613.027     78.07027     156.1405     311.9711      1.617     5.15     848.3467     54.98451     156.9575        11     1.346     0.735 -23.62   0
