#   1 NUMBER                 Running object number                                     
#   2 X_IMAGE                Object position along x                                    [pixel]
#   3 Y_IMAGE                Object position along y                                    [pixel]
#   4 ALPHA_J2000            Right ascension of barycenter (J2000)                      [deg]
#   5 DELTA_J2000            Declination of barycenter (J2000)                          [deg]
#   6 FLUX_APER              Flux vector within fixed circular aperture(s)              [count]
#   9 FLUXERR_APER           RMS error vector for aperture flux(es)                     [count]
#  12 FLUX_RADIUS            Fraction-of-light radii                                    [pixel]
#  13 FWHM_IMAGE             FWHM assuming a gaussian core                              [pixel]
#  14 BACKGROUND             Background at centroid position                            [count]
#  15 THRESHOLD              Detection threshold above background                       [count]
#  16 FLUX_MAX               Peak flux above background                                 [count]
#  17 ISOAREA_IMAGE          Isophotal area above Analysis threshold                    [pixel**2]
#  18 A_IMAGE                Profile RMS along major axis                               [pixel]
#  19 B_IMAGE                Profile RMS along minor axis                               [pixel]
#  20 THETA_IMAGE            Position angle (CCW/x)                                     [deg]
#  21 FLAGS                  Extraction flags                                          
         1    713.7775     25.5564 307.6453781  +6.6897184     4625.022     10020.48     10949.61     89.83888     180.2527     360.4696      2.189     4.86     1124.568     63.57656     485.5526        47     1.768     1.490 -65.85   0
         2    634.0706     24.9199 307.6785473  +6.6873216     2235.751     4722.399     5318.198      90.6986     180.6828     360.7206      2.252     6.19     1126.678     63.57656     247.7419        34     1.818     1.351 -62.52   0
         3    434.2050     21.1618 307.7617907  +6.6821945     3449.028     8514.618     9765.178     89.40591     180.1091     360.3978      2.406     5.98     1134.537     63.57656     346.9828        42     1.839     1.494 -64.15   0
         4     35.4443     20.8461 307.9276236  +6.6689583     5301.914     11790.84      13238.8     90.41293     180.3962     360.6131      2.300     5.20     1158.308     63.57656     577.7072        51     1.877     1.511 -73.44   0
         5    104.7741     16.5152 307.8989408  +6.6730744     1584.654     3521.875     4530.282     90.55588     180.1091     360.5413      2.544     7.94     1155.182     63.57656     193.5577        29     1.890     1.244  85.97   0
         6    330.8475     16.1578 307.8049415  +6.6808014      7299.15     17837.63     21058.98     90.41293     180.3245     360.5772      2.496     5.61     1146.019     63.57656      753.521        64     2.041     1.697 -62.90   0
         7     96.0859     15.5870 307.9025851  +6.6731660     833.2088     1863.381      2453.14     89.98273     180.2527     360.5413      2.361     6.34     1155.303     63.57656     125.2024        10     1.564     0.723 -42.02   0
         8    397.2463     13.9260 307.7774047  +6.6839456      1326.51     3036.193      2965.46     90.26976     180.4679     360.6848      2.259     5.84     1138.407     63.57656      166.001        22     1.429     1.327 -41.13   0
         9    657.7491      9.4266 307.6692221  +6.6945091     6424.838     14732.15     16518.64     89.98273     180.5395     360.6131      2.356     5.34     1125.893     63.57656     623.1859        54     1.911     1.555 -62.00  19
        10    658.6844      2.0103 307.6690830  +6.6976024      1595.37     2739.468     3675.082     87.06043     154.5211     283.9133      2.029     7.03     1125.676     63.57656     241.2455        18     1.424     0.973 -19.35  27
        11    535.6002      9.9742 307.7200018  +6.6902038     781.2405     1545.934     1627.982     89.83887     180.0373     360.4696      2.080     4.82     1128.758     63.57656     130.2467         7     1.392     0.667 -37.08   0
        12    821.9412      8.8990 307.6009558  +6.7002018     1048.918     2332.039     2432.211     90.12637     180.3962     360.8282      2.186     7.98     1119.449     63.57656     122.6851        19     1.568     1.137 -54.06  16
        13    258.0134      6.4716 307.8355572  +6.6823607     3621.689     8984.455     11094.32     89.83887      180.181     346.9766      2.600     6.26     1151.453     63.57656     361.5969        55     2.107     1.598 -45.00  16
        14    892.2380      6.8738 307.5717885  +6.7033791     1071.998     2102.133     2056.067     90.26976     180.4679     351.0163      2.051     4.34     1117.547     63.57656     154.7678        12     1.205     0.911 -76.59  16
        15    649.4142      4.7757 307.6728450  +6.6961512     5836.192      12822.6     14260.82     90.12637      180.181     327.1766      2.274     5.07      1125.91     63.57656     639.2334        53     1.874     1.558 -60.81  25
        16    419.2533      5.0118 307.7685539  +6.6883626     4408.275     10955.35     12150.07     89.69479     180.3245     330.1674      2.429     5.67     1136.175     63.57656     431.7166        55     1.886     1.687 -51.03  24
        17    681.0517      3.2186 307.6597402  +6.6978499      8403.15     20712.64     25231.05     89.83887     171.0481     304.2336      2.553     8.41       1125.1     63.57656     890.0084        63     2.487     1.444 -28.06  24
        18    735.2195      3.5754 307.6372009  +6.6995094     1169.897     2539.945     2452.706     89.98273     174.1951     309.9199      2.166     7.37     1122.467     63.57656     145.1079        20     1.636     1.070 -47.49  24
        19    229.7807    991.8008 307.8139896  +6.2745758     1430.564     2759.322     2974.304     89.98273     179.8936     360.3619      2.058     4.93     1189.471     63.57656      186.569        19     1.394     1.025 -60.38   0
        20    820.0449    987.0515 307.5688709  +6.2962469     2144.621     3446.062     3208.558     90.55588     180.3245     360.7206      1.636     3.84     1181.826     63.57656     289.2659        20     1.368     0.900 -47.57   0
        21    628.4260    988.9415 307.6484349  +6.2890804     641.9316     1102.028     1014.701     89.98273     180.3962     360.5054      1.705     4.09     1185.062     63.57656     107.9916         5     1.048     0.456  26.53   0
        22    768.2776    984.9411 307.5904539  +6.2953942     6339.147      10402.9     11620.66     90.55588     180.3962     360.6131      1.836     3.71      1182.44     63.57656     803.6578        39     1.638     1.172 -57.58   0
        23    555.2206    984.3844 307.6790085  +6.2885192     844.7969     1112.843     1255.218     89.98273      180.181     360.5772      1.510     5.07     1186.319     63.57656     100.3668         9     0.922     0.790  81.73   0
        24    238.0347    984.2046 307.8108165  +6.2779887     1214.831     1936.101     1903.908     89.55047     180.2527     360.4337      1.606     4.47      1189.35     63.57656     161.0988        12     1.126     0.863  52.46   0
        25    202.0923    984.3840 307.8257453  +6.2767108     750.0056     1270.075     1913.622     90.12637      180.181     360.5054      1.939     4.93     1189.536     63.57656     117.4348         7     1.119     0.614 -41.76   0
        26     62.8179    982.2573 307.8836882  +6.2729204     2376.209     4123.071     3788.146     89.83887     180.3245     360.3978      1.815     3.95     1189.537     63.57656     306.9672        23     1.330     1.074 -62.65   0
        27    956.3765    979.9836 307.5124540  +6.3037014     6933.763     10368.97     10644.38     90.12637     180.2527     360.5772      1.584     3.38     1178.084     63.57656      983.832        33     1.424     1.042 -71.30   0
        28    213.1594    976.5296 307.8214120  +6.2803246     739.9119      1249.06     1360.195     90.26976     180.3962     360.7565      1.624     4.18      1189.35     63.57656     106.4663         5     0.913     0.546  48.60   0
        29    930.2005    971.5011 307.5236164  +6.3063336     2015.413      3273.34     3033.782     89.83888     179.9655     360.2542      1.726     4.47     1178.781     63.57656     273.0759        17     1.423     0.847 -71.75   0
        30    263.2680    968.0436 307.8008771  +6.2855064      3605.11     6622.154     7243.316     90.41293     180.3245     360.7206      1.974     4.21     1189.058     63.57656     440.6833        34     1.550     1.258 -82.44   0
        31    789.5721    968.0599 307.5821720  +6.3030740      1409.95     2121.789     2550.312     89.98273     180.4679     360.5772      1.599     4.81     1181.209     63.57656     188.1564        14     1.311     0.787 -74.17   0
        32    651.0645    967.5903 307.6397458  +6.2986517     4153.895     7022.536       7008.4     89.83887      180.181     360.5054      1.748     3.71     1183.918     63.57656     544.2307        29     1.474     1.098 -58.84   0
        33   1000.0690    967.9015 307.4947020  +6.3101429     896.2325     1510.402     1835.068     90.41293     180.5395     360.7206      1.649     4.11     1175.564     63.57656     128.6685         7     0.941     0.513 -47.97   0
        34    472.9950    966.6939 307.7137728  +6.2930778     845.0507     1596.909      1577.44     90.12637     180.0373     360.3978      1.977     4.91      1187.29     63.57656     162.6232         8     1.030     0.817  52.06   0
        35     32.0170    965.4526 307.8970551  +6.2788256     1921.389     3182.174     3499.529     89.83887     180.4679     360.3619      1.794     4.45     1189.261     63.57656     207.4335        19     1.245     1.052 -42.48   0
        36    882.6089    964.1060 307.5436420  +6.3078039     730.6465     935.0248     744.0361     89.98273     179.9655     360.4696      1.308     3.51     1179.329     63.57656     141.0297         5     0.841     0.424 -70.55   0
        37    974.9979    961.9605 307.5053199  +6.3117626     789.7261     1170.321    -1.665691     89.40591     180.1091     360.3619      1.479     5.43     1176.315     63.57656      112.766         9     1.146     0.725 -23.54   0
        38   1006.7642    960.4217 307.4921704  +6.3134539     840.3911     1362.698     1732.119     89.83888     180.1092     360.3978      2.170     4.85     1174.726     63.57656     106.0013         8     1.243     0.535 -48.38   0
        39    954.0734    961.0582 307.5140458  +6.3114395     714.1038     945.5433     516.5729     90.55588     180.3962     360.6489      1.353     3.65      1177.22     63.57656     114.5725         5     0.638     0.602  -5.53   0
        40    575.7915    959.9565 307.6712827  +6.2992924     1478.719     2382.271     1982.926     89.83887      180.181     360.3978      1.681     4.75     1185.146     63.57656     184.0551        14     1.175     0.925 -46.22   0
        41    614.7379    956.7829 307.6552052  +6.3019025     1128.027     2060.168     1734.846     89.83887     180.3245     360.5054      1.870     5.04      1184.01     63.57656     167.2053        12     1.295     0.920 -85.00   0
        42     63.7547    957.1507 307.8841484  +6.2833181     699.1882     1551.749     1827.374     90.41293     180.2527     360.7206      2.374     8.07     1189.282     63.57656     116.6464        14     2.221     0.820   3.02   0
        43    294.8666    954.8541 307.7881921  +6.2920101     1151.243     2061.401     3076.912     90.41293     180.3245     360.6489      1.957     5.21     1188.729     63.57656     181.4963        13     1.413     0.868 -76.82   0
        44    563.0099    952.6342 307.6768407  +6.3018893     504.0483     892.7327     655.5363     89.83887      180.181     360.5054      1.525     4.76     1185.335     63.57656     89.51648         5     1.438     0.447   7.56   0
        45    899.0896    946.9736 307.5373681  +6.3154265     7006.974     10546.04     11198.97     90.55588     180.1091     360.5413      1.571     3.34     1178.231     63.57656     1027.947        33     1.467     1.054 -65.73   0
        46    435.0900    943.9968 307.7302892  +6.3011829      1741.18     3280.998     3183.856     89.83887     180.0373      360.326      1.963     4.92     1187.128     63.57656     195.6237        21     1.340     1.146 -31.61   0
        47    336.8550    942.6315 307.7711566  +6.2984618     7675.855     14256.81     15038.66     90.26976     180.4679     360.6489      1.953     3.96     1188.219     63.57656     912.1321        44     1.625     1.352 -70.92   0
        48    256.9161    941.6706 307.8044071  +6.2961832     5927.006     10577.49     11409.28      90.6986     180.6828     360.7206      1.902     4.09     1188.704     63.57656     718.9299        38     1.636     1.222 -61.91   0
        49    584.7839    935.9954 307.6683524  +6.3094863     969.6149     1745.139     1563.892     89.98273     180.0373     360.5054      1.685     5.86     1184.182     63.57656     131.6187        10     1.270     0.760 -57.71   0
        50    768.8298    935.6688 307.5918801  +6.3157579     579.2933     965.9551     979.3161     90.12637     180.3962     360.6131      1.659     3.72     1179.721     63.57656     101.5144         5     1.070     0.372 -86.79   0
        51    914.8503    931.8153 307.5313269  +6.3222100     1063.948     1549.667     1242.536     89.69479     180.3962     360.3978      1.552     2.70     1177.326     63.57656     184.5801         8     0.776     0.676 -49.47   0
        52    871.5974    930.8044 307.5493358  +6.3211883      664.696     1106.879     1350.712     89.69479     179.8936     360.4696      1.492     2.46     1177.793     63.57656     121.9253         5     0.721     0.437  67.24   0
        53    982.0865    927.8981 307.5035162  +6.3260633     883.0731      1217.67     1332.967     90.41293     180.8974     360.7565      1.424     4.83     1174.024     63.57656     132.4821         8     1.223     0.542 -67.55   0
        54    751.0792    925.2611 307.5996065  +6.3194640     1460.008     2572.227     2821.781     90.55588     180.4679     360.6848      2.001     4.80     1179.488     63.57656     209.9121        16     1.239     0.958 -79.29   0
        55      2.5560    922.9048 307.9107371  +6.2954045     832.7836     1318.689     1333.876     90.41293      162.597     293.4125      1.832     6.87     1189.226     63.57656     144.1448        10     1.489     0.888 -75.54  24
        56    615.4816    921.0226 307.6560995  +6.3166931      730.631     1199.945     828.5247     90.12637     180.0373     360.6131      1.702     5.20      1182.62     63.57656     105.4875         9     1.622     0.472  72.61   0
        57    982.7158    920.6124 307.5034990  +6.3290926     1385.533     2188.682     2099.477     89.98273      180.181     360.5054      1.715     4.71     1173.696     63.57656     201.4774        17     1.410     0.858 -51.74   0
        58    538.0000    919.9950 307.6883329  +6.3145313      721.634     1391.919     1772.413     89.55047     179.9655     360.3619      2.079     4.55      1185.07     63.57656     154.9928         6     1.103     0.533 -89.98   2
        59    669.9282    918.4121 307.6335609  +6.3195871     2206.747     3734.612      4588.07     89.83887     179.9655     360.4696      2.020     4.12     1181.234     63.57656     283.8207        24     1.455     1.061 -49.04   0
        60     66.5880    914.9681 307.8843983  +6.3008301     2487.966     4402.358     4453.504     89.83887     180.1091     360.5772      1.899     4.71     1188.385     63.57656     308.4263        23     1.486     1.039 -67.68   0
        61    959.8885    916.1196 307.5131363  +6.3301889     664.7586     1134.083      909.083     90.12637     180.6828     360.7924      1.717     2.62     1174.615     63.57656      109.775         5     0.872     0.746 -79.33   0
        62    830.7491    915.1016 307.5668387  +6.3263125     858.3519     1442.616     1738.812     90.41293     180.3962     360.8999      1.709     5.84     1177.465     63.57656     109.2462        11     1.299     0.740 -43.29   0
        63     84.2045    914.1099 307.8771071  +6.3017753     1627.234     2885.919     3276.865     89.83887     180.0373     360.3978      1.930     4.25     1188.232     63.57656     207.5258        16     1.232     0.906  74.68   0
        64    210.3300    913.7530 307.8247087  +6.3061502     1906.858     3146.144     2781.389     90.41293     180.3245     360.6848      1.713     3.90     1188.459     63.57656     238.5378        19     1.303     0.953 -38.79   0
        65    947.9882    913.7565 307.5181612  +6.3307689     747.9142     846.4111     463.3793     89.83887     180.2527     360.3619      1.356     4.21     1175.078     63.57656      127.585         6     0.884     0.593 -89.61   0
        66    664.4757    907.6119 307.6361901  +6.3238648     5918.367     10203.05     10661.83     89.98273     180.0373     360.5054      1.860     3.85     1181.005     63.57656     721.4016        35     1.520     1.238 -60.45   0
        67    801.3149    909.2175 307.5792686  +6.3277621     668.7359     1130.996     937.0165     89.98273     180.1091     360.6131      1.397     3.29     1177.701     63.57656     132.1694         5     0.940     0.353 -44.66   0
        68     24.3786    905.8624 307.9022460  +6.3031736     1010.284     1875.641     2208.974     89.98273     180.3962     360.5413      1.960     5.20     1188.243     63.57656     128.8009        10     1.185     0.652 -56.82   0
        69    902.1731    903.9889 307.5375291  +6.3332783     2531.833     4001.576     4537.503     89.98273      180.181     360.5413      1.675     3.80     1175.642     63.57656     314.4851        20     1.262     0.995 -50.50   0
        70     37.6847    904.6635 307.8967574  +6.3041151     942.6643     1850.549     1296.246     90.55588     180.5395     360.6489      1.794     5.95     1188.123     63.57656     126.5466         9     1.259     0.791 -60.08   0
        71    347.4869    900.8672 307.7681478  +6.3160621     13113.69     24268.76     27245.81     90.55588     180.6828     360.7206      2.025     4.16     1187.598     63.57656     1443.548        59     1.703     1.462 -63.40   0
        72     82.7235    902.0278 307.8781312  +6.3067143     1153.651     1854.616     2143.345     90.26976     180.3962     360.6489      1.780     4.65     1187.778     63.57656     161.4135        14     1.131     1.033  67.35   0
        73    218.8448    900.1810 307.8216289  +6.3120393     1178.523     1980.137     1315.732     89.98273     180.2527     360.3978      1.747     5.07     1188.412     63.57656     141.8044        13     1.087     0.990  -8.55   0
        74    111.1860    891.4025 307.8666632  +6.3120559     1268.212     2538.698     2259.339     89.98273     180.0373     360.5054      2.035     5.37      1187.48     63.57656      159.765        18     1.444     1.059  60.73   0
        75    425.4133    891.4601 307.7360817  +6.3225522     849.7968     1570.919     816.9617     89.69479     180.3245     360.3619      1.653     4.89     1186.272     63.57656     127.8691         8     1.086     0.627 -11.85   0
        76    678.6827    887.8184 307.6309517  +6.3325116     770.7043     1440.822     1602.366     89.98273     180.0373     360.6489      2.068     5.58     1179.922     63.57656      92.7876        10     1.362     0.644 -60.02   0
        77    892.5127    885.4838 307.5421649  +6.3405980     1954.514     2846.538     2893.216     90.12637     180.6111     360.7206      1.614     3.66     1174.487     63.57656      261.662        17     1.207     0.903 -71.00   0
