#   1 NUMBER                 Running object number                                     
#   2 X_IMAGE                Object position along x                                    [pixel]
#   3 Y_IMAGE                Object position along y                                    [pixel]
#   4 ALPHA_J2000            Right ascension of barycenter (J2000)                      [deg]
#   5 DELTA_J2000            Declination of barycenter (J2000)                          [deg]
#   6 FLUX_APER              Flux vector within fixed circular aperture(s)              [count]
#   9 FLUXERR_APER           RMS error vector for aperture flux(es)                     [count]
#  12 FLUX_RADIUS            Fraction-of-light radii                                    [pixel]
#  13 FWHM_IMAGE             FWHM assuming a gaussian core                              [pixel]
#  14 BACKGROUND             Background at centroid position                            [count]
#  15 THRESHOLD              Detection threshold above background                       [count]
#  16 FLUX_MAX               Peak flux above background                                 [count]
#  17 ISOAREA_IMAGE          Isophotal area above Analysis threshold                    [pixel**2]
#  18 A_IMAGE                Profile RMS along major axis                               [pixel]
#  19 B_IMAGE                Profile RMS along minor axis                               [pixel]
#  20 THETA_IMAGE            Position angle (CCW/x)                                     [deg]
#  21 FLAGS                  Extraction flags                                          
         1    431.4315     27.5487 307.7561283  +6.6695142     10026.05     30240.67     35038.43     90.96519     181.9304     363.3912      2.661     6.97      1161.99     64.06635     1185.673        80     2.064     1.947 -44.21   0
         2    681.2736     16.8284 307.6525218  +6.6822687     947.0769     2384.953     2228.415     90.96519     181.7859     363.3912      2.299     8.83     1152.521     64.06635     130.7938        19     1.542     1.412 -67.19   0
         3    169.5894     10.1975 307.8656773  +6.6679291     5042.312     14129.12     15875.71     90.67596     181.4243     363.2466      2.537     6.52     1178.519     64.06635     625.1089        56     1.928     1.757 -65.74  16
         4    513.7711      8.3845 307.7225134  +6.6801754     1389.211     3642.344     4162.926     90.67596     181.4967     363.1743      2.516     7.14     1156.721     64.06635     213.7864        29     1.764     1.498 -57.74  16
         5    914.8216      7.5305 307.5556437  +6.6938730      3062.84     5854.138     6517.188     90.67596     181.7137     358.7715      2.055     4.78     1147.858     64.06635     354.6283        32     1.493     1.368 -62.10  16
         6    450.6223      8.2592 307.7487965  +6.6781207     599.6456     1111.417     1649.224     90.67596     181.7137     362.7762      1.203     3.52     1160.662     64.06635     105.5233         5     1.152     0.309  53.28   2
         7    453.4282      6.2908 307.7476957  +6.6790272     789.4922     1304.729     1696.146     91.25352     181.4967     347.8042      1.731     3.97     1160.498     64.06635     110.6067         6     1.236     0.365 -60.18  18
         8    715.8226      6.3499 307.6384987  +6.6877459     1148.887     2537.594     2580.535     90.53099     181.8582     348.4456      2.125     7.70     1151.933     64.06635     149.5292        17     1.417     1.170 -19.85  16
         9    979.7039      3.7275 307.5287704  +6.6975972     1530.658      2892.64     2678.266     90.82069     177.3979     314.6538      1.902     6.23      1142.37     64.06635     188.5825        22     1.527     1.207 -67.53  24
        10    450.5082      4.3229 307.7489775  +6.6797425     710.8388     1112.421     1528.695     90.82069     181.4967     323.4228      1.566     3.91     1160.748     64.06635     120.7429         6     0.937     0.467  -0.75  16
        11    698.9569      1.8422 307.6456700  +6.6890463     3285.558       5270.1     5622.471     85.91582     153.3315     282.8687      1.727     6.10     1151.738     64.06635     417.2725        23     1.720     0.828  -4.86  24
        12    619.3264      1.5143 307.6788196  +6.6865304     1401.453     2304.741     2529.846     82.16494     148.1028     276.9564      1.763     5.87     1151.865     64.06635     226.4374        14     1.666     0.642  -1.36  24
        13    707.3608   1003.9272 307.6082986  +6.2754762     2534.048     4268.759      5809.66     90.96519     181.7859     363.5357      2.222     4.15     1207.272     64.06635     302.6327        26     1.482     1.101 -27.25   2
        14    784.3787   1023.1306 307.5756248  +6.2701056     5447.959     6971.911     7383.176     86.06856     153.5028     283.4254      1.331     3.36     1206.353     64.06635     841.5735        21     1.224     0.883 -10.84  24
        15    574.9926   1020.2192 307.6627885  +6.2643429     60159.72       111667     125342.5     90.67596     181.4243     329.6573      2.026     5.58      1209.97     64.06635     7302.802        91     1.984     1.532 -56.85  24
        16    722.8477   1002.7946 307.6018971  +6.2764589     913.3347     1244.887     624.7828     90.38579      181.569     363.1019      1.529     6.13     1206.986     64.06635     118.2533        10     1.227     0.861 -38.65   0
        17    430.8407   1003.8007 307.7232836  +6.2663200     802.9828       1449.4     1117.098     90.38579     181.4243     363.1381      1.953     5.03     1208.737     64.06635     148.7722         9     1.039     0.827  30.23   0
        18    354.0339   1001.6412 307.7552934  +6.2646496     1557.269     2821.628     3401.174     90.82069     181.7859     363.2827      2.024     6.92     1208.863     64.06635     191.6855        19     1.281     1.120 -18.00   0
        19    536.2863    991.6014 307.6798511  +6.2748726     3271.962     6245.741     6730.813     90.24036     181.2795     363.1381      2.021     4.22     1208.841     64.06635     430.3954        33     1.547     1.255 -64.29   2
        20    533.7441    983.9485 307.6811671  +6.2779484     6656.765     11968.52     13431.16     91.10947     181.7859     363.4273      1.921     4.08     1208.543     64.06635     809.4878        41     1.512     1.428 -57.53   2
        21    286.7934    990.4676 307.7836311  +6.2670194     11955.41     22088.79     24928.41     90.53099     181.4967     363.2466      2.019     4.11     1208.686     64.06635     1504.844        66     1.891     1.525 -35.75   0
        22    740.8583    990.8404 307.5948115  +6.2819947     6994.272     11344.41     12280.51     91.10947     181.7859     363.5357      1.752     3.55     1206.186     64.06635     804.0109        38     1.422     1.298  69.54   0
        23    506.9704    992.6470 307.6920057  +6.2734640      723.759      1163.25     773.3801     90.67595     181.8582      363.355      1.612     5.74     1208.722     64.06635      98.8512         9     1.369     0.679   0.77   0
        24    802.2196    990.0422 307.5693227  +6.2843637     1183.703     1670.856     1690.139     90.53099      181.569     363.2827      1.491     4.90     1205.079     64.06635     156.5881        11     1.105     0.787 -56.71   0
        25    410.8940    990.6202 307.7320241  +6.2710981     668.7181      1146.44     644.3876     90.96519      181.569     363.2827      1.670     5.56     1208.574     64.06635     106.5837         6     1.365     0.639 -18.67   0
        26    902.2104    984.3368 307.5279359  +6.2900405     8982.164     13458.57     14382.35     90.53099      181.569     363.2466      1.608     3.08     1204.063     64.06635     1279.512        36     1.281     1.236 -55.79   0
        27    259.0154    987.5140 307.7952814  +6.2673114      627.265     1210.883     1538.862     90.67596     181.4967      363.355      2.778     4.91     1208.337     64.06635     112.8842         5     1.413     0.483   5.52   0
        28    875.7573    980.4550 307.5390669  +6.2907656     12461.25     19389.76     20587.98     90.96519     181.7859     363.4635      1.684     3.18     1204.447     64.06635     1633.599        48     1.459     1.324 -28.16   0
        29    588.7441    981.1923 307.6583903  +6.2809184     1229.814     2171.348     1749.526     90.38579     181.6414     363.1381      1.852     7.01     1208.462     64.06635     140.5754        17     1.386     1.117  11.31   0
        30    520.0496    979.6075 307.6870084  +6.2792849     3360.391     6420.704     7399.911     90.53099     181.4967     363.0657      2.053     4.49     1208.368     64.06635     395.4709        31     1.497     1.251 -52.06   0
        31    997.5823    979.8110 307.4884293  +6.2950737     5455.167     7604.856     8000.012     90.67596     181.4243      363.355      1.478     2.84     1202.674     64.06635      809.647        26     1.160     1.072 -39.84   0
        32    629.6916    978.7966 307.6414443  +6.2832709     1372.534     2241.915     2502.452     90.67596     181.4243     363.1743      1.763     4.23     1207.814     64.06635     190.6079        13     1.242     0.848 -31.06   0
        33     56.1393    978.7297 307.8799350  +6.2641557     630.2056     892.9906     1333.414     91.25352     181.7859     363.4996      1.288     3.48     1207.089     64.06635     95.70544         5     1.008     0.348  45.18   0
        34    473.0780    976.0125 307.7066618  +6.2792042     1612.593     3101.272     3003.441     90.67596     181.3519     363.2466      1.958     5.00     1208.215     64.06635     211.4957        20     1.247     1.226 -23.36   0
        35    907.5934    968.0093 307.5262479  +6.2969623     44044.51     67480.95     71187.98     90.38579      181.569     363.2827      1.645     3.16     1203.531     64.06635     5929.975        61     1.426     1.320 -64.08   0
        36    215.0077    966.6839 307.8142869  +6.2744435     1302.561     2390.163     2554.862     90.67595     181.4243     363.2827      1.932     5.54     1207.453     64.06635     204.8468        16     1.315     1.123  17.50   0
        37    613.2540    964.3651 307.6487674  +6.2886838     700.9952     934.5894     131.3288     90.96519     181.7859     363.4996      1.524     4.69     1207.689     64.06635     94.43579         7     1.104     0.565 -63.04   0
        38    805.6393    962.0317 307.5688459  +6.2960454     2134.774     3701.637     3888.868     90.67595      181.569     363.2827      1.854     4.47     1204.379     64.06635     290.8181        23     1.373     1.165 -87.38   0
        39    753.7452    959.8345 307.5904996  +6.2952283     5864.735     9983.802     11290.34     90.96519     181.7859     363.4635      1.892     3.81     1204.771     64.06635      693.031        37     1.497     1.289 -65.03   0
        40    541.3182    958.9978 307.6788618  +6.2885050     696.9759     940.5684     707.8759     90.38579     181.3519     363.1381      1.489     4.27     1207.623     64.06635     125.8687         6     0.859     0.636  53.51   0
        41    223.5266    958.9642 307.8110067  +6.2779162      1192.59     2016.723     2721.794     90.96519     181.7859     363.4635      1.914     4.78      1207.47     64.06635     177.3481        11     1.189     0.821  -8.42   0
        42     48.3360    957.4647 307.8839025  +6.2726764     2108.753     3612.509     3885.524     91.10947     181.7859     363.4996      1.898     4.39      1206.59     64.06635      332.271        22     1.347     1.127 -79.94   0
        43    941.8475    954.7217 307.5124514  +6.3035868     7154.998     10580.24     10742.31     91.10947     181.8582     363.3912      1.562     3.14     1202.573     64.06635     873.8571        28     1.278     1.065 -52.78   0
        44    915.5962    946.4055 307.5236482  +6.3061502     1993.187     3358.654      3475.09     90.38579     181.4243     363.2827      1.824     3.46     1202.809     64.06635       336.24        20     1.199     1.065 -60.53   0
        45    623.3937    948.1541 307.6450990  +6.2957163     567.3893     886.4768     1076.753     90.53099     181.4967     363.0657      1.366     3.50     1206.758     64.06635     114.3536         5     0.758     0.465  75.62   0
        46    248.9376    942.9982 307.8009823  +6.2853588      3296.04     6619.361     7354.763     90.38579      181.569     363.1381      2.075     4.47     1207.589     64.06635     417.9062        33     1.468     1.393 -77.46   0
        47    636.4178    942.6049 307.6398707  +6.2984415     3800.346     6751.562      6531.64     90.67596     181.3519     363.2827      1.851     4.03     1206.154     64.06635     459.8409        31     1.426     1.301 -12.43   0
        48    775.0320    942.7561 307.5822243  +6.3029890     1198.279     2120.698     1855.612     90.82069     181.7859     363.3189      1.774     5.43     1204.037     64.06635     180.6268        11     1.286     0.691 -11.50   0
        49    985.9720    941.4260 307.4945503  +6.3105416     743.3033     1122.943     1109.167     90.53099      181.569     363.3189      1.574     3.29     1201.223     64.06635     163.0984         6     0.845     0.597 -43.75   0
        50     17.6862    940.2726 307.8972313  +6.2787501     1851.109     3203.626     3103.814     91.25352     182.1468     363.4635      1.830     4.01     1206.304     64.06635     252.2043        19     1.242     1.042  27.62   0
        51    959.6962    937.1328 307.5056218  +6.3114431     638.9526     635.6578      876.293     91.10947     181.8582     363.4635      0.970     4.45     1201.643     64.06635     129.3878         7     0.946     0.659 -76.81   0
        52    939.8855    935.7318 307.5139073  +6.3113644     667.4196     1079.636     1136.021     91.25352     182.0747     363.4996      1.646     4.92     1202.062     64.06635     112.2811         6     1.244     0.550 -26.57   0
        53    560.9869    935.2231 307.6714873  +6.2989788     1132.599     2367.554     2679.756     90.82069      181.569      363.355      2.237     7.69     1206.682     64.06635     149.3772        20     1.492     1.110 -28.60   0
        54    458.8218    940.8746 307.7137796  +6.2932404     877.9014     1532.935      1730.19     90.67595     181.6414     363.3912      1.905     5.27      1207.59     64.06635     103.9722        10     1.035     0.759  27.42   0
        55    600.7844    931.5578 307.6550620  +6.3018177        827.3     1325.843     1345.719     90.53099     181.4967     363.2104      1.820     5.44     1206.567     64.06635     143.6506         8     1.292     0.710 -24.20   0
        56    280.2510    928.4484 307.7884552  +6.2924136     983.1932     1921.643     2308.927     91.25352     181.6414     363.4273      2.377     6.71      1207.87     64.06635     139.5922        12     1.410     0.895 -29.09   2
        57    747.2243    925.0784 307.5943848  +6.3093654     780.5083     1150.198     741.5073     90.67596      181.569     363.4273      1.581     5.31     1203.369     64.06635     116.2263         7     1.292     0.616  11.22   0
        58    884.5438    921.7607 307.5373923  +6.3152976     7013.134     10813.87     10913.69     91.10947     181.8582     363.4273      1.676     3.39     1202.403     64.06635     881.6887        33     1.310     1.221 -88.86   0
        59    420.4676    919.5008 307.7304525  +6.3007885     1524.753     2880.728     2750.788     91.10947     181.9304     363.4273      1.986     6.91     1207.484     64.06635     169.2885        19     1.301     1.171 -54.34   0
        60    322.3514    917.5702 307.7713177  +6.2983118     6729.849     13574.66      14840.9     90.67596     181.8582      363.355      2.097     4.54     1207.754     64.06635     906.3707        48     1.627     1.519 -45.14   0
        61    242.3752    916.5038 307.8046101  +6.2960812     5323.302     10499.48     11688.65     91.25352     181.4967     363.3189      2.083     4.56      1207.08     64.06635     640.3639        39     1.530     1.476 -31.19   0
        62    754.9795    910.4220 307.5916547  +6.3156762     448.0571      898.941     969.2921     90.82069     181.7137     363.3912      1.700     4.20     1202.542     64.06635     71.21606         5     1.122     0.449 -64.38   0
        63    570.7843    910.4563 307.6682510  +6.3095334     910.2485     1657.578     1434.927     90.38579     181.7137     363.1743      1.883     5.73     1205.736     64.06635     121.2822        11     1.301     0.712  21.54   0
        64    900.3388    906.6190 307.5313344  +6.3220754     1060.224      1675.85     2099.768     90.67596     181.7137     363.3189      1.744     3.82     1201.092     64.06635     182.2881         9     1.008     0.807 -70.81   0
        65    967.7089    902.7346 307.5034487  +6.3259152     809.9745     1326.636     1736.003     90.96519     182.0026     363.4635      1.750     4.64     1199.558     64.06635     106.2874         8     0.935     0.653  -5.87   0
        66    736.7480    900.2572 307.5995796  +6.3192681     1470.662     2606.936     3075.313     91.10947     181.7859     363.4635      1.916     5.04     1202.002     64.06635     184.4534        18     1.285     1.058 -10.08   0
        67    967.9348    895.4499 307.5036002  +6.3289312     1388.734     2211.857     2692.125     90.96519     181.6414     363.4635      1.790     4.21      1199.06     64.06635      181.954        14     1.063     0.925  52.27   0
        68    600.6246    895.8175 307.6563370  +6.3165727     687.3357     1019.606     990.1849     90.82069     181.6414     363.3912      1.781     4.74     1204.366     64.06635     103.9901         6     1.137     0.560 -23.53   0
        69    522.1112    895.1096 307.6890108  +6.3142501     891.7761     1725.598     1980.606     91.10947      182.363     363.5719      2.057     5.71     1206.042     64.06635     108.8601        10     1.146     0.800 -18.17   0
        70    655.1747    893.3240 307.6337365  +6.3194182     2111.555     3710.355     3782.511     90.67596     181.6414     363.4273      1.832     4.69     1203.234     64.06635     226.6842        24     1.353     1.180 -64.85   0
        71     52.1452    889.8997 307.8846158  +6.3007063     2226.024     4436.522     4618.656     90.82069     181.7859     363.7885      2.012     4.54     1204.324     64.06635     310.6179        31     1.480     1.385 -71.04   0
        72    195.8302    888.5217 307.8249147  +6.3060817     1559.286     3032.616     3090.494     90.96519     181.8582     363.4273      1.999     5.27     1205.887     64.06635     214.6017        19     1.448     1.019  63.46   0
        73     69.5738    889.1480 307.8773942  +6.3016001     1402.293     2843.452     2664.333     90.67596     181.9304      363.355      2.087     5.58     1204.524     64.06635     166.8837        21     1.430     1.155 -15.18   0
        74    933.7300    887.7051 307.5180858  +6.3309949     714.9961     1154.157     849.8178     90.96519     181.8582     363.4996      1.580     5.34     1199.425     64.06635     115.3727         7     1.220     0.660 -44.23   0
        75    229.8866    885.1782 307.8108664  +6.3086007     576.8712     1052.212     1260.123     91.10947      181.569     363.3189      1.991     3.65     1206.237     64.06635     95.35754         5     1.145     0.336   9.67   0
        76    649.8309    882.3161 307.6363309  +6.3237865     5396.121      10081.8     10922.06     91.10947      181.569     363.3189      1.981     4.44     1202.757     64.06635     606.9708        40     1.517     1.444 -41.78   0
        77     10.4874    880.9942 307.9022408  +6.3029892     1038.773     1831.804     1249.189     90.53099     181.4243     363.1743      1.878     5.19     1203.256     64.06635     186.5396         9     0.998     0.874  80.39   0
