#   1 NUMBER                 Running object number                                     
#   2 X_IMAGE                Object position along x                                    [pixel]
#   3 Y_IMAGE                Object position along y                                    [pixel]
#   4 ALPHA_J2000            Right ascension of barycenter (J2000)                      [deg]
#   5 DELTA_J2000            Declination of barycenter (J2000)                          [deg]
#   6 FLUX_APER              Flux vector within fixed circular aperture(s)              [count]
#   9 FLUXERR_APER           RMS error vector for aperture flux(es)                     [count]
#  12 FLUX_RADIUS            Fraction-of-light radii                                    [pixel]
#  13 FWHM_IMAGE             FWHM assuming a gaussian core                              [pixel]
#  14 BACKGROUND             Background at centroid position                            [count]
#  15 THRESHOLD              Detection threshold above background                       [count]
#  16 FLUX_MAX               Peak flux above background                                 [count]
#  17 ISOAREA_IMAGE          Isophotal area above Analysis threshold                    [pixel**2]
#  18 A_IMAGE                Profile RMS along major axis                               [pixel]
#  19 B_IMAGE                Profile RMS along minor axis                               [pixel]
#  20 THETA_IMAGE            Position angle (CCW/x)                                     [deg]
#  21 FLAGS                  Extraction flags                                          
         1      8.8722     66.3445 307.9367449  +6.6320944     738266.8      2136142      2581462     90.68546     181.1549     362.3097      2.694     6.55     1173.063     63.86933     61999.34       380     2.479     2.031 -74.73  28
         2     99.7307     27.2485 307.9002647  +6.6512912     4916.239     12260.11     14504.23     90.82928     181.1549     362.3818      2.485     5.87     1167.775     63.86933     530.6729        55     1.993     1.637 -76.97   0
         3    642.3429     18.9712 307.6747314  +6.6728411      9547.93     23837.45     28011.74      90.3971     181.2989     362.2376      2.504     5.92     1143.531     63.86933     872.1593        74     2.099     1.743 -75.05   0
         4    542.1172     14.9446 307.7165791  +6.6711634     2559.948      6548.18     7411.566     90.82928     181.2269     362.4538      2.507     6.57     1147.306     63.86933     267.1171        45     1.929     1.582 -81.71   0
         5    260.5054     15.9918 307.8337407  +6.6613242     1021.491     2734.061       4550.9      90.3971     180.7942     362.0935      3.531     9.00     1166.036     63.86933     110.8416        23     1.730     1.306 -10.82   3
         6    268.3513     11.3072 307.8306345  +6.6635219     4478.056     11860.42      14661.7     90.68546     181.0828     362.4898      2.663     6.30     1166.207     63.86933       514.98        60     2.081     1.768 -61.82  18
         7    447.6665     10.6725 307.7560315  +6.6697765     10938.82     29643.28     34844.44     90.97289     181.2989     362.3097      2.617     6.31      1152.58     63.86933     1115.404        79     2.123     1.870 -71.16  16
         8     33.8833     11.0954 307.9282154  +6.6557571     1174.227     2922.334     2841.122     90.68546     181.6586     362.4538      2.469     8.73     1169.386     63.86933     140.6396        23     1.679     1.390 -84.68   0
         9    924.5361     10.1395 307.5575843  +6.6858782     1173.797     2988.278      4255.45     90.82928     181.1549     362.3818      2.807     6.34     1136.753     63.86933     179.4796        16     1.724     0.777 -85.40  18
        10    628.5661      9.1356 307.6807975  +6.6764454     1787.112     4610.925     5830.623     90.68546     181.2269     362.3457      2.758     7.27     1143.266     63.86933      212.599        38     1.878     1.492 -86.03  16
        11    329.9413     11.5594 307.8049946  +6.6654772     494.5247     1137.628     1124.158     90.82928     181.2269     362.4178      2.235     4.15     1161.311     63.86933     108.1151         5     1.069     0.460 -62.40   0
        12    256.4194      8.2756 307.8357029  +6.6643752     1240.356     3572.959     4014.751     90.39711     180.8664     361.7689      2.653     9.88     1166.119     63.86933     128.7335        31     1.886     1.444 -67.94  16
        13    697.8118      1.6515 307.6522314  +6.6818441     828.6544     1344.618     1135.167     83.17739     149.4051      278.271      1.750     5.03     1141.219     63.86933     136.0597         9     1.248     0.573 -13.74  24
        14    963.8683    988.8453 307.5082723  +6.2828350     6426.538     10366.27     10718.01     90.82928     181.1549     362.3818      1.711     3.88     1191.263     63.86933     784.5898        33     1.564     1.038 -76.84   0
        15     77.0013   1019.9516 307.8760182  +6.2404218     6372.766     11558.88     12715.33     90.10783     180.7942     331.9239      1.942     4.10     1193.036     63.86933     689.1373        41     1.672     1.252 -80.62  24
        16    248.7594    989.1165 307.8056429  +6.2589059     1049.915       2287.8     2588.167     90.82928     181.1549     362.3097      2.200     7.49     1194.796     63.86933      122.564        15     1.470     1.068  74.36   0
        17    718.0595    989.1228 307.6104860  +6.2745525     962.5226     1732.723      1895.88     90.97289     181.2989     362.3097      2.180     4.43     1193.842     63.86933     134.9446        10     1.152     0.858 -87.11   0
        18    724.3204    999.4445 307.6075344  +6.2704964     6383.213     10889.86     12271.92     90.82928     181.2269     362.3457      1.884     3.93      1194.28     63.86933     706.2408        40     1.566     1.251 -65.52   0
        19    723.7373    986.8850 307.6082003  +6.2756659     2242.582     4023.688      5024.88     90.97289     181.3709     362.3457      2.058     3.77     1193.552     63.86933     300.2623        24     1.285     1.158 -50.68   0
        20    739.6479    986.0903 307.6016105  +6.2765235     917.2229      1569.37     1478.725     90.82928     181.0828     362.5258      1.883     5.49     1193.089     63.86933     129.6602        11     1.193     0.886 -49.80   0
        21    370.5271    984.8779 307.7551509  +6.2647244     1339.978     2500.988     3111.511     91.11626     181.5148     362.3457      2.225     5.97     1194.595     63.86933     157.0369        15     1.195     1.089 -54.39   0
        22    980.9473    981.9741 307.5014007  +6.2862406     698.7814     1016.055     970.0885      90.3971     181.3709     362.2376      1.471     2.99       1190.5     63.86933     117.2319         5     0.633     0.588  -1.44   0
        23    303.0899    973.6041 307.7835756  +6.2671300     11007.96     21914.74      25281.3     90.25259     180.8664     362.0574      2.159     4.46     1194.901     63.86933     1142.309        68     1.939     1.580 -59.10   0
        24    757.2090    974.0572 307.5947131  +6.2820790     6408.864     11584.76     12942.25     90.10783     181.1549     362.0214      1.951     4.09     1192.131     63.86933     687.1814        39     1.572     1.254 -72.92   0
        25    552.9352    974.6619 307.6796421  +6.2750289     3180.874     6071.167     6618.989     90.82928     181.2269     362.3818      2.130     4.53     1195.397     63.86933      345.302        36     1.731     1.249 -73.08   3
        26    549.9611    967.0535 307.6811358  +6.2780731     6283.266      12133.7      13602.7     90.68546     181.2989     362.3457      2.064     4.49     1195.073     63.86933     623.3163        49     1.817     1.378 -74.91   3
        27    522.9732    976.5265 307.6920389  +6.2732600     781.2485     1315.623     1463.803      90.3971     181.1549     362.2737      1.932     5.46     1195.101     63.86933     128.9314         7     1.207     0.697 -40.64   0
        28    818.1516    973.5098 307.5693875  +6.2843313     1040.403     1723.442     1925.266     90.82928     181.0828     362.5258      1.879     4.68      1191.29     63.86933     132.5253        10     1.002     0.849 -51.09   0
        29    273.8237    970.7500 307.7958423  +6.2673313     843.3419     1388.462     1760.684      90.3971     181.2989     362.2376      1.822     6.14      1194.81     63.86933     114.7067         9     1.411     0.752  76.81   0
        30    918.4570    967.4053 307.5278788  +6.2901854     8050.074     13390.13     13749.98     90.25259     181.0828     362.0214      1.802     3.88     1190.585     63.86933     982.6611        40     1.631     1.148 -72.93   0
        31    892.0694    963.6314 307.5389798  +6.2908683     11054.74     18785.18      20289.2     90.68546     181.2269     362.3457      1.822     3.77     1190.497     63.86933     1389.874        50     1.652     1.296 -66.49   0
        32   1013.7563    963.0084 307.4883939  +6.2951648     4899.263     7775.793     7841.927     90.25259     181.0107     362.0574      1.638     3.94     1188.186     63.86933     633.2944        27     1.501     0.966 -70.07   0
        33    604.5989    964.2844 307.6585077  +6.2810374     988.2979     1638.054     1933.955     89.96285      180.722     362.0214      1.845     5.46      1194.87     63.86933     156.6083        12     1.315     0.925 -80.36   0
        34    536.4611    962.7046 307.6868968  +6.2794199     3142.594     6177.135     6959.093      90.5414     181.2989     362.4178      2.124     4.95      1194.83     63.86933     327.3591        35     1.667     1.310 -64.06   0
        35    645.6979    962.4677 307.6414775  +6.2831566     1111.884     1962.366     1751.394     90.82928     181.3709     362.3818      1.891     6.90     1193.691     63.86933     137.1351        15     1.340     1.028 -30.71   0
        36    489.5201    959.3607 307.7065305  +6.2792365     1634.721     2961.302     3633.566     90.68546     181.2989     362.3097      1.988     5.59     1194.346     63.86933     177.2401        23     1.532     1.131 -68.28   0
        37    923.8719    951.1621 307.5261735  +6.2970761     39221.51     66377.85     70809.95     90.68546     181.1549     362.4178      1.806     3.80     1189.729     63.86933     4813.034        68     1.721     1.285 -71.30   0
        38    231.1401    949.5457 307.8143101  +6.2746649     1259.136     2849.502     2860.004     90.97289     181.1549     362.3097      2.184     7.92     1194.039     63.86933      144.311        21     1.473     1.190 -30.78   0
        39    770.0665    943.0162 307.5904121  +6.2953310     5513.216     10483.29     11569.53     90.25259     181.0828     362.2376      2.045     4.63     1190.198     63.86933     599.4597        44     2.018     1.205 -69.54   0
        40    821.7173    945.2026 307.5688581  +6.2961448      1907.11     3254.474     3879.014     90.10783     180.7942     361.9853      1.852     5.33     1189.725     63.86933     227.6459        21     1.364     1.049 -73.15   0
        41    239.7222    942.1897 307.8109905  +6.2779907     1053.927     1966.613     1948.808      90.3971     180.7942     362.2016      1.916     7.73     1194.044     63.86933     123.1769        17     1.373     1.218   8.50   0
        42    204.5230    941.9227 307.8256370  +6.2769243      688.462      1020.53     1414.862     91.11626     181.5148     362.4178      1.905     5.89     1193.748     63.86933     80.62659         6     1.301     0.751 -88.13   0
        43    556.9136    941.8179 307.6790968  +6.2887306     744.1439     1280.997      1023.38      90.3971     180.9386     362.2376      1.634     4.35     1194.035     63.86933     104.9393         6     0.819     0.658   6.15   0
        44     64.6643    940.3341 307.8838496  +6.2729007     2028.001         3777     3732.395     90.82928     181.2269     362.3457      1.944     4.97     1192.832     63.86933     239.5692        24     1.397     1.231 -41.01   0
        45    958.1438    937.9355 307.5123653  +6.3036784     6353.665     10251.54     10788.79     90.97289     181.1549     362.3457      1.735     3.66     1187.944     63.86933     789.2401        35     1.497     1.140 -71.19   0
        46    932.0902    929.5991 307.5234811  +6.3062577     1874.496     3269.934     3344.811     89.96284     180.6497     362.0574      1.826     4.76     1188.483     63.86933     214.0361        20     1.354     0.984 -64.58   0
        47    652.7604    925.6064 307.6397841  +6.2986207     3273.981         6699     7931.203     90.10783     180.8664     362.0574      2.205     4.88     1191.016     63.86933     369.5802        37     1.698     1.313 -62.86   0
        48    791.4995    926.0774 307.5820694  +6.3030418     1216.185     2333.312     2617.577      90.3971     181.4429     362.3818      1.882     5.36     1188.973     63.86933     178.0034        14     1.321     0.875 -75.96   0
        49   1001.5228    925.6614 307.4947372  +6.3101889     718.4748      1305.04     1405.063     91.11627     181.2989     362.3457      1.715     3.46     1185.365     63.86933     117.7166         5     1.166     0.296 -69.10   0
        50    475.7323    923.9476 307.7134612  +6.2934072      762.152     1425.424     545.5422     90.68546     181.1549     362.2737      1.817     5.25     1194.043     63.86933     104.3712         7     1.114     0.700  81.89   0
        51     33.8932    923.2440 307.8972254  +6.2789305     1607.734     3184.512     3357.976     90.82928     181.1549     362.4898      2.085     4.95     1192.133     63.86933     175.4131        23     1.358     1.199 -49.77   0
        52    884.1567    922.2569 307.5436632  +6.3076993     678.5764     1064.387     922.8826     90.68546     181.1549     362.4178      1.090     3.19     1188.522     63.86933     143.3752         5     1.066     0.306 -78.90   0
        53    976.3135    919.6252 307.5054246  +6.3118463     747.5719     1165.475     1257.585     90.97289     181.0107     362.1656      1.748     4.48     1186.181     63.86933     128.0828         6     1.231     0.463 -88.31   0
        54    264.9998    926.2154 307.8010199  +6.2854351     2904.263     6212.118     7257.662      90.3971     180.8664     362.0574      2.249     5.59     1194.243     63.86933     313.2225        36     1.734     1.342 -83.21   0
        55    577.3553    918.4468 307.6713849  +6.2990673      1155.08      2426.03     2342.284     90.82928     181.1549     362.3097      2.089     7.53     1192.916     63.86933     138.3876        19     1.492     1.064 -45.24   0
        56    300.6419    919.2758 307.7864329  +6.2894930     759.3766     1194.218     1717.453     90.68546     181.2269     362.3818      1.951     5.52     1194.462     63.86933      120.594         7     1.335     0.644 -73.82   0
        57   1008.5151    918.0541 307.4920849  +6.3135638     819.1137     1159.575     1032.413     90.82928     181.2269     362.5258      1.489     6.02     1184.682     63.86933      124.168        11     1.291     0.791  85.43   0
        58    616.9165    915.7007 307.6550250  +6.3015196     783.6422     1178.203     1404.092     90.82928     181.8022     362.4538      1.611     4.34     1192.127     63.86933     126.3774         5     0.802     0.670 -13.23   3
        59    616.2861    913.3289 307.6553672  +6.3024786     688.3542      1188.43      797.564     90.97289     181.5148     362.3818      1.792     4.66     1191.984     63.86933      107.275         5     0.845     0.779  63.84   3
        60    296.1889    911.7007 307.7885412  +6.2924737     986.9053     1773.013     2159.883      90.5414     180.7942     362.0935      2.285     6.41     1194.351     63.86933     116.8644        13     1.184     0.975 -37.87   0
        61    900.8982    904.9014 307.5372847  +6.3154258     6120.608     10403.66     10759.32     90.82928     181.6586     362.1656      1.814     3.85      1187.83     63.86933     732.3169        32     1.519     1.136 -73.94   0
        62    436.8793    902.4416 307.7303460  +6.3009962     1671.669     3377.983     3885.516     90.68546     181.2269     362.3457      2.232     6.70     1193.651     63.86933     174.4066        23     1.484     1.185 -64.46   0
        63    338.6025    900.6963 307.7712754  +6.2984368     6361.609     13515.62     14194.35     90.39711     180.8664     361.9853      2.153     5.03      1193.92     63.86933     623.2781        48     1.821     1.430 -83.19   0
        64    258.6856    899.6540 307.8045453  +6.2961974     4852.457      10118.2     11587.63     90.82928     181.1549     362.5258      2.249     5.06       1193.8     63.86933     492.8455        46     1.876     1.403 -81.96   0
        65    586.6489    894.9399 307.6683135  +6.3090886     707.6196     1358.984     1067.749     90.82928     181.1549     362.4178      2.043     4.63     1191.616     63.86933     90.14612         6     0.905     0.671 -52.81   0
        66    916.8436    889.7731 307.5311622  +6.3222056     1017.564     1721.472     1960.823      90.3971     181.2989     362.2376      1.927     5.94      1187.09     63.86933     124.8953        10     1.113     0.892  80.37   0
        67    872.9357    888.8436 307.5494548  +6.3211313     698.8571     1326.388     1150.115     90.82928     181.1549     362.3457      2.017     5.35     1187.658     63.86933     91.08606         7     1.017     0.795  69.21   0
        68    984.0451    886.0686 307.5033376  +6.3259668     783.0359     1265.411     1589.316     90.82928     181.1549     362.3457      1.961     4.82      1184.26     63.86933     104.5179         7     1.031     0.639 -31.06   0
        69    752.9749    883.1070 307.5995395  +6.3195138       1317.6     2235.575     2688.819     90.97289     180.9386     362.1656      1.771     5.18     1187.961     63.86933     165.5667        15     1.315     0.809 -61.89   0
        70    984.3044    878.8497 307.5034725  +6.3289579     1236.273     1923.833     2174.916     90.68546     181.1549     362.5258      1.820     4.90     1183.935     63.86933     178.1106        14     1.269     0.900 -77.57   0
        71      4.6532    880.2096 307.9108458  +6.2957295     752.7687     1526.197     1731.003     90.10783     181.1549     326.8513      2.084     5.25     1189.908     63.86933     111.0825         6     1.186     0.655 -65.64  16
        72    538.0450    878.7590 307.6890737  +6.3141540     945.0098     1548.927     1150.497     90.68546     181.2269     362.1656      1.776     4.57     1192.171     63.86933     172.9811         9     1.446     0.651 -61.79   0
        73    671.6464    876.2715 307.6335941  +6.3196318     1827.583     3544.152     4526.964     90.82928     181.2269     362.3457      2.386     5.33     1187.592     63.86933     186.4052        22     1.438     1.130 -56.72   0
        74     68.4003    872.6194 307.8845939  +6.3010004     2120.686     4261.051      4274.72     90.39711      180.722     361.9853      2.066     6.22     1191.967     63.86933     220.8094        29     1.737     1.189  88.88   0
        75    212.0244    871.7156 307.8248966  +6.3061797     1445.625     3028.764     3089.173     90.68546     180.9386     362.2737      2.175     6.45     1193.262     63.86933     196.1761        26     1.525     1.377 -78.76   0
        76     86.0731    872.1523 307.8772604  +6.3017851     1335.725     2654.499     3198.181     90.82928     181.2989     362.3457      2.302     6.68     1192.623     63.86933     159.1956        22     1.562     1.132 -73.17   0
        77    949.3954    871.4854 307.5182391  +6.3308419     759.8629     1036.686     552.1016     90.25259     180.7942     361.9853      1.509     4.27     1185.199     63.86933     104.6229         6     1.078     0.483 -55.74   0
