#   1 NUMBER                 Running object number                                     
#   2 X_IMAGE                Object position along x                                    [pixel]
#   3 Y_IMAGE                Object position along y                                    [pixel]
#   4 ALPHA_J2000            Right ascension of barycenter (J2000)                      [deg]
#   5 DELTA_J2000            Declination of barycenter (J2000)                          [deg]
#   6 FLUX_APER              Flux vector within fixed circular aperture(s)              [count]
#   9 FLUXERR_APER           RMS error vector for aperture flux(es)                     [count]
#  12 FLUX_RADIUS            Fraction-of-light radii                                    [pixel]
#  13 FWHM_IMAGE             FWHM assuming a gaussian core                              [pixel]
#  14 BACKGROUND             Background at centroid position                            [count]
#  15 THRESHOLD              Detection threshold above background                       [count]
#  16 FLUX_MAX               Peak flux above background                                 [count]
#  17 ISOAREA_IMAGE          Isophotal area above Analysis threshold                    [pixel**2]
#  18 A_IMAGE                Profile RMS along major axis                               [pixel]
#  19 B_IMAGE                Profile RMS along minor axis                               [pixel]
#  20 THETA_IMAGE            Position angle (CCW/x)                                     [deg]
#  21 FLAGS                  Extraction flags                                          
         1    775.3068     25.1235 307.6185034  +6.8044409     1240.195     2986.742      5286.19      95.0175     190.4884     380.2591      3.577    10.38     1260.868     67.02685     149.4463        24     2.080     1.443 -45.51   2
         2     12.4020     21.7662 307.9358303  +6.7804631      823.595     2320.025     2625.257     94.41036     189.9594     380.0322      2.546     8.90     1303.731     67.02685     130.1121        17     1.874     1.179 -80.95   0
         3    352.6196     10.2735 307.7947612  +6.7965580     5763.422     14872.96     23128.84     94.86608     190.1106     380.1835      3.131     9.63     1287.724     67.02685     588.3916        80     3.166     1.814 -21.62  19
         4    351.4889      5.6938 307.7953856  +6.7984160     3857.179     8012.721     10510.08     95.31963     190.7146     357.2575      2.426     7.38     1288.021     67.02685       466.03        33     2.300     0.944  -7.31  19
         5    116.3148      7.3308 307.8931138  +6.7899052     725.2407      1835.67      2748.13     95.47034     190.4884     374.0074      2.839     5.42     1297.905     67.02685     114.4974         8     1.133     0.732  -4.14  18
         6    444.1836      3.0913 307.7569303  +6.8025754     6455.732     16260.52     22178.98      95.0175     178.4879     318.5405      2.766     9.44      1278.35     67.02685     690.4155        70     2.949     1.462  -7.88  24
         7    641.9503    993.4141 307.6414549  +6.3992193     2520.688     6951.393     8448.912     94.56251     190.1106     379.9187      2.822     7.81     1326.533     67.02685     322.3746        55     2.265     1.731 -16.35   0
         8    944.4059   1023.6997 307.5147736  +6.3966890     873.6592     1475.168     1510.653     82.02509     150.0444     285.1534      1.620     5.05     1324.002     67.02685      168.785        10     1.622     0.445  -4.00  24
         9    587.6927    992.1523 307.6640405  +6.3979433     752.2836     1536.772     1908.799     95.16869     190.1106     380.4103      2.495     5.88     1327.252     67.02685     121.2574         9     1.420     0.684 -10.73   0
        10    105.3391    988.7887 307.8645557  +6.3833061     1397.705     3928.646     5635.467     94.56252      190.035     379.9187      3.162    10.35     1326.894     67.02685     167.6788        28     2.203     1.356 -27.13   2
        11    616.1394    988.8890 307.6523308  +6.4002370     901.6293     2592.716     3592.416     95.16869     190.3374     380.2969      3.180     8.44     1326.817     67.02685     125.1331        14     1.882     1.058 -54.27   0
        12    979.3754    987.8992 307.5014405  +6.4126632      1401.46     3325.504     4224.059     95.47033     189.8837     380.0322      2.722     6.51     1322.063     67.02685     151.2546        19     1.482     1.172 -61.07   2
        13    758.7283    985.4515 307.5932016  +6.4063822     9029.752     23627.07     30609.02     95.16869     190.1862     380.2969      2.772     6.99     1324.936     67.02685     951.5137        82     2.506     1.712 -21.88   0
        14    888.6500    984.9260 307.5392368  +6.4108967      1830.91     4428.039     5188.513     95.31963     190.2618     380.2969      2.563     7.59     1323.509     67.02685     209.8026        36     1.887     1.422 -18.74   0
        15    232.5211    979.2674 307.8120380  +6.3914811     2226.276     6813.739     9330.833     95.47034     190.3374     380.2213      3.113     8.85     1327.863     67.02685     236.3263        57     2.285     1.854  -4.58   0
        16    639.1562    978.1764 307.6431269  +6.4054340      2785.25     7486.218     9745.461     94.71442      190.035     380.0322      2.770     8.31     1326.021     67.02685     342.7766        61     2.473     1.647 -17.47   0
        17    711.1985    966.4735 307.6135860  +6.4126645     1714.996     4364.449     5551.477     94.71442     189.5047     380.1078      2.846     8.64     1324.584     67.02685     202.7252        35     2.172     1.237 -27.28   0
        18    977.1301    963.0397 307.5032044  +6.4228794     4772.771     11040.23     13347.59     95.16869     190.1862     380.3347      2.485     6.75     1321.292     67.02685     507.5861        53     2.289     1.325 -22.95   0
        19    915.5612    962.7534 307.5287967  +6.4209641     1199.641     2705.879     2887.194     95.16869     190.1862       380.07      2.581     8.86      1321.98     67.02685     159.4224        20     1.739     1.378 -25.54   0
        20     54.9671    958.7465 307.8864961  +6.3940624     9640.144     28082.69     37084.54     95.16869     190.1106     380.1835      2.933     7.48     1325.923     67.02685     986.1565        92     2.543     1.930 -21.39   0
        21    516.4434    958.7025 307.6947665  +6.4094262     829.3464     2131.617     3058.963     95.31963     190.1106     380.5237      3.287     8.95     1327.759     67.02685     105.0754        16     2.051     1.091 -19.98   0
        22    700.8018    949.9053 307.6184612  +6.4191783     1398.808     3894.627     5025.494     94.71442     189.8079     379.8051      2.872     9.04     1324.305     67.02685     160.7139        31     2.131     1.396 -26.81   0
        23    722.5187    948.4281 307.6094872  +6.4205089     1755.589     4633.638     5064.991     95.16869     189.9594     380.2213      2.678     9.25     1323.986     67.02685      228.642        33     2.035     1.472 -24.04   0
        24    554.3245    947.4267 307.6794058  +6.4153501     1004.597     3232.353     4577.749     95.16869     190.1862     380.2213      3.006     8.89     1326.957     67.02685     136.7755        17     1.813     1.217  61.53   2
        25    995.6264    944.2283 307.4961476  +6.4312769     2435.245     5863.161     7442.148     94.71442     189.9593       380.07      2.634     6.96     1320.615     67.02685     278.2107        43     2.144     1.365 -27.50   0
        26    960.7565    943.4284 307.5106635  +6.4304565     4243.151      10224.7     12095.77     94.86608     190.2618     380.1457      2.515     6.75     1320.706     67.02685     452.8816        50     2.170     1.429 -24.19   0
        27    119.6345    937.5622 307.8603438  +6.4049855     8766.843     26400.55     36682.99     95.01751     189.9594     379.9944      3.091     7.60     1325.724     67.02685     849.3705       101     2.609     2.049 -21.84   0
        28    407.2808    941.3943 307.7407040  +6.4129668     582.5768     1329.999      3042.28     94.86608     189.6564     379.9565      2.617     4.82     1327.783     67.02685      112.134         5     1.367     0.482 -23.94   2
        29    405.6264    937.3380 307.7415278  +6.4145909     943.1013     2557.648     4388.129     94.86608     190.1862     380.1457      3.622     8.77     1327.748     67.02685       145.11        15     2.019     1.063   4.56   2
        30    955.7030    926.2560 307.5133375  +6.4373979     3668.055     8986.688     11387.92     95.16869     190.1862     380.5237      2.713     6.63     1320.017     67.02685     392.8407        56     2.124     1.645 -30.31   0
        31   1011.0355    921.4616 307.4905055  +6.4412097     48498.46     113996.8     139101.2     95.31963     190.1862     380.2213      2.565     6.48     1319.686     67.02685     5401.763       111     2.453     1.636 -24.76  16
        32    549.4950    922.0217 307.6822653  +6.4257058     17770.14     52525.25     72847.58     95.16869     189.9593       380.07      3.048     7.62     1326.522     67.02685     1776.516       112     2.700     1.977 -20.51   0
        33    157.5803    918.5468 307.8452194  +6.4141200     1035.961     2854.556     3809.443     94.71442     190.1862     380.0322      2.911     9.91      1325.62     67.02685     133.5455        23     1.968     1.392 -10.25   0
        34    446.6987    905.9507 307.7255175  +6.4289467     21892.61     66966.83     96477.64     95.31963     190.1106     380.4859      3.178     7.91      1326.51     67.02685     2152.399       128     2.795     2.090 -20.83   0
        35   1022.9971    904.9901 307.4860855  +6.4484227     1207.212     1955.508     1517.141      91.4714     162.5536     299.0329      1.726     4.85     1318.639     67.02685     181.3264        12     1.218     0.825 -59.47  24
        36    718.7358    888.9338 307.6130531  +6.4450103     2015.957     5577.105     7164.908     95.31963     190.1862     380.2969      2.794     8.20     1321.766     67.02685     245.6364        49     2.300     1.566 -17.34   0
        37    772.1046    884.3970 307.5910288  +6.4486548     5475.482     15520.16        20300      95.0175     189.8079     379.8808      2.911     7.37     1321.214     67.02685     583.9821        79     2.513     1.809 -25.43   0
        38    595.5975    882.1738 307.6644467  +6.4437287     992.5139      3031.26     4691.856     94.71442     189.8079     380.0322      3.455    12.22     1322.565     67.02685     134.5995        29     2.395     1.735 -30.12   0
        39   1010.3777    882.6558 307.4920757  +6.4572513     855.4533     1887.072     2048.572     94.86608     190.1862     380.0322      2.448     6.94      1317.23     67.02685     118.6808        12     1.566     0.863 -38.97   2
        40    209.3673    876.1442 307.8251316  +6.4333950     608.4205     1205.557     1082.145     95.16869     190.2618     380.2591      2.162     5.07     1325.289     67.02685     113.2854         5     1.061     0.686 -25.61   0
        41    848.3991    867.6185 307.5598876  +6.4581239     1185.662     3410.121     3710.438     94.86608     189.6564     379.9187      2.663     9.90     1317.842     67.02685       154.24        28     2.083     1.311 -37.27   0
        42    805.8442    865.2714 307.5776494  +6.4576880     980.3447     2799.068       3847.9     95.16869     190.1862     380.2969      2.767     9.53     1319.975     67.02685     131.8575        19     1.736     1.461  19.74   2
        43    236.3258    862.6974 307.8143833  +6.4398579     1740.766     2351.153     3785.186     95.01751     190.4129     380.2591      1.544     3.94     1325.166     67.02685     240.6497         9     0.959     0.708 -14.74   3
        44    235.9573    859.2172 307.8146537  +6.4412862     2664.888     6737.644     10458.38     94.71442      190.035     379.9565      3.388    10.53     1325.129     67.02685     271.7852        61     2.871     1.847 -24.75   2
        45    787.5062    856.2627 307.5855714  +6.4608103     61997.55       172814     237715.7     95.31963     190.1862     380.3347      3.013     7.38     1319.483     67.02685     6446.375       173     2.870     2.006 -23.19   0
        46    169.4143    855.2330 307.8424366  +6.4407204     18788.62     60889.85     89125.44     94.86608     189.8837     380.1457      3.237     8.14     1324.757     67.02685     1801.601       130     2.782     2.197 -19.35   0
        47     93.4460    851.3141 307.8741333  +6.4398121     2088.432     6341.749     8915.654     95.31963      190.035     380.2591      3.082     8.77     1322.974     67.02685     213.3845        56     2.255     1.851 -24.35   0
        48    824.1156    843.1780 307.5707967  +6.4674377     1742.011     4879.103     6074.579     95.16869     189.8079     380.1457      2.815    10.63     1317.153     67.02685     194.3198        44     2.394     1.521 -28.97   0
        49    342.7163    842.1631 307.7708683  +6.4518956     5317.172     17460.27     26335.02     95.31963     190.1106     380.1835      3.297     8.95     1324.903     67.02685      541.821        94     2.784     2.063 -19.73   0
        50    778.5449    838.5221 307.5898895  +6.4678572       1686.6     3699.851     5811.739     95.47034     190.1862     380.2969      3.049     9.44     1317.983     67.02685     186.7075        23     2.442     1.018  -0.42   3
        51    778.2240    835.5035 307.5901239  +6.4690961     1981.098     4270.329     6189.439     95.47034     189.8837     380.1078      2.469     7.18     1317.718     67.02685     248.3079        28     2.160     1.031  -1.52   3
        52    510.2946    838.6707 307.7013529  +6.4589066     1676.349     3704.667     5187.367     95.16869     190.2618     380.2591      2.454     7.62     1322.839     67.02685     222.4208        20     1.620     1.055 -19.64   3
        53    508.7603    835.4103 307.7021000  +6.4602052      1962.11     5016.609     7451.317     94.56252     189.9594     379.9565      2.988    11.21     1322.728     67.02685     249.9146        42     2.797     1.527 -22.76   3
        54    156.4136    830.4396 307.8486742  +6.4505498      2151.65     6953.737     10081.59     94.71442     189.9594     379.9565      3.194     9.88     1323.703     67.02685     236.9952        64     2.470     1.975 -31.28   0
        55    553.4752    832.4655 307.6836184  +6.4629076     716.8843     1478.862     2677.153     95.47034     190.1862     380.1835      3.257     4.46      1321.65     67.02685     85.73108         5     1.179     0.480  83.48   3
        56    552.9135    828.6445 307.6839801  +6.4644706     813.1702     2321.127     3286.299     95.31963      190.035     380.2591      2.929     5.16     1321.522     67.02685     100.3317         8     1.131     0.666 -35.89   2
        57    251.4200    826.7833 307.8093212  +6.4552256     26168.61     87827.88     131823.5     95.01751     189.9593     380.1457      3.320     8.46      1324.86     67.02685     2571.037       144     2.855     2.250 -23.44   0
        58     29.2621    830.0406 307.9015193  +6.4464780     1515.696       3653.1     5440.898     95.31963     190.1862     380.2969      2.950     8.04     1322.368     67.02685     184.2106        25     2.078     1.011 -15.94   3
        59     28.6957    827.2958 307.9018473  +6.4475952     1609.101     3510.554     5369.275     95.31963     190.9407       380.07      2.636     7.38     1322.295     67.02685      204.259        19     1.872     0.815 -13.34   3
        60    774.3010    818.6231 307.5923197  +6.4759537     6182.507     17486.06      23872.8     95.47034     189.8837     380.0322      2.994     7.83     1316.215     67.02685     585.9855        82     2.653     1.806 -27.82   0
        61    478.0959    817.2487 307.7154523  +6.4667051     13434.07     43249.92     67078.77     95.16869      190.035     380.4481      3.382     8.39      1322.94     67.02685     1365.419       132     2.894     2.261 -19.02   0
        62    637.9700    814.3189 307.6491164  +6.4732204     826.8643     1941.231     4005.457     95.16869      190.035     380.2591      5.561     8.57     1318.275     67.02685     96.30054        14     2.217     0.925  -6.03   3
        63    638.0590    811.0384 307.6491895  +6.4745812     1047.314     2444.242      3801.69     95.31963     190.2618     380.3347      3.169     4.95     1318.113     67.02685     184.5229        11     1.357     0.678   7.62   3
        64    190.5034    812.9801 307.8350980  +6.4589117     840.8995      1739.79     2705.758     95.16869     189.9593     379.9944      2.649     3.81     1323.884     67.02685     103.1986         6     0.833     0.500  89.50   0
        65    122.4842    805.2835 307.8636204  +6.4598322     7952.292      26158.3     38587.33     95.01751     190.4129     380.3725      3.272     8.15     1322.454     67.02685     754.2559       110     2.752     2.185 -22.67   0
        66    307.6964    805.2668 307.7866616  +6.4660035     1406.989     3938.558     5980.521     95.31963     190.2618     380.2969      3.230    10.09      1324.44     67.02685     180.0303        31     2.208     1.285 -14.57   2
        67    850.8615    804.3036 307.5609839  +6.4844137     735.7808     1690.321     2038.081      95.0175     190.2618     380.3347      2.368     7.72     1313.551     67.02685     128.0409        11     1.702     0.978  83.33   0
        68     87.5482    802.6384 307.8782259  +6.4597630     1022.239     2607.513      3801.46     95.01751     190.1862     380.2591      3.108    10.28     1322.092     67.02685     112.1024        19     1.726     1.706 -57.86   0
        69    486.7322    803.6329 307.7123211  +6.4726277     583.0416     1463.011     2102.611     95.16869     190.1862     380.2591      2.578     4.46     1322.399     67.02685      102.776         5     1.204     0.471  -5.32   0
        70    947.5070    798.9958 307.5209990  +6.4898052     2337.229     5964.974     7271.184     94.86608     189.8079     379.9187      2.668     7.77     1312.249     67.02685     300.6035        44     2.196     1.411 -35.12   0
        71    520.1838    791.5464 307.6988266  +6.4787407     594.6301     1154.816      1217.16     94.71442     190.1862     379.9187      2.867     4.31     1320.737     67.02685     87.68152         5     0.918     0.576  46.78   0
        72    419.3539    786.0291 307.7409113  +6.4776772     12414.41     42115.05     64416.43     94.71442     190.2618     380.1078      3.355     8.65     1322.157     67.02685      1276.23       129     2.886     2.236 -23.04   0
        73    627.2943    785.4745 307.6545205  +6.4848062     3923.643     11843.51     17071.06     95.01751     190.4129     380.2591      3.127     8.20     1317.218     67.02685     397.3141        77     2.615     1.902 -19.90   0
        74    184.6564    783.9361 307.8385064  +6.4707387     5853.039     18752.01     29333.99     95.47033     190.1106     380.2591      3.406     8.36     1322.522     67.02685     558.9409       102     2.701     2.271 -19.91   0
        75    549.3191    781.5511 307.6870551  +6.4838447     768.5409     2192.861     3062.733     95.31963     190.1862     380.2969      3.013     5.95     1319.479     67.02685     99.83777         6     1.564     0.637  72.91   0
        76    922.9838    780.4803 307.5318094  +6.4966592     1629.948     3604.891     4914.304     94.86608     189.8837       380.07      2.358     8.26     1311.301     67.02685     187.6282        21     2.189     0.871  10.26   3
        77    922.9968    778.0000 307.5318870  +6.4976864     1681.359      3565.58       4773.3     94.41036     189.5806     379.9187      2.300     7.23     1311.132     67.02685     220.4885        20     1.860     0.788   1.06   3
