#   1 NUMBER                 Running object number                                     
#   2 X_IMAGE                Object position along x                                    [pixel]
#   3 Y_IMAGE                Object position along y                                    [pixel]
#   4 ALPHA_J2000            Right ascension of barycenter (J2000)                      [deg]
#   5 DELTA_J2000            Declination of barycenter (J2000)                          [deg]
#   6 FLUX_APER              Flux vector within fixed circular aperture(s)              [count]
#   9 FLUXERR_APER           RMS error vector for aperture flux(es)                     [count]
#  12 FLUX_RADIUS            Fraction-of-light radii                                    [pixel]
#  13 FWHM_IMAGE             FWHM assuming a gaussian core                              [pixel]
#  14 BACKGROUND             Background at centroid position                            [count]
#  15 THRESHOLD              Detection threshold above background                       [count]
#  16 FLUX_MAX               Peak flux above background                                 [count]
#  17 ISOAREA_IMAGE          Isophotal area above Analysis threshold                    [pixel**2]
#  18 A_IMAGE                Profile RMS along major axis                               [pixel]
#  19 B_IMAGE                Profile RMS along minor axis                               [pixel]
#  20 THETA_IMAGE            Position angle (CCW/x)                                     [deg]
#  21 FLAGS                  Extraction flags                                          
         1    269.5504     25.3232 307.8197306  +6.6176109     11410.26      37917.9     47837.89     92.07901     184.0849     367.9139      2.884     7.55     1216.924      64.8508     1244.232        93     2.311     2.049 -50.27   0
         2     17.0076     23.0000 307.9250270  +6.6101523     1721.973     3271.907     5070.024      91.3453     183.5724     367.6577      2.675    11.85     1222.478      64.8508     193.9097        26     2.824     1.432   5.29  19
         3    701.3011     21.6905 307.6399583  +6.6334568     3603.799     10307.08     12292.26     92.22505     184.5231     367.8773      2.681     6.80     1187.842      64.8508     355.3192        57     2.005     1.824 -43.78   0
         4    112.3565     19.2208 307.8854286  +6.6148970     1988.614     6058.566     6898.149     91.63949     183.8655     367.7309      2.674     9.58     1217.522      64.8508      231.598        48     2.244     1.656 -53.40   0
         5    382.4331     16.9678 307.7729777  +6.6248235     1451.423     3320.435     4492.338     91.63949      183.719     367.6211      2.553     6.60     1204.249      64.8508     199.6691        18     1.457     1.094 -14.18   3
         6    383.3416     14.0302 307.7726976  +6.6260689     1541.869     3842.816     5198.996     91.93273     184.0118     367.8407      2.696     8.18     1204.207      64.8508      164.285        26     1.803     1.202   6.98   3
         7    348.1174     14.9412 307.7873434  +6.6245204     1160.804     3192.166     4429.305     92.22505     184.0849      367.987      2.838     8.96     1208.755      64.8508     160.5664        24     2.046     1.095 -51.47   2
         8    993.2533      7.7603 307.5187702  +6.6488817     835.4285     1682.232     1079.933     92.07901     184.0118     364.7914      2.008     5.86     1177.161      64.8508     121.6066         7     1.604     0.602  70.00  16
         9     81.7929      4.9351 307.8986422  +6.6197869     873.4272       2127.4     3049.398     91.63949      183.719     335.7844      2.897     5.52     1217.891      64.8508     113.3563        10     1.356     0.633 -42.59  24
        10    660.6833      2.5545 307.6575215  +6.6400262     2855.066     5814.005     6408.603     92.22505     165.8559     299.2034      2.106     6.58     1188.718      64.8508     286.5492        32     1.856     1.170 -17.92  24
        11    612.1780      1.4608 307.6777692  +6.6388697     1884.097     2926.669     2948.992      82.0305     148.4729     279.1449      1.655     5.80     1189.572      64.8508     328.7806        16     1.806     0.575  -6.39  24
        12    199.1761      3.2913 307.8497905  +6.6243805     2208.588     6022.302     6923.317     92.22505     174.9386     311.4568      2.543     7.91     1216.607      64.8508     300.8264        41     1.973     1.546 -15.20  24
        13    488.5180   1000.8173 307.6959013  +6.2213627     884.8304     1724.296     2162.001     91.78623     183.6458     367.8407      2.292     6.41     1253.596      64.8508     149.3413        10     1.506     0.767   7.56   0
        14    537.6169   1021.8280 307.6747588  +6.2143005     4069.905     7893.732     8026.394     91.78623     173.3155     309.5931      2.017     4.66     1253.302      64.8508     484.7595        36     1.611     1.325 -23.04  24
        15    466.0001   1021.9307 307.7045711  +6.2118815     1879.938     3531.102     3317.196     91.63949     172.1468      307.587      1.907     5.72     1254.205      64.8508     225.7815        25     1.675     1.130 -37.83  24
        16    300.8384    997.5654 307.7741456  +6.2164734      22100.4     48353.94     52842.15     91.93274     183.8655     367.6577      2.235     4.99     1254.848      64.8508     2132.987        75     1.909     1.606 -51.31   0
        17    407.1534    996.8301 307.7299089  +6.2203106     1016.879      2498.84     2965.382     91.63949     184.0118     367.8041      2.546     8.84     1253.708      64.8508     117.7614        23     1.933     1.129 -29.36   0
        18    465.6148    996.0974 307.7055942  +6.2225550     1767.858      3613.12     3784.068     92.07901      183.719     367.6577      2.126     6.35     1253.644      64.8508     207.2952        26     1.604     1.313 -27.48   0
        19    215.7339    991.1898 307.8097894  +6.2162798     38752.27      83527.9     92347.48     91.63949     183.8655     367.7675      2.219     4.86     1254.656      64.8508     3944.866        90     1.939     1.633 -49.31   0
        20    990.4092    995.0579 307.4871333  +6.2403612      1086.49     1785.285     2235.232     91.49252     183.9386     367.5845      1.913     4.99      1247.85      64.8508     177.6656         9     1.375     0.513 -24.84   0
        21     11.1225    992.1281 307.8949391  +6.2090760     3792.746     7390.909     8074.566     92.51644     184.3041     367.9139      2.054     4.70     1251.465      64.8508      420.775        33     1.528     1.341 -70.03   0
        22    774.1375    992.7403 307.5772559  +6.2341700     1879.939     3646.159     3984.427     92.22505     183.9386     367.9505      2.021     5.54     1250.145      64.8508     215.6047        22     1.370     1.136 -59.18   0
        23    102.0116    985.5125 307.8573235  +6.2148418     2061.704      4663.49      5306.49     91.78623      183.719     367.7675      2.361     6.89     1252.777      64.8508     246.2935        33     1.798     1.433 -59.07   0
        24    624.1261    982.9664 307.6400383  +6.2332447     1372.528     2517.125      2360.94     92.07901     183.9386     367.9139      1.878     5.94     1251.492      64.8508     179.5215        15     1.418     0.939 -28.94   0
        25    497.3278    983.3015 307.6928183  +6.2289007     863.2245     1838.266     2052.034     91.93274      184.158     367.9139      2.057     6.97     1253.097      64.8508     127.6984        10     1.352     1.007 -39.51   0
        26    662.1127    975.5848 307.6244688  +6.2375570     995.0752     2187.182     2878.585     91.78623      183.719     367.7675      2.463     7.47     1250.777      64.8508     125.4524        16     1.772     0.883 -51.73   0
        27    469.3644    977.0247 307.7046701  +6.2305691     1225.298     2523.033     3081.564     91.78623     183.7923     367.6577      2.328     6.52      1253.24      64.8508     144.7589        18     1.512     0.886 -26.26   0
        28    999.5781    974.9600 307.4839833  +6.2489780     3030.213     4958.654     4507.767     91.78623     183.7923     367.6943      1.711     3.88      1246.65      64.8508     405.7928        24     1.437     1.021 -56.94   0
        29    142.3790    973.6905 307.8409143  +6.2210765     3179.133       6638.5     7009.595     92.07901     183.7923     367.7309      2.117     5.28     1252.827      64.8508     316.6062        37     1.559     1.522 -23.23   0
        30    210.4468    972.4672 307.8126174  +6.2238485     1682.743     3867.175     4266.547     92.22505     183.9386     367.9139      2.321     6.28     1253.859      64.8508     192.4349        31     1.573     1.418  50.05   0
        31     10.0210    972.2840 307.8960634  +6.2172477     1131.229     2096.992     2224.815     91.93274     183.6458     367.8041      2.126     5.49     1250.807      64.8508      171.894        12     1.274     0.767  34.60   0
        32    931.3295    970.5126 307.5125474  +6.2485633     1133.008     1866.918      1817.35     92.37086     184.3041     367.9139      1.898     4.56     1247.047      64.8508     149.1224        11     1.064     0.813 -59.03   0
        33    879.7266    970.4706 307.5340343  +6.2468751     1427.165      2251.76     2480.138     92.51644      184.158     367.9139      1.737     6.27     1247.541      64.8508     181.1538        15     1.291     0.925 -84.31   0
        34    959.8004    965.1010 307.5008730  +6.2517427     3270.215     5489.497     5239.698     91.63949     183.5725     367.4747      1.748     4.12     1246.422      64.8508     445.9316        27     1.561     1.014 -48.43   0
        35    743.1638    965.9242 307.5910448  +6.2442377      711.276     1146.925     757.4926     92.07901     184.0849     367.9504      1.465     4.48     1249.518      64.8508      130.421         5     1.154     0.575  15.13   0
        36    180.7291    964.0566 307.8252712  +6.2263384     725.5524      1506.94     1187.894     92.37086     183.9386     367.8773      2.038     5.17     1253.052      64.8508     128.6794         6     1.084     0.697 -20.22   0
        37    817.8710    962.9942 307.5600373  +6.2479222     854.2683     1470.946     2056.229     91.63949     183.5725     367.8041      1.777     2.54     1248.579      64.8508     154.0925         6     0.771     0.632  82.20   0
        38    275.0715    958.6535 307.7861749  +6.2317127     1525.419     3233.169     3701.342     92.07901     183.9386     367.8407      2.290     7.20     1253.666      64.8508     178.4276        26     1.625     1.350 -24.28   0
        39    640.0168    956.2646 307.6343124  +6.2448170     710.7667     1300.251     1048.465     91.63949     183.9386     367.7675      1.770     4.74     1250.597      64.8508     128.5325         5     1.095     0.582 -89.70   0
        40    592.7564    952.6930 307.6541086  +6.2447279      1420.32     2915.634     2924.316     92.22505     184.0118     368.0602      2.111     6.26     1251.165      64.8508     187.5231        22     1.534     1.211 -21.80   0
        41    149.0721    949.9453 307.8389234  +6.2311216     10929.71     24046.73     26515.74     92.07901     183.8655     367.8773      2.267     4.96     1252.245      64.8508     1154.719        62     1.878     1.584 -47.83   0
        42    463.3718    948.4387 307.7081198  +6.2421951     2377.275     5178.484     5342.947     91.78623      183.719     367.7675      2.134     5.98     1252.584      64.8508     239.0211        33     1.591     1.446 -15.69   0
        43    892.4628    950.4192 307.5293982  +6.2555909     788.4343     1225.268     1063.411     91.78623     184.0118     367.7675      1.711     2.76     1246.331      64.8508     189.2374         5     0.792     0.411 -65.38   0
        44    822.5516    947.6320 307.5585997  +6.2544319     2374.964     4177.305     4404.252     91.93274     184.0118     367.8407      1.934     4.75     1247.868      64.8508     290.5135        25     1.567     1.070 -45.81   0
        45    805.4330    945.5198 307.5657976  +6.2547394     810.9452     1585.094     1268.285     92.07901     184.0118     367.9139      2.005     5.01     1248.273      64.8508     105.3947         8     1.435     0.495 -89.18   0
        46    743.2390    946.2777 307.5916678  +6.2523674     1204.756     2191.003     2375.082     92.07901     184.0849     367.9139      1.901     7.03     1249.019      64.8508     143.8541        16     1.404     0.988 -31.72   0
        47    566.6518    943.2979 307.6652907  +6.2477487     2117.805     4616.794     4279.045     92.07901     184.0118     368.1698      2.208     6.08     1251.108      64.8508     249.0779        31     1.697     1.264 -38.55   0
        48    271.2813    933.1605 307.7886060  +6.2421319     934.6223     1707.377     2227.321     92.22505     184.0849     367.8407      2.321     4.77       1252.7      64.8508     130.4941         8     1.021     0.633 -53.35   2
        49    695.4387    931.0692 307.6120767  +6.2570758     3202.236     6718.102     7186.208     92.07901     184.0118     368.0236      2.180     4.95     1249.118      64.8508     406.1469        37     1.725     1.326 -34.69   0
        50    605.2015    929.4223 307.6497031  +6.2547668     1274.558     2611.335     2292.696     91.78623     183.6458     367.5845      2.155     6.20     1250.562      64.8508       160.41        17     1.380     1.171 -36.40   0
        51    225.4292    927.6890 307.8078791  +6.2428698     786.8264     1501.975     1591.315     92.37086      183.719     367.8041      2.081     5.23     1252.532      64.8508      114.545         8     1.294     0.597 -11.29   0
        52     61.4210    921.0446 307.8763835  +6.2401562     4825.521     10697.09     11400.94     91.63949     183.8655     367.6943      2.244     5.23      1250.44      64.8508     474.3392        44     1.711     1.510 -59.69   0
        53    790.5237    920.1234 307.5728507  +6.2647518     10428.13     20187.79     21988.53     92.51644     184.3041     368.0236      2.066     4.55     1247.137      64.8508     1227.825        53     1.809     1.393 -44.46   0
        54    208.1004    914.3543 307.8155402  +6.2478090      2133.75     5083.197     5860.264     92.22505     183.9386     368.1698      2.371     6.73     1251.916      64.8508     268.9647        36     1.817     1.393 -46.29   0
        55    574.1257    911.0102 307.6632561  +6.2613529     98403.48     221655.5     255923.3     91.78623     183.5725     367.7675      2.346     5.04     1249.954      64.8508     10899.57       120     2.114     1.711 -45.29   3
        56    575.8708    903.8633 307.6627680  +6.2643672     46066.26     103401.4     117257.1     92.22505     184.0118      367.987      2.295     5.40     1249.626      64.8508     4832.531        80     1.944     1.580 -28.54   3
        57    391.3321    913.6273 307.7392766  +6.2542028     578.0877     926.1666     787.9836     91.78623     183.8655     367.8041      1.486     4.03     1251.441      64.8508     112.8241         5     0.975     0.477  -5.33   0
        58    784.8784    907.9785 307.5756056  +6.2695890     4944.515     9705.757     10753.53     91.78623      183.719     367.9139      2.083     4.40     1246.236      64.8508     669.4448        44     1.693     1.394 -39.47   0
        59    883.0479    904.2000 307.5348554  +6.2743993     973.2538     1766.363     1145.965      91.3453     183.5725     367.3648      1.882     7.43     1243.951      64.8508      135.239        12     1.511     1.023 -23.83   0
        60    205.5394    904.0906 307.8169502  +6.2519694     1191.847      2554.03     2712.928     92.07901     184.0849      367.987      2.432     7.18     1251.592      64.8508     152.9556        15     1.432     1.010  69.78   2
        61    207.3710    901.6861 307.8162682  +6.2530250     903.3115     1038.033     1505.358     92.37086     183.6458     367.7309      1.287     4.64     1251.561      64.8508     132.7104         8     0.867     0.704  50.73   3
        62    708.7642    900.3731 307.6075512  +6.2702152     4948.858     10270.64     12035.85     91.63949     183.6458     367.6211      2.250     4.75     1247.176      64.8508     661.3503        45     1.774     1.401 -39.69   0
        63    423.6984    900.3310 307.7262451  +6.2607781     2361.337     5993.115     7215.053     92.22505      184.158     367.9505      2.503     7.35     1250.382      64.8508     266.0015        40     1.840     1.617 -81.18   0
        64    564.9092    899.3768 307.6674817  +6.2658596     2600.401      5513.02     6900.037     92.22505     183.7923     367.7309      2.298     5.60     1249.543      64.8508     288.3878        34     1.745     1.276 -45.35   0
        65    741.2417    895.9896 307.5941743  +6.2731040     973.6324     2016.077     2516.824     91.49252     183.7923     367.6211      2.334     6.83     1246.226      64.8508     124.8647        14     1.378     1.043 -22.85   0
        66    948.1845    889.6788 307.5082161  +6.2825593     5811.387     10135.38     10759.34     91.78623      183.719     367.7309      1.849     4.12     1242.381      64.8508      725.321        35     1.599     1.172 -45.39   0
        67    707.9385    888.1493 307.6083023  +6.2752445     1746.178     4182.874     5591.308     92.22505     183.9386     367.9139      2.600     7.85     1246.472      64.8508     203.4651        33     1.921     1.334 -41.21   0
        68    232.6061    889.5956 307.8061664  +6.2588661     774.0242     1440.742     1342.629     91.49252     183.6458     367.7309      1.695     3.43     1251.781      64.8508     112.9017         5     1.142     0.299 -69.47   0
        69    353.5252    885.5489 307.7559565  +6.2645614     994.8537     2524.238     3305.551     92.22505     184.0849     367.9139      2.729     7.56     1251.607      64.8508     130.0952        13     1.500     1.065 -23.35   2
        70    741.5061    875.0066 307.5947631  +6.2817929       5350.8     10985.08     11152.91     91.78623     183.6458     367.6943      2.122     4.88     1244.673      64.8508     636.5107        45     1.793     1.399 -48.87   0
        71    537.2830    875.7709 307.6797723  +6.2747081       2391.1     6112.396     6605.598     92.07901      183.719     367.8407      2.437     6.48     1248.992      64.8508     253.0344        40     1.747     1.572 -67.62   3
        72    534.3378    868.0155 307.6812575  +6.2778186     4652.793     11311.02     12995.26     91.63949     183.9386     367.6943      2.429     6.07     1248.688      64.8508      522.389        48     1.858     1.545 -40.56   2
        73    287.3541    874.6451 307.7838723  +6.2668718     8746.661      20979.8     24283.51     92.22505     184.0118     367.8773      2.428     5.56     1251.485      64.8508      846.098        66     1.993     1.680 -39.21   0
        74    507.8118    877.1996 307.6919957  +6.2731392     587.5827     1179.204     1294.433     91.78623     183.6458     367.6943      2.046     5.30     1249.228      64.8508     72.29675         5     1.213     0.653 -20.52   0
        75    411.6590    875.2932 307.7320945  +6.2707354      675.027     1299.147     1623.607     92.07901     183.9386     368.0602      1.297     3.43     1249.368      64.8508     131.1725         5     1.158     0.293  53.92   0
        76    803.3629    873.7307 307.5690491  +6.2843681     865.4856     1584.279       1699.6     92.07901     184.0118     368.0236      1.916     7.59     1242.933      64.8508     122.4628        11     1.747     0.923 -53.76   0
        77    902.8240    868.2773 307.5278155  +6.2899135     6802.286     12824.42      13796.2     91.78623     183.8655     367.8773      2.043     4.33     1241.703      64.8508     855.8925        48     1.785     1.314 -44.26   0
