#   1 NUMBER                 Running object number                                     
#   2 X_IMAGE                Object position along x                                    [pixel]
#   3 Y_IMAGE                Object position along y                                    [pixel]
#   4 ALPHA_J2000            Right ascension of barycenter (J2000)                      [deg]
#   5 DELTA_J2000            Declination of barycenter (J2000)                          [deg]
#   6 FLUX_APER              Flux vector within fixed circular aperture(s)              [count]
#   9 FLUXERR_APER           RMS error vector for aperture flux(es)                     [count]
#  12 FLUX_RADIUS            Fraction-of-light radii                                    [pixel]
#  13 FWHM_IMAGE             FWHM assuming a gaussian core                              [pixel]
#  14 BACKGROUND             Background at centroid position                            [count]
#  15 THRESHOLD              Detection threshold above background                       [count]
#  16 FLUX_MAX               Peak flux above background                                 [count]
#  17 ISOAREA_IMAGE          Isophotal area above Analysis threshold                    [pixel**2]
#  18 A_IMAGE                Profile RMS along major axis                               [pixel]
#  19 B_IMAGE                Profile RMS along minor axis                               [pixel]
#  20 THETA_IMAGE            Position angle (CCW/x)                                     [deg]
#  21 FLAGS                  Extraction flags                                          
         1     10.5802     54.1244 307.9360501  +6.6319003     754136.9      2027509      2350692     85.86106     171.8592     344.0951      2.557     7.11     1054.432     60.66442     62545.96       454     2.526     1.892  42.58  28
         2    101.5498     15.1571 307.8995607  +6.6510562     5929.325     13201.76     14559.21     86.40795     172.1331     344.1636      2.286     5.81     1051.026     60.66442     602.8715        51     2.025     1.366  38.59   0
         3    430.6631     14.8751 307.7628242  +6.6622618     1614.912     3694.636     3966.904     86.54414     172.1331     344.1293      2.314     7.09     1040.549     60.66442     206.6191        29     1.833     1.190  28.44   0
         4    269.8968      8.7009 307.8298298  +6.6593981     774.6628     2020.071     3292.826     86.27155     172.6796     343.9924      3.816     7.56     1048.882     60.66442      131.568        10     1.528     1.046  84.56  18
         5    644.0599      7.0041 307.6744167  +6.6726810     12522.49     25902.12     28840.24      85.5863     171.9962     335.7807      2.175     5.57     1033.285     60.66442     1293.889        62     2.071     1.322  35.96  16
         6    544.0328      3.2723 307.7161047  +6.6708624     3495.725     7187.244     7797.395     86.13494     163.5736     291.2297      2.119     5.60      1033.35     60.66442     399.0912        37     1.771     1.260  30.85  24
         7    262.4122      3.5641 307.8331115  +6.6612662     1374.103     3031.791     4181.176     85.72379     166.1452     295.3654      2.771     7.24     1048.918     60.66442     145.4951        23     1.616     1.211  50.24  24
         8     12.0103      2.0641 307.9372020  +6.6534370     900.8086      1530.41     1283.279     83.21426     148.1604     271.5599      1.795     6.64     1051.206     60.66442     125.7078        13     1.472     0.840  18.92  24
         9    270.8197      1.3691 307.8296916  +6.6624555     2304.244      3164.69     4293.532     74.87081     137.0103     259.4963      1.329     4.62     1048.984     60.66442     434.3894        12     1.319     0.528   2.05  24
        10    450.4392      1.2147 307.7550632  +6.6685656     3877.915     4763.222     4523.745     73.28102     134.6696      256.713      1.145     3.52     1039.579     60.66442     981.0276        13     1.396     0.411   0.41  24
        11     78.5035   1007.9005 307.8758883  +6.2405019     6177.485     11655.19     12623.66     86.27155     172.6796     343.9924      2.022     5.92      1074.07     60.66442     856.7009        40     1.867     1.109  36.36   0
        12    807.8049   1007.3685 307.5731147  +6.2652284     11868.85     21226.34     22887.49      85.5863     171.9962      343.924      1.908     5.98     1068.848     60.66442     1804.524        45     1.897     1.004  35.30   0
        13    591.1782    998.2957 307.6633590  +6.2617123     125349.1     233463.1     251838.6     86.13494     171.9277     343.9582      1.983     6.32     1072.835     60.66442     18406.25       100     2.057     1.183  35.06   3
        14    592.9998    991.1744 307.6628398  +6.2647129     58368.67     110026.4     121664.5     85.86106     171.7907     343.9582      2.033     5.81     1072.603     60.66442     7682.672        92     2.089     1.238  36.62   3
        15    225.2692   1001.2767 307.8151781  +6.2481817     3032.821     5397.691     5898.207     86.40795     172.2699     344.1636      1.975     5.44     1075.174     60.66442      409.963        29     1.739     0.991  34.21   0
        16    409.2286   1001.7929 307.7387855  +6.2541579     656.1084     998.3273     1219.565     85.72379     171.9277     343.9582      2.019     3.46     1075.377     60.66442     112.7136         5     0.998     0.346  41.50   0
        17    973.7493    998.1241 307.5045206  +6.2745965     618.7051     1042.881     954.8296     86.27155     172.2015     344.1636      1.750     4.15     1065.073     60.66442      105.927         6     1.190     0.413  28.20   0
        18    802.1559    995.2180 307.5758638  +6.2700549     5446.898     9896.626     10805.49     85.72379     171.9962     343.8897      1.925     6.40     1068.401     60.66442     859.7104        35     1.964     0.897  35.67   0
        19    900.2799    992.1024 307.5352256  +6.2746253      1335.54     2359.626      2204.84     86.13494     172.4748      344.232      1.804     5.71     1066.964     60.66442     216.7272        18     1.750     0.703  34.02   0
        20    222.9476    990.8366 307.8164909  +6.2524130     1831.487     3521.684     4067.748     86.13494     172.1331     344.1978      2.010     6.27     1074.986     60.66442     281.2396        20     1.677     0.881  41.83   0
        21    725.9383    987.6896 307.6077598  +6.2706093     6174.545      11227.3     12741.33     86.27155     172.2699      344.232      1.987     5.65     1069.843     60.66442     797.7775        37     1.928     0.994  36.37   2
        22    718.3751    987.1685 307.6109174  +6.2705710     1088.697     2057.826     2449.897     85.72379     171.9962     343.9582      2.016     6.16     1070.101     60.66442      157.168        12     1.376     0.775  27.79   3
        23    758.5808    989.0891 307.5941600  +6.2711254     669.0985     1296.425     2167.835     85.99811     171.8592     344.0609      1.896     4.63     1069.029     60.66442     127.7012         7     1.558     0.390  25.92   0
        24    582.1887    986.8163 307.6674736  +6.2661492     3406.722     6551.802     7954.966     85.99811     171.7907     344.0609      2.128     5.23     1072.578     60.66442     427.7593        32     1.879     0.997  31.10   1
        25    440.6331    987.6725 307.7262178  +6.2610421     3064.152     6086.623     7019.901     86.13494     172.1331     344.0951      2.094     6.22     1074.231     60.66442     364.1787        34     2.044     0.994  38.28   0
        26    758.9002    983.3261 307.5942190  +6.2735150      1174.09     1978.256     2715.563     85.72379     172.2699     344.0951      2.020     5.33     1068.843     60.66442      204.896        12     1.333     0.684  28.62   0
        27    965.4713    977.0331 307.5086573  +6.2830261     5842.071     10460.18     11235.47     86.13494     172.1331     344.1978      1.903     6.41     1064.689     60.66442     982.4082        35     1.889     0.950  39.38   0
        28    720.2124    978.2311 307.6104518  +6.2743219     721.2401     1566.358     3177.637     85.72379     171.9277     344.0951      3.269     6.50     1069.745     60.66442     103.3285        12     1.777     0.668  20.68   0
        29    250.0914    977.5908 307.8056640  +6.2587946     977.6002      1668.29     1786.291     85.86106     171.7907     343.8897      1.777     6.50     1074.907     60.66442     126.7483        13     1.410     0.841   7.82   0
        30    725.4984    975.3372 307.6083532  +6.2756936     2407.515     4393.586     5852.515     85.99812     172.2699     344.1978      2.039     6.01     1069.483     60.66442      387.416        25     1.843     0.867  35.00   0
        31    448.5957    976.0488 307.7232994  +6.2661077      684.053     1363.695      1401.55      85.5863     171.9277      343.787      2.497     5.15     1073.806     60.66442     103.6912         8     1.369     0.548  18.90   0
        32    741.0371    974.6717 307.6019235  +6.2764890     815.3884     1448.463     1680.693     86.13494     172.1331      344.232      1.870     6.26     1068.994     60.66442     137.5436        11     1.699     0.648  22.33   0
        33    372.0384    972.8406 307.7551923  +6.2648586      1248.63     2512.281     2576.708     85.99811     172.2015     344.0267      2.017     7.34     1074.749     60.66442     189.0028        19     1.735     0.869  32.08   0
        34    982.2982    970.7447 307.5018790  +6.2861845     641.3984     1007.588     1043.319     86.13494     172.1331      344.403      1.500     3.43     1064.137     60.66442     109.0289         5     1.179     0.289  55.07   0
        35    711.0886    969.7780 307.6145211  +6.2775055     509.7624     635.7886     775.0135     86.27155     171.9277     344.0609      1.317     3.43     1069.783     60.66442      106.771         5     1.044     0.327  43.84   0
        36    554.2191    963.0325 307.6798787  +6.2750281     3273.942     6459.667     7328.875     85.72379     171.9277     343.9924      2.014     5.85     1072.576     60.66442     421.8159        31     1.811     1.064  34.70   0
        37    524.8133    963.9928 307.6920560  +6.2736445     843.8355      1533.68     1623.516     85.86106     171.9277     343.9924      1.746     5.67     1072.839     60.66442     120.2848        12     1.816     0.498  32.32   0
        38    304.5633    961.5691 307.7835833  +6.2672415     11649.88     22150.29     25940.63     85.86106     171.8592     343.9582      2.104     5.29     1074.771     60.66442     1430.006        67     2.139     1.469  18.75   0
        39    758.8271    962.3309 307.5949472  +6.2821792     6638.525     12075.62     12641.45     85.86106     171.9962     344.0609      1.927     5.84     1068.195     60.66442      1001.94        37     1.812     1.010  36.14   0
        40    821.5483    962.5090 307.5688985  +6.2842064     751.6684     989.8829     277.8657     86.13494     171.9277     344.3346      1.045     2.63     1067.117     60.66442     147.5006         5     0.721     0.449 -66.17   2
        41    818.5078    961.0390 307.5702099  +6.2847114     727.3862     1088.986     376.6299     86.40795     172.0647      344.232      1.614     3.49     1067.055     60.66442     115.3723         5     0.988     0.356  43.35   3
        42    429.3693    962.3024 307.7317405  +6.2711359     709.5749     1281.271     893.2643     86.40795     171.8592      344.232      1.994     5.08      1074.01     60.66442     120.4203         7     1.501     0.486  33.14   0
        43    276.0558    959.2549 307.7954965  +6.2672373     772.4017     1372.767     1427.241     86.54414     172.1331     344.1636      2.126     5.67     1074.683     60.66442     118.3167         9     1.466     0.618  44.59   0
        44    920.0884    955.6634 307.5282102  +6.2903298     7557.673     13512.35     14449.75     86.13494     172.3382     344.1978      1.915     6.53      1065.14     60.66442      1042.15        36     1.830     0.967  35.68   0
        45    551.4607    955.0766 307.6812890  +6.2782196     6801.267     12519.87     14317.37     86.54414     172.2015     344.1293      2.007     5.80     1072.569     60.66442     887.9635        40     1.889     1.045  36.14   0
        46    893.7924    951.8747 307.5392546  +6.2910141      10540.9     19196.04     21079.16     85.86106     171.6535     344.0267      1.971     5.87     1065.666     60.66442     1773.503        51     2.013     1.097  30.02   0
        47   1015.4601    951.2769 307.4887551  +6.2953291     4327.131     7423.461     7553.411     86.40795     172.2015     344.1293      1.851     6.16     1062.843     60.66442     661.2349        29     1.834     0.875  34.80  16
        48    606.7545    952.3412 307.6584217  +6.2812045      1149.03     2161.939     1689.509     86.13494     172.1331     344.2662      1.847     6.31     1070.956     60.66442     155.3615        14     1.619     0.690  31.30   0
        49    537.8870    950.9539 307.6870622  +6.2794657     3379.038     6472.634     7482.237     86.27155     171.9962     344.1636      2.101     5.62     1072.732     60.66442      466.879        32     1.875     1.007  34.72   0
        50    647.3009    950.5626 307.6416456  +6.2832988     1187.177     2039.061     1912.528     86.27155     171.9962      344.403      1.872     6.29     1070.477     60.66442     137.2451        15     1.500     0.742  28.60   0
        51     72.9590    949.6556 307.8801394  +6.2643569     662.5645     1210.418     1502.635     86.13494     172.1331     344.1978      1.669     5.10     1073.399     60.66442     153.7483        10     1.614     0.514  31.13   0
        52    490.8157    947.3312 307.7067271  +6.2793804     1743.877       3258.3      3344.41     85.72379     172.0647     344.0609      1.982     5.88     1072.917     60.66442     232.8246        22     1.626     0.931  36.86   0
        53    925.4396    939.3848 307.5265285  +6.2972286     37252.36     66617.77     71045.48     85.72379     171.9277      343.924      1.909     6.19     1064.507     60.66442     5871.696        73     1.999     1.103  36.81   0
        54    331.0133    941.3914 307.7732752  +6.2764604     525.2749     808.8458      1167.22     85.86106     171.8592     344.0609      1.158     3.39     1074.352     60.66442     93.64368         5     1.434     0.232 -17.66   0
        55    233.1333    938.0345 307.8140264  +6.2745516     1403.838         2798     2806.636     86.13494     172.2015      344.232      2.033     7.13     1074.088     60.66442     179.8818        19     1.613     0.883  44.14   0
        56    631.5662    935.7174 307.6486730  +6.2888990     742.9935     1324.807     938.5164     86.27155     172.1331     344.0951      1.769     4.52      1070.01     60.66442     111.5493         7     1.423     0.408  40.92   0
        57    823.2682    933.3075 307.5691545  +6.2963182     2017.521     3934.873     4532.906     86.13494     172.2699     344.1978      1.974     6.23     1065.921     60.66442     315.6372        24     1.785     0.889  34.83   0
        58    771.4062    930.9191 307.5907682  +6.2955673     5349.104     10115.95     11590.25     85.86106     171.6535      343.924      2.043     7.27     1066.899     60.66442     818.5344        40     2.084     1.005  36.83   0
        59    241.3411    930.1487 307.8108821  +6.2780831     986.4533     1958.411     2277.711     86.27155     172.1331     344.1636      2.075     6.61     1073.976     60.66442     163.4242        14     1.633     0.751  31.45   0
        60    558.7031    930.7091 307.6790935  +6.2885214     587.6214     937.4708     607.4349     86.27155     172.6796     344.1636      1.342     4.44     1072.026     60.66442     97.53003         7     1.478     0.379  10.06   0
        61     66.1404    928.3655 307.8836830  +6.2729149     2052.988     3969.546     4042.006     86.13494     172.1331     344.1293      2.018     6.14     1073.224     60.66442     252.1785        26     1.840     0.930  36.76   0
        62    959.7880    926.1714 307.5127044  +6.3038317     5993.378     10921.63     11591.81     85.72379     171.9277     344.0609      1.897     6.02     1063.298     60.66442     960.7496        34     1.816     0.953  35.54   0
        63    641.7625    920.0273 307.6449615  +6.2957178     634.6453     1280.534     1181.534     85.86106     171.9277     343.9924      2.079     5.80     1069.386     60.66442     123.3656         8     1.674     0.566  34.48   0
        64    933.7674    918.0252 307.5237793  +6.3063243     1753.725     3107.256     2984.396     85.72379     171.9277     343.9924      1.937     6.12     1063.681     60.66442     297.8578        18     1.751     0.697  34.51   0
        65    654.2635    913.8497 307.6399764  +6.2986871     3813.689     7108.605     8065.253     86.13494     172.0647      344.232      2.008     5.46     1069.073     60.66442     444.9948        32     1.839     1.023  34.88   0
        66    266.6748    914.1489 307.8008982  +6.2855404     3331.811     6427.479     7265.585     86.27155     172.2015     344.1636      2.120     6.62     1073.957     60.66442     376.9375        31     1.945     0.978  36.99   0
        67    793.2495    914.3225 307.5822499  +6.3031499     1124.307     1873.104     2163.444     86.27155     172.2015     344.1293      1.888     6.46     1065.776     60.66442     153.0702        14     1.559     0.751  43.22   0
        68   1004.7799    914.1586 307.4944206  +6.3102946     731.9303     977.7094     764.2289     85.86106     171.9277     343.9582      1.496     3.11     1061.172     60.66442     157.9939         5     0.772     0.509  39.25   0
        69     35.3178    911.5364 307.8970434  +6.2788217     1777.523     3075.799      2616.66     86.40795     172.2015     344.1636      1.922     6.45     1073.224     60.66442     210.8666        24     1.803     0.972  40.43   0
        70    886.6872    910.3920 307.5435821  +6.3079004     770.0269     1405.805     1467.317     85.86106     171.7907      343.924      1.910     5.60     1064.206     60.66442     148.5184         9     1.671     0.529  23.50   0
        71    957.1499    907.1544 307.5144308  +6.3115937      628.395     1021.054     1246.524     86.27155     171.9962     344.1978      1.921     5.70     1062.441     60.66442     106.6417        10     1.809     0.507  39.59   0
        72    302.8567    907.6239 307.7860933  +6.2894517     805.7126     1031.118     1949.675     85.86106     172.1331     343.9582      1.512     4.47     1073.974     60.66442     113.1639         7     0.888     0.639  71.46   0
        73   1010.4902    906.8396 307.4922922  +6.3135068     621.4308     1053.109     1233.181     86.27155     172.0647     344.1978      1.748     5.32     1060.376     60.66442     121.6448         8     1.475     0.542  34.22   0
        74    578.8116    906.1906 307.6715608  +6.2993174     1202.859     2417.349     2105.949     85.99811     171.9277     344.1293      2.024     8.18     1070.503     60.66442     145.6345        21     1.890     0.990  31.89   0
        75     68.7343    903.9919 307.8834219  +6.2830632     593.8118     829.5565     1084.734     85.72379     171.8592     343.9924      1.723     4.54     1072.999     60.66442     108.3917         5     1.064     0.550  12.25   0
        76    618.7202    902.7897 307.6551030  +6.3020604      972.997     1758.791     1918.653     85.86106     171.8592     343.9924      1.905     4.85     1069.296     60.66442     164.5732        10     1.158     0.762  49.28   0
        77    298.6569    900.9648 307.7880595  +6.2920591     1061.971     2109.804     2062.176     86.13494     172.1331     344.1978      2.054     6.13     1073.935     60.66442     161.3563        13     1.532     0.690  31.11   0
