#   1 NUMBER                 Running object number                                     
#   2 X_IMAGE                Object position along x                                    [pixel]
#   3 Y_IMAGE                Object position along y                                    [pixel]
#   4 ALPHA_J2000            Right ascension of barycenter (J2000)                      [deg]
#   5 DELTA_J2000            Declination of barycenter (J2000)                          [deg]
#   6 FLUX_APER              Flux vector within fixed circular aperture(s)              [count]
#   9 FLUXERR_APER           RMS error vector for aperture flux(es)                     [count]
#  12 FLUX_RADIUS            Fraction-of-light radii                                    [pixel]
#  13 FWHM_IMAGE             FWHM assuming a gaussian core                              [pixel]
#  14 BACKGROUND             Background at centroid position                            [count]
#  15 THRESHOLD              Detection threshold above background                       [count]
#  16 FLUX_MAX               Peak flux above background                                 [count]
#  17 ISOAREA_IMAGE          Isophotal area above Analysis threshold                    [pixel**2]
#  18 A_IMAGE                Profile RMS along major axis                               [pixel]
#  19 B_IMAGE                Profile RMS along minor axis                               [pixel]
#  20 THETA_IMAGE            Position angle (CCW/x)                                     [deg]
#  21 FLAGS                  Extraction flags                                          
         1     15.0612     61.0595 307.9360544  +6.6317628     755398.8      2033546      2424603     86.24673     172.0836     344.0988      2.594    10.24     1050.516     60.64697     61963.64       443     2.589     1.855  31.82  20
         2    105.8557     21.9294 307.8996418  +6.6509735      5923.72      13276.7     15274.89     86.24673     172.0152     344.0303      2.349     5.91         1044     60.64697     619.5293        55     2.177     1.362  29.25   0
         3    648.5296     13.7618 307.6743460  +6.6725877     11919.71     25084.35     29015.01     86.11016     172.0836      344.133      2.240     6.01     1024.567     60.64697     1189.456        61     2.203     1.290  28.72  16
         4    267.1899     10.3508 307.8329741  +6.6611862     1184.016     2832.987      4835.32     85.69913     171.8783     343.7223      4.895    12.31     1043.927     60.64697     145.5167        34     3.599     1.171  38.71  19
         5    548.2497      9.8445 307.7161625  +6.6708409     3352.413     7000.327     8294.723     86.24673     171.9467     344.0645      2.287     5.92     1026.133     60.64697     384.6589        37     1.958     1.158  30.42  16
         6    453.8904      5.4525 307.7555338  +6.6694853     14138.44     30959.54     35892.57     86.24673     171.8783     320.5834      2.337     6.09     1031.031     60.64697     1348.626        77     2.280     1.457  27.55  24
         7    274.4664      5.9299 307.8300989  +6.6632556     5651.848     12654.31     15128.66     86.24673      172.152     325.6827      2.384     5.95     1044.015     60.64697     623.0682        61     2.250     1.445  29.13  25
         8     15.1124      7.8512 307.9378355  +6.6537228     638.8243     1301.084     494.4117     86.24673     171.9467     341.7994      1.990     6.25     1049.994     60.64697     85.55737         8     1.393     0.789  55.29  16
         9    634.8797      4.0644 307.6803465  +6.6761322     2163.261     5002.543     6080.654     86.51924     170.3651      302.759      2.556     6.94     1024.999     60.64697     228.2804        38     2.025     1.349  52.88  24
        10     39.9677      5.6449 307.9275792  +6.6554719      1467.14      2904.93     2483.245     85.97337      172.152     322.4503      2.032     6.02     1048.135     60.64697     227.3125        24     1.722     1.086  20.60  16
        11    931.4865      5.4812 307.5570010  +6.6854770     1520.941     2755.425     3467.386     85.97337     172.3569     320.8769      2.037     6.77     1016.737     60.64697     194.0914        18     1.682     0.764  27.45  16
        12    333.7222      5.8372 307.8054714  +6.6652874     686.3637     1306.761     1179.183     86.11016      172.152     324.8505      1.916     5.01     1040.946     60.64697     85.18738         8     1.042     0.681 -30.08  16
        13    262.6270      2.7747 307.8351267  +6.6641593     1899.447     3945.761     4398.218     85.69913     157.5141     283.2779      2.127     7.64     1044.049     60.64697     199.7109        28     1.714     1.147  20.04  25
        14    730.4413    994.5372 307.6073304  +6.2705502      5780.11     11107.43     12210.67     86.24673     172.0152      344.133      2.045     6.73     1064.322     60.64697     714.4922        38     1.977     0.997  27.05   0
        15    716.0936   1023.7675 307.6123081  +6.2580061     1517.755     1993.063     1874.576     73.74033     134.9801     257.3719      1.166     3.81     1066.045     60.64697     388.5112         9     1.268     0.422   0.46  24
        16    625.8671   1023.0910 307.6498065  +6.2552636     1311.623     1768.862     1585.344     82.33706     146.1982     269.0867      1.391     4.92     1068.876     60.64697     211.4124        14     1.431     0.735  21.50  24
        17    246.9476   1022.6618 307.8072003  +6.2427216     1140.238     1822.492      1806.54     85.56168      152.039     276.2095      1.785     6.20      1067.73     60.64697     152.4207        13     1.554     0.696  29.76  24
        18     17.2173   1023.2922 307.9025900  +6.2347275     7092.015     9936.655     9879.326     79.57475      142.612     265.4758      1.422     4.18     1064.989     60.64697     1168.797        24     1.545     0.800  10.51  24
        19    723.0364    994.0284 307.6104232  +6.2705124     815.5258     1813.211     2003.804     85.83636     171.8098     343.8593      2.378     6.49     1064.418     60.64697     139.3809        12     1.966     0.602  32.61   0
        20    586.4050    993.5525 307.6671904  +6.2661321     3345.669     6085.937     7436.397     85.56168     171.8783     343.7223      1.960     5.62     1067.602     60.64697      432.799        27     1.816     0.885  31.44   1
        21    763.5485    991.0000 307.5936977  +6.2731181     767.2524     1274.249     1917.151     85.42401     171.5355     343.5511      1.578     3.71     1063.115     60.64697     123.2471         5     1.076     0.367   3.52   3
        22    761.6600    988.7097 307.5945590  +6.2740001      829.114     1020.595     1784.498     86.11016     172.0836     344.0988      1.440     5.65     1063.086     60.64697     136.4581         9     1.610     0.559  24.79   2
        23    969.9532    984.0409 307.5081965  +6.2828898     5528.165     10524.83     10834.93     86.11016     172.0836     343.8593      1.968     7.72     1057.315     60.64697     766.6217        35     1.941     0.913  29.50   0
        24    723.2571    984.4593 307.6106530  +6.2744691     853.8026      1400.38     2047.861     86.38309     172.0836     344.0988      2.164     5.61     1063.921     60.64697     121.3298         9     1.146     0.774  72.33   2
        25    254.3046    984.1367 307.8054447  +6.2588685     1246.823     2405.151     2671.609     86.11016     172.2203     344.0988      2.005     6.50     1067.628     60.64697     164.7777        17     1.768     0.672  36.51   0
        26    452.3897    982.6984 307.7232195  +6.2661168     847.1365     1171.447     1020.576     85.97337     171.6727     343.8593      1.600     6.12     1067.398     60.64697     121.5408        11     1.705     0.617  28.89   0
        27    729.7676    982.0189 307.6080307  +6.2756942     2105.009     4248.165     5198.221     85.69913     171.8783     343.8935      2.107     7.57      1063.67     60.64697      301.964        25     1.809     0.969  27.52   0
        28    745.2043    981.4347 307.6016384  +6.2764520     763.7802     1482.716     1567.233     85.42401     171.9467      343.825      2.001     5.03     1063.227     60.64697     121.6104         8     1.112     0.643  39.42   0
        29    376.4943    979.7427 307.7548422  +6.2647884     1390.309     2789.744     3093.847     86.11016     172.0836     344.2356      2.003     7.30     1067.742     60.64697     165.6495        21     1.819     0.838  28.67   0
        30    558.6700    969.8779 307.6795067  +6.2749732     3157.539     6428.127     7596.001     86.51924     172.3569     344.0303      2.198     6.61     1066.261     60.64697     434.0328        33     1.941     1.019  27.50   2
        31    555.8842    962.0624 307.6809268  +6.2781054     6339.194      12225.3     13570.13     86.38309      172.152     344.0303      2.090     6.05     1065.842     60.64697     760.2681        39     1.969     1.029  29.20   2
        32    530.3242    971.9897 307.6912094  +6.2731511     703.6627     1024.316     1346.264     85.83636     171.6041     343.8593      1.980     4.18      1066.55     60.64697     100.6179         6     0.962     0.518  50.49   2
        33    527.3752    970.3170 307.6924906  +6.2737425     723.1219     1196.541     1324.727     86.11016     171.8098     344.0303      1.772     3.76     1066.477     60.64697      120.328         5     1.394     0.291 -34.46   2
        34    763.1893    969.1592 307.5945802  +6.2821202     6013.405     11573.37     12180.91     85.56168     171.8783     343.7565      2.011     6.90     1062.128     60.64697     791.8951        35     1.955     0.923  29.10   0
        35    308.9986    968.5414 307.7832541  +6.2671435     11022.95     22300.37     25489.52     85.56168     171.7413     343.7565      2.150     6.08     1067.734     60.64697     1399.964        63     2.100     1.368  19.86   0
        36    824.4600    968.5773 307.5691494  +6.2844100     837.3358      1599.05     1882.258     85.83636     172.0152     343.9619      1.800     6.47     1060.718     60.64697      160.697        10     1.931     0.608  29.45   0
        37      5.3766    969.4299 307.9093295  +6.2565571     527.1285     962.0182     1864.343     85.69913     171.9467     319.3695      2.244     4.86     1065.756     60.64697     79.00159         7     1.569     0.426   9.62  16
        38    281.5486    966.1619 307.7947356  +6.2672028     634.7272     1251.357     1823.584     85.97337     172.0836     344.0645      2.014     4.16     1067.661     60.64697     101.6345         5     0.908     0.544  40.90   0
        39    924.4835    962.6336 307.5278012  +6.2902063     7241.514     13648.66     14005.27     86.24673     171.9467     344.0303      1.976     7.31     1058.137     60.64697     952.6675        35     1.916     0.946  29.22   0
        40    898.1047    958.8052 307.5388868  +6.2909050     9823.186     18993.78     20211.76     85.97337     171.7413     343.7908      2.020     6.85     1058.705     60.64697      1342.25        41     2.011     0.968  25.73   0
        41   1019.9358    958.3087 307.4882967  +6.2951787     3988.251     7716.754     8164.469     86.24673     172.2887     315.8863      1.995     6.77     1055.565     60.64697     514.2468        30     1.954     0.875  28.61  24
        42    610.5258    958.9642 307.6583347  +6.2812157     1058.023     2041.969     2330.038     86.11016      172.152     344.0645      2.153     6.65     1065.139     60.64697     158.8395        15     1.469     0.844  30.95   0
        43    542.2271    957.8290 307.6867420  +6.2793946     3056.415     6230.088     6579.883     85.69913     171.8783     343.8593      2.163     6.39     1065.762     60.64697     382.9808        33     1.991     0.973  24.70   0
        44    651.8834    956.9847 307.6412226  +6.2834183     1106.001     2207.764     2279.647     85.83636     171.7413     343.9277      1.972     6.75     1064.163     60.64697     181.2861        16     1.690     0.756  31.90   0
        45    433.6256    969.1548 307.7314694  +6.2710766     738.5662     1498.051      1211.35     85.69913      172.152     343.9277      1.850     5.92      1067.23     60.64697     102.7838         8     1.561     0.632  43.97   0
        46    495.6506    954.4531 307.7062018  +6.2792256     1792.314     3408.664     3647.533     86.38309     171.9467     344.0988      1.935     6.94     1066.107     60.64697     223.2333        24     1.789     0.965  32.49   0
        47     76.5290    956.2552 307.8802232  +6.2643919     698.8415     1043.661     449.7974     86.11016     172.0152     344.0303      1.547     4.74      1066.46     60.64697     128.9581         6     0.963     0.662  14.39   0
        48    402.9286    952.7160 307.7447734  +6.2768304     526.2675     908.8225     741.4201     86.38309     172.3569     344.0988      1.546     5.45      1067.29     60.64697      95.7511         5     1.435     0.583  20.58   0
        49    929.8851    946.3497 307.5261033  +6.2971076     35031.62     66977.45     72067.64     86.24673     172.0152      344.133      2.012     6.73     1057.217     60.64697      4351.25        72     2.042     1.085  28.57   0
        50      2.9504    946.2558 307.9111211  +6.2660392     2325.607     4414.621     4555.987     86.24673     159.8873     286.0481      1.939     7.55     1066.179     60.64697     305.0007        24     1.700     0.951  32.33  24
        51    237.3163    944.4198 307.8138411  +6.2746885     1199.618     2346.595     2471.656     85.83636     171.7413     344.0303      2.296     8.20     1067.444     60.64697     143.3864        21     2.222     0.846  28.08   0
        52    827.7105    939.9451 307.5687600  +6.2963358     1779.411     3334.292     3928.195     86.24673     171.9467     344.2014      1.882     6.29     1059.422     60.64697      245.344        21     1.822     0.744  30.38   0
        53    776.0873    937.9366 307.5902709  +6.2954379     5064.913     9913.733     10638.99     86.24673     172.2887     344.0988      2.037     6.54     1060.392     60.64697      611.963        36     1.982     0.956  29.57   0
        54    563.3394    937.6379 307.6786519  +6.2884357      647.532     1243.992     1441.684     86.24673      172.152     344.0645      2.001     7.46     1064.423     60.64697     100.2811        11     2.044     0.762  23.88   0
        55    245.7112    937.1442 307.8105998  +6.2779736     1003.371     2129.534     1839.934     86.24673     171.9467     344.2356      2.096     7.36      1067.45     60.64697     145.9619        15     1.948     0.778  31.35   0
        56    210.1855    937.0131 307.8253599  +6.2768327     577.9319     1287.229     1726.413     86.11016     171.7413     343.9961      2.277     5.48     1067.229     60.64697     93.58813         8     1.696     0.500  28.59   0
        57     70.5269    935.3358 307.8834233  +6.2728231      2092.62     4109.541     4535.468     86.24673     172.0836     344.0645      2.061     6.39     1066.525     60.64697     274.0344        26     1.814     0.945  28.64   0
        58    964.1890    933.1676 307.5122956  +6.3036939     5405.482     10585.01     11136.08     85.69913     171.8098     343.8935      2.032     6.79     1056.316     60.64697      802.306        33     1.954     0.887  26.99   0
        59    646.6712    927.7124 307.6443716  +6.2953249     759.3185     958.6259     907.9747     86.38309     172.3569     344.0645      1.471     5.49     1062.666     60.64697     106.5477         9     1.110     0.767   9.12   0
        60    937.8244    924.8630 307.5235256  +6.3062408     1598.949      3304.39     3507.227     85.83636     172.0836     343.9961      2.082     7.27     1056.246     60.64697     249.1324        21     1.885     0.786  28.54   0
        61    658.7025    920.7477 307.6396081  +6.2986024     3372.687     6849.385     7321.194     86.11016     172.0836     344.3039      2.113     6.56     1062.286     60.64697     390.5446        32     1.974     0.979  31.32   0
        62    270.9669    921.0320 307.8006534  +6.2854724     3139.228     6296.868     7051.745     85.69913     171.8098     343.7908      2.144     6.21     1067.499     60.64697     373.4034        33     1.940     1.023  28.65   0
        63    797.7075    920.9683 307.5818598  +6.3031644     1074.624     2230.942     1967.232     86.38309     171.8783     344.0988      2.088     7.40      1059.22     60.64697     155.2424        18     1.662     0.922  30.84   0
        64    480.8011    919.3350 307.7135522  +6.2932211     924.1578     1543.648     1548.532     85.56168     171.7413     343.7908      1.830     6.17     1065.265     60.64697     135.6945        12     1.356     0.788  39.67   0
        65     39.8291    918.3088 307.8967492  +6.2788158     1573.766      3117.95     2713.395     86.38309     171.8098     343.9961      2.036     7.48     1066.515     60.64697     180.8942        24     1.776     0.991  25.51   0
        66    889.0026    916.8137 307.5440759  +6.3079317     481.4963     695.7233     802.1223     85.83636     171.7413     343.8935      1.442     4.72     1057.215     60.64697     77.42029         5     0.968     0.652  32.18   0
        67    962.7914    914.7718 307.5134926  +6.3112396      645.092     1045.299     1569.166     85.83636     171.8783     343.8593      2.357     6.20     1055.534     60.64697     89.81946         9     1.337     0.807  24.04   0
        68    583.2515    913.2772 307.6712004  +6.2991573     1323.029     2538.428      2618.89     86.24673      172.152     344.0645      1.993     6.57      1063.16     60.64697     182.4253        20     1.852     0.790  23.73   0
        69   1013.8198    913.4391 307.4923401  +6.3134934     807.2577     1381.396     1712.965     85.83636     171.8783     343.7908      2.008     4.67     1054.775     60.64697      145.646         8     1.045     0.594 -16.43   0
        70    622.3644    909.6285 307.6550762  +6.3019740     991.8774     1997.629     1540.195     85.83636     171.8098     343.8593      2.060     7.40     1062.467     60.64697     145.7336        18     2.091     0.732  30.83   0
        71    302.4588    907.4476 307.7880311  +6.2921375     1068.331     2273.925     2371.567     86.24673     172.0836     344.1672      1.976     7.49     1067.481     60.64697     141.5275        16     1.766     0.889  25.61   0
        72    771.2650    904.4508 307.5933983  +6.3090969     638.7667     1291.019     1893.305     86.11016     172.0152     344.0988      2.954     4.98     1059.067     60.64697     120.0513         8     1.141     0.615  14.92   2
        73    906.8945    900.0178 307.5372068  +6.3154616     5736.757     10661.89     11254.72     86.11016     171.8783     343.9277      1.951     6.29     1056.097     60.64697     770.8669        32     1.925     0.876  27.78   0
        74    144.1779    901.1805 307.8539867  +6.2893994     390.0378     833.6808     1168.036     85.97337     172.0152     343.9961      2.411     3.78     1066.443     60.64697     95.20325         5     1.321     0.311  30.37   0
        75    443.1176    897.2189 307.7299499  +6.3010839     1512.206     3067.419     3371.511     85.83636     171.7413     343.9961      2.095     7.56      1065.21     60.64697     206.0822        22     1.911     0.837  22.80   0
        76    344.5755    895.6730 307.7709341  +6.2984125     6779.624      13705.7     15583.66     85.83636     171.9467     343.9961      2.123     6.03     1067.051     60.64697     834.8168        47     2.085     1.087  31.89   0
        77    264.4820    894.5543 307.8042405  +6.2961819     5215.159     10136.54     11140.09     86.24673     172.0836     344.0645      2.082     6.10     1067.463     60.64697     608.4238        39     1.939     1.099  28.06   0
