#   1 NUMBER                 Running object number                                     
#   2 X_IMAGE                Object position along x                                    [pixel]
#   3 Y_IMAGE                Object position along y                                    [pixel]
#   4 ALPHA_J2000            Right ascension of barycenter (J2000)                      [deg]
#   5 DELTA_J2000            Declination of barycenter (J2000)                          [deg]
#   6 FLUX_APER              Flux vector within fixed circular aperture(s)              [count]
#   9 FLUXERR_APER           RMS error vector for aperture flux(es)                     [count]
#  12 FLUX_RADIUS            Fraction-of-light radii                                    [pixel]
#  13 FWHM_IMAGE             FWHM assuming a gaussian core                              [pixel]
#  14 BACKGROUND             Background at centroid position                            [count]
#  15 THRESHOLD              Detection threshold above background                       [count]
#  16 FLUX_MAX               Peak flux above background                                 [count]
#  17 ISOAREA_IMAGE          Isophotal area above Analysis threshold                    [pixel**2]
#  18 A_IMAGE                Profile RMS along major axis                               [pixel]
#  19 B_IMAGE                Profile RMS along minor axis                               [pixel]
#  20 THETA_IMAGE            Position angle (CCW/x)                                     [deg]
#  21 FLAGS                  Extraction flags                                          
         1    432.9634     25.8324 307.7559437  +6.6695932     11091.56     30080.47      34953.9     91.75789     183.6623     367.5076      2.571     6.09     1184.585     64.83078     1055.601        79     2.077     1.856 -86.11   0
         2    253.7001     26.2959 307.8304854  +6.6634098     4600.085     12343.51     14676.82     92.19658      184.539     367.6174      2.738     6.54     1205.495     64.83078     463.4069        56     1.928     1.764 -82.00   0
         3    613.8557     24.1258 307.6807644  +6.6763330     1786.669     4588.791      6566.34     92.05058     183.8087     367.7271      2.887     8.54     1176.642     64.83078     208.7633        39     2.180     1.486  79.46   0
         4    241.3626     22.7942 307.8357353  +6.6644431     1444.876     3924.156     5040.347     91.16969     183.6623     367.5076      2.811     8.17     1206.124     64.83078     202.9095        32     1.804     1.423 -76.38   0
         5    930.5605     16.2078 307.5493023  +6.6901418     705.3713     1641.917     1496.318     91.46426     183.6623      367.471      2.211     5.49     1166.262     64.83078     109.7076         7     1.206     0.704 -84.56   0
         6    682.6957     15.5506 307.6524212  +6.6821682     989.4503      2332.61     2136.117     92.05058     183.8087     367.9831      2.195     7.96     1174.932     64.83078     119.9292        14     1.463     1.211  20.72   0
         7    171.0102      8.3419 307.8654849  +6.6680566     5340.499     14135.73     16290.65     91.46426     183.8819     367.1415      2.512     6.11     1208.229     64.83078     564.8594        62     2.071     1.738  83.68  16
         8    916.4926      5.9233 307.5555000  +6.6939218     2957.003     6098.919     6072.057     91.90435     184.1742     348.0344      2.075     4.97     1165.875     64.83078     327.0349        35     1.566     1.370 -87.10  16
         9    515.1059      6.1349 307.7224448  +6.6804698      1463.69     3892.719     4398.503     92.19657     184.1012     350.4606      2.557     9.57     1178.222     64.83078     143.1635        32     1.816     1.409  47.79  16
        10    717.0327      4.4935 307.6385121  +6.6878781     1120.073     2501.167     2732.631     92.34234     183.8087     329.8607      2.273     7.22     1172.233     64.83078     134.8291        16     1.633     0.895  62.74  16
        11    453.9770      5.0905 307.7479051  +6.6788609     1041.569     2323.906     3097.601     92.19658     183.7355     337.7578      2.671     7.56     1182.124     64.83078      136.906        15     1.365     1.171  -3.95  16
        12    981.1005      2.1472 307.5287534  +6.6976272      1379.16      2126.07     2177.329     89.98177     159.8575     292.1042      1.617     5.26      1160.21     64.83078     162.6212        14     1.126     0.955 -34.14  24
        13    700.7630      1.3479 307.6453854  +6.6886355         1482     1883.272     2424.104     80.01285     146.1442     276.9299      1.245     4.68     1173.039     64.83078     304.9596        10     1.308     0.476   0.94  24
        14    432.1709   1002.9797 307.7232560  +6.2660141     607.0554     1026.911     889.8887      91.6112     183.7355      367.654      1.853     5.27      1247.04     64.83078     77.23853         6     1.149     0.683 -89.49   0
        15    785.7369   1022.0169 307.5756732  +6.2699280     6567.234     10033.88     10985.28      91.6112     171.3104     306.3088      1.634     3.47     1239.629     64.83078     805.2953        31     1.290     1.189  83.60  24
        16    574.8085   1023.7154 307.6632774  +6.2622061     58075.07     72450.97     74587.69     78.99784     145.1283     275.5179      1.188     3.05     1246.302     64.83078     13384.52        29     1.484     0.628   2.52  27
        17    576.5320   1018.2094 307.6627467  +6.2645375     62466.18       112218     121521.9      91.6112     183.7355     357.0005      1.927     4.12     1245.978     64.83078     6967.635        86     1.743     1.524 -83.31  19
        18    355.6400    999.9424 307.7551639  +6.2647141     1708.026     2965.763     3062.603     92.19657     184.0281     367.8369      1.908     4.99     1248.038     64.83078     196.7427        20     1.341     1.084 -73.46   0
        19    724.5690   1000.7278 307.6018114  +6.2766860     841.6466     1160.026     1103.422     92.05058      183.955     367.8003      1.343     4.62     1241.439     64.83078     121.5782         8     1.061     0.572 -19.52   0
        20    742.3782    989.2127 307.5947974  +6.2820342      7100.25     12001.77     12812.15     91.90435     183.7355     367.6906      1.802     3.68     1240.555     64.83078     797.5085        39     1.535     1.242  86.22   0
        21    537.8845    990.0567 307.6797579  +6.2748766     3536.171     6694.343     7323.676     92.19658      183.955       367.91      2.021     4.38     1245.933     64.83078     422.8051        34     1.587     1.243 -85.55   3
        22    535.1006    982.1014 307.6811832  +6.2780693     6683.329     12165.34     13588.38     92.19658     184.3931     367.6174      1.984     4.03     1245.623     64.83078     737.9487        41     1.526     1.372  79.70   2
        23    508.2971    991.2221 307.6920151  +6.2734089     802.3315     1366.101     553.5575     92.05058     183.7355     367.5808      1.655     4.39     1246.438     64.83078     126.7679         7     1.140     0.481  58.10   0
        24    288.1469    988.8254 307.7835889  +6.2670509     11795.03     22204.12     24094.29     91.61119     184.0281     367.6906      2.004     4.01     1250.111     64.83078     1436.783        60     1.680     1.523 -80.81   2
        25    293.5034    985.4409 307.7814773  +6.2686276     639.3273     1064.071     1607.537     92.19658     183.8087     367.9831      1.653     3.54     1249.886     64.83078       114.37         5     0.781     0.463 -72.44   3
        26    412.6132    989.2968 307.7318460  +6.2710124     908.5912     1781.251     1927.344     92.05058     183.6623     367.5076      1.896     6.91     1247.011     64.83078      125.884        12     1.579     0.848 -79.65   0
        27    803.7135    988.7261 307.5693220  +6.2842748     973.2313     1590.004      1814.67     92.34235     184.3202     367.8003      1.856     5.60     1238.059     64.83078     130.4243        11     1.252     0.707  88.13   0
        28    903.7284    982.6891 307.5279570  +6.2900914     8725.574     13589.94     13952.36     92.19658     184.2472     367.8003      1.688     3.51     1236.048     64.83078      1088.95        37     1.409     1.236 -86.10   0
        29     34.2140    981.9055 307.8893524  +6.2614136     645.3099     972.0156     1037.288     91.90435     183.6623     367.6174      1.680     4.64     1250.635     64.83078      89.8761         5     0.957     0.639 -60.24   0
        30    877.3354    978.8028 307.5390571  +6.2908198     11737.27     19392.39     20546.22     91.46426     183.7355     367.5442      1.788     3.39     1236.532     64.83078     1460.441        53     1.548     1.414 -59.54   0
        31    999.0366    978.2756 307.4884930  +6.2950779     5085.324     7705.342     7899.103     92.05058     184.0281     367.8369      1.603     3.47     1232.151     64.83078     683.2666        27     1.322     1.056  82.07   0
        32    590.2247    979.0461 307.6583763  +6.2811680       1113.5     1954.687     1727.116     91.75789      183.955      367.654      1.881     6.63     1243.917     64.83078     131.9209        14     1.204     1.025  68.33   0
        33    521.4100    978.0831 307.6870086  +6.2792725     3278.804     6204.509     7108.992     91.75789     183.6623     367.6174      2.041     4.30     1245.665     64.83078      395.261        31     1.511     1.228  69.60   0
        34    631.3022    977.1926 307.6413666  +6.2833017     1081.126     1790.133      2079.68     91.90435     183.5158     367.5442      2.022     5.61     1242.384     64.83078     151.6534        12     1.368     0.717  73.88   0
        35    474.4985    974.1440 307.7066381  +6.2793350     1682.983     3090.187      2713.39     91.90435      183.955     368.0562      1.944     5.62      1246.21     64.83078     173.6809        24     1.366     1.287 -48.34   0
        36    909.0685    966.3629 307.5262862  +6.2970115     41921.63     67030.32     70656.98     92.05058      183.955       367.91      1.731     3.46     1234.515     64.83078     5391.244        71     1.589     1.315 -86.50   0
        37    216.6577    964.8442 307.8141102  +6.2745653     1380.708     2507.272     2374.356     92.05058      183.955     367.8734      1.907     6.63     1250.071     64.83078     151.6598        17     1.300     1.110 -56.12   0
        38    615.8080    962.9891 307.6482849  +6.2886517      687.527     1084.078     887.1429     91.75789     183.7355     367.7271      1.673     3.93     1242.414     64.83078      88.6488         6     0.966     0.458  52.00   0
        39    806.9924    960.1234 307.5689214  +6.2961968     2257.724      3267.53     3735.171     91.75789     183.3691     367.5808      1.536     3.47     1237.269     64.83078     271.9031        18     1.094     1.028  89.25   0
        40    755.1516    958.0756 307.5905366  +6.2953188     5825.766     10300.56     11371.09     92.05058     184.0281     367.8369      1.934     3.98     1238.651     64.83078      639.571        37     1.524     1.286 -73.26   0
        41    224.6176    957.0969 307.8110642  +6.2780310     1123.146     2242.975     2361.809     92.05058     183.7355     367.5442      2.170     7.38     1250.018     64.83078     143.9601        16     1.426     1.068  84.02   0
        42    189.2161    959.2372 307.8257044  +6.2759633     392.9184     1009.946     1544.476     91.75789     183.7355     367.5076      3.341     5.44     1250.115     64.83078      125.501         5     1.543     0.541 -49.49   2
        43    540.8843    957.5469 307.6796076  +6.2884029     605.6249     1046.173      1367.41     92.19657     183.8819     367.9831      2.311     5.13     1244.459     64.83078     90.94958         5     1.016     0.731 -84.33   0
        44     49.8002    955.4567 307.8837716  +6.2728585     2387.706     4250.228     4460.626      91.3171     183.5158     367.4344      1.866     4.43     1250.409     64.83078     300.5593        23     1.461     1.017  77.56   0
        45    943.4256    953.0642 307.5124533  +6.3036447     6797.575     10719.18     10954.69     91.75789      183.955     367.7271      1.683     3.51     1232.361     64.83078     862.4449        32     1.378     1.132 -84.74   0
        46    917.0942    944.7749 307.5236760  +6.3061940     1973.291     3402.229     3976.232     92.34234     183.6623     367.6174      1.982     3.97     1232.616     64.83078     294.4442        21     1.354     1.018 -83.87   0
        47    637.7737    940.8951 307.6399001  +6.2985080      3649.04      6722.16     6377.581     92.34234     183.6623      367.654      1.938     4.20     1240.748     64.83078     442.5845        32     1.490     1.274 -87.90   0
        48    250.1713    941.4695 307.8009729  +6.2853392     3366.535     6451.909     6650.532     91.90435      183.955     367.7271      1.978     4.63     1249.667     64.83078     391.1727        31     1.460     1.341  71.26   0
        49    776.3371    940.8585 307.5823108  +6.3031341      1096.18     1795.153     1669.359     92.34234     183.8819     367.8369      1.813     6.38     1237.536     64.83078     140.1692        12     1.199     0.953 -64.25   0
        50     19.0285    938.8375 307.8971231  +6.2786911     1775.456     3178.277     3441.272      91.6112     183.6623     367.6174      1.878     4.70     1250.465     64.83078     231.9321        21     1.451     1.022  54.98   0
        51    987.2042    940.1526 307.4946910  +6.3104304     725.4689     991.3333      1743.49     91.46426     183.6623     367.4344      2.035     4.63     1229.429     64.83078     86.96326         7     1.030     0.590 -14.19   0
        52    460.8056    938.7646 307.7135232  +6.2934898     921.3755     1521.536     1590.769      91.3171     183.6623     367.5442      1.709     3.36      1245.34     64.83078     139.8307         7     0.979     0.593  74.24   0
        53    870.1344    937.4597 307.5434400  +6.3076555     812.2118     1408.975     1822.271     92.34234     183.8819     367.8369      1.892     4.30     1233.058     64.83078     134.2146         7     0.913     0.577 -84.41   0
        54    562.8060    933.4565 307.6713091  +6.2990828     1259.993     2208.862     1822.978      91.6112     183.8087      367.471      1.841     5.18     1242.771     64.83078      150.687        15     1.131     1.096   0.69   0
        55    994.0721    933.0961 307.4920734  +6.3135727     958.9598     1714.212     2195.476     91.90435     184.1012     367.7637      2.031     4.56     1228.533     64.83078     125.5334         7     0.954     0.620 -76.49   0
        56    601.9343    929.5066 307.6551797  +6.3020178     1076.496      1722.25     1832.486     92.19657     184.1742     367.8003      1.797     4.64     1241.554     64.83078     141.8082        10     1.086     0.838 -40.17   0
        57    281.5307    927.8375 307.7884009  +6.2920171     1204.347     2413.899     3732.365     92.05058      183.955       367.91      2.515     6.22     1249.107     64.83078     154.5001        16     1.268     1.203 -73.78   0
        58    748.6345    922.6614 307.5944374  +6.3097282     648.3444     1388.597     1649.062     92.05058     184.0281     367.7637      2.112     4.12     1236.995     64.83078     95.41675         6     0.886     0.546 -43.88   0
        59    886.0239    920.0068 307.5374224  +6.3153914     6594.294     10887.82     11824.06      91.6112     183.7355     367.6174      1.773     3.69     1231.721     64.83078      810.957        34     1.448     1.200  77.35   0
        60    422.1465    917.3737 307.7303128  +6.3010343     1520.159     3046.025     2455.438     91.90435     184.1012     367.6906      2.046     5.24     1246.141     64.83078     184.2579        22     1.378     1.183  58.91   0
        61    323.7559    915.8834 307.7712558  +6.2983648     6853.427     13641.16     14813.17     92.19657      183.955     367.8003      2.118     4.48     1248.468     64.83078     777.7759        50     1.703     1.521 -86.59   0
        62    243.8830    914.8895 307.8044855  +6.2961062     5360.775     10624.65     11769.96     91.90435     184.2472     367.8734      2.076     4.43     1249.479     64.83078     587.2799        41     1.619     1.404  87.48   0
        63    572.2396    908.6068 307.6682263  +6.3096600     932.1684     1445.515     1304.192     91.46426     183.5891      367.471      1.671     5.32     1241.267     64.83078     125.4912         9     1.001     0.799  82.43   0
        64    901.7044    905.3496 307.5313976  +6.3219658      884.402     1442.848     1564.693     92.05058     183.8819     368.0196      1.752     6.25     1230.784     64.83078     113.2391         8     1.157     0.948 -21.40   0
        65    738.2864    897.9844 307.5995691  +6.3195756     1420.346     2455.004     2906.118     91.75789     183.6623     367.6906      1.977     5.03     1235.218     64.83078     158.8125        20     1.448     1.015 -69.93   0
        66    969.4434    894.0477 307.5036217  +6.3288826     1229.908     1995.637     3665.431     92.19657     183.8819     367.7271      2.402     4.37     1227.946     64.83078      150.576        12     1.033     0.875  52.11   0
        67    656.6231    891.8776 307.6337174  +6.3193798     2070.885     3863.064      3309.66     91.75789     183.7355     367.7271      1.937     4.60     1238.134     64.83078     248.6049        24     1.291     1.256 -20.29   0
        68    523.3714    892.9468 307.6890656  +6.3144988     694.7657     1481.424      1879.45     91.90435     184.1012     367.6906      2.200     5.87     1242.007     64.83078     82.61877         9     1.340     0.724  57.37   0
        69     71.3361    887.6140 307.8771207  +6.3015974     1380.181     2580.762      2602.57      91.6112     183.7355      367.654      1.965     5.56     1249.626     64.83078     187.0741        19     1.458     1.073 -89.17   0
        70     53.5738    888.1816 307.8844835  +6.3007681     2261.975     4147.888     4432.607     91.75789     183.7355     367.6906      1.913     5.19     1249.668     64.83078     270.5862        22     1.456     1.047  76.77   0
        71    817.0226    887.9223 307.5671814  +6.3263496     826.8624     1057.931     516.8384     91.75789     183.7355     367.7271      1.440     4.88     1233.182     64.83078     102.4963         8     0.857     0.787   4.87   0
        72    197.3980    886.9015 307.8247523  +6.3061105     1705.553     3242.089     3709.153     91.61119     183.6623     367.4344      2.099     5.47     1249.611     64.83078     200.9642        21     1.370     1.155 -87.06   0
        73    934.8516    887.2744 307.5182275  +6.3305317     861.3576     1360.632     1166.274     92.19658     184.0281     367.8369      1.690     5.56     1228.984     64.83078      118.116         8     1.079     0.807 -16.20   0
        74    953.4921    884.1547 307.5105842  +6.3324390     562.4135     652.7095     697.5981     92.19658     183.8819     367.9465      1.331     4.36     1228.167     64.83078     102.8702         5     0.913     0.593  48.22   0
        75    651.2718    880.8584 307.6363130  +6.3237526     5411.304     10463.23     11042.91     92.34234      183.955     367.8003      2.039     4.44     1237.808     64.83078     608.1864        39     1.584     1.371 -68.11   0
        76    337.0248    882.6743 307.7668636  +6.3125230      653.433     1296.161     1317.887     91.75789     183.7355     367.7271      1.952     3.41     1248.184     64.83078     132.4838         5     1.001     0.337  43.66   0
        77    789.2280    880.6928 307.5789775  +6.3284113     555.7448     975.3636     1595.585     92.34235     183.6623      367.654      1.336     3.44     1233.382     64.83078     111.7483         5     1.234     0.277  34.56   0
