#   1 NUMBER                 Running object number                                     
#   2 X_IMAGE                Object position along x                                    [pixel]
#   3 Y_IMAGE                Object position along y                                    [pixel]
#   4 ALPHA_J2000            Right ascension of barycenter (J2000)                      [deg]
#   5 DELTA_J2000            Declination of barycenter (J2000)                          [deg]
#   6 FLUX_APER              Flux vector within fixed circular aperture(s)              [count]
#   9 FLUXERR_APER           RMS error vector for aperture flux(es)                     [count]
#  12 FLUX_RADIUS            Fraction-of-light radii                                    [pixel]
#  13 FWHM_IMAGE             FWHM assuming a gaussian core                              [pixel]
#  14 BACKGROUND             Background at centroid position                            [count]
#  15 THRESHOLD              Detection threshold above background                       [count]
#  16 FLUX_MAX               Peak flux above background                                 [count]
#  17 ISOAREA_IMAGE          Isophotal area above Analysis threshold                    [pixel**2]
#  18 A_IMAGE                Profile RMS along major axis                               [pixel]
#  19 B_IMAGE                Profile RMS along minor axis                               [pixel]
#  20 THETA_IMAGE            Position angle (CCW/x)                                     [deg]
#  21 FLAGS                  Extraction flags                                          
         1    621.2715     28.2807 307.6737185  +6.6948847     3175.049     6704.624     8514.061     93.44988     186.2374     371.6629      2.389     8.87      1209.57     65.50511     352.4742        34     2.353     1.077  48.73   3
         2    623.6351     25.7732 307.6728211  +6.6959977     3118.323      6966.36     10765.87     92.56409     185.5726     371.3672      2.918     9.53     1209.538     65.50511     368.5933        32     2.369     1.139  42.24   3
         3    629.2971     32.6025 307.6702323  +6.6933671      3872.76     8514.082     11187.19      92.7123     185.5726     371.2563      2.985    14.79     1209.655     65.50511     419.3539        56     4.136     1.472  79.28   3
         4    632.0120     29.9832 307.6691926  +6.6945378     3270.064     6813.918     9725.706     92.86029     185.4986     371.5151      3.123    12.03     1209.607     65.50511     414.3492        54     3.934     1.302  86.15   3
         5    393.6921     26.0986 307.7684590  +6.6882395     2846.143     6094.045     7530.051     93.15556     186.4585      371.589      2.425     9.63     1222.334     65.50511     310.3165        40     2.420     1.266  52.29   3
         6    653.9516     24.1165 307.6602668  +6.6976851     7098.712      19421.7     31336.69     93.15556     185.8684     371.6629      3.412     7.95     1209.523     65.50511     816.7874       110     2.788     2.274 -37.02   0
         7     38.8188     20.3371 307.9162670  +6.6788146     1368.757     3930.825     4711.624      92.7123     185.8684     371.4781      2.783     9.47     1243.462     65.50511     203.9977        33     2.025     1.644 -85.15   0
         8    130.4265     16.5923 307.8782920  +6.6834108     1950.696     4554.511     6741.668      92.7123     185.6466     371.4411      2.851    10.35      1241.02     65.50511     218.4871        39     2.446     1.548  54.67   3
         9    862.3992     14.5187 307.5738840  +6.7085388     827.7109      1628.98     2042.111     92.26693     185.3505     371.2932      1.994     5.10     1201.941     65.50511     140.0037         9     1.345     0.546  57.95   0
        10    772.3716      4.5336 307.6116752  +6.7096841     1111.353     3705.976     3939.373     92.86029     185.7945     333.7034      2.635     9.62     1202.742     65.50511     169.1919        32     2.152     1.696  29.36  24
        11    597.4048      1.8033 307.6845521  +6.7050203     3477.112      5508.07     5618.172     86.90236     155.4557      288.413      1.686     5.79     1208.981     65.50511      556.516        24     1.719     0.839   5.43  24
        12    762.3385    990.6818 307.5821983  +6.3023992     807.5269     1890.073     1960.552     93.30283     185.8684     371.6259      2.315     3.76     1271.669     65.50511     127.6141         5     0.859     0.472  79.18   2
        13    984.6066   1023.4669 307.4886945  +6.2962067     837.1991     938.6523     1249.868     83.18892     150.7927     283.3215      1.217     3.61     1269.266     65.50511     182.7037         7     0.879     0.662  15.57  24
        14    862.8907   1023.7245 307.5392773  +6.2920846     885.7913     1470.532     1909.031     80.16285     146.9185     278.6302      1.752     4.99     1272.347     65.50511     202.4471        10     1.632     0.431  -4.23  24
        15    506.9819   1023.7780 307.6872066  +6.2802920     746.9375     1089.816     793.8327     79.12844     145.6985     277.2964      1.358     3.58     1275.402     65.50511     188.5326         5     0.889     0.415  -1.30  24
        16    460.6351   1022.4600 307.7065150  +6.2793001     1458.546     2591.458     2575.712     93.15556     167.1189      301.904      1.843     7.41     1275.121     65.50511     165.2126        20     1.529     1.005  35.63  24
        17      5.3909    987.3381 307.8969299  +6.2786700     1389.181     2795.698      3229.17     92.41563     185.7206     345.1517      2.093     7.35     1273.787     65.50511      184.448        21     1.563     1.089  37.88  16
        18    855.5588    985.4420 307.5436289  +6.3076407      728.463     1254.338     1369.998     92.86029     185.8684     371.4781      1.653     3.94     1269.766     65.50511     117.3113         5     0.984     0.452 -13.58   0
        19    271.6010    984.2125 307.7863932  +6.2888118     557.7534     1132.458     1588.366      92.7123     185.4986     371.4042      2.043     3.76      1275.75     65.50511     75.95996         5     1.018     0.399   5.57   0
        20    979.5960    981.7209 307.4921975  +6.3132690     670.6429     1288.952     1416.103      92.7123     185.2764     371.3302      1.921     4.81     1267.582     65.50511     108.9923         6     1.215     0.541 -27.81   0
        21    548.0172    981.2659 307.6716033  +6.2991946     1068.707     2201.609     2363.257     92.56409     185.7945     371.4781      2.217     6.77     1274.536     65.50511     130.6926        14     1.185     1.086  24.18   0
        22    266.0939    976.5816 307.7889436  +6.2917779     615.3813     1567.629     2277.556     93.00803     185.5726     371.4781      3.690     8.76     1275.673     65.50511     109.1572        10     2.247     0.953  64.90   0
        23    588.2751    976.9908 307.6550161  +6.3022918     809.0292     1516.577     1397.009      92.7123     185.3505     371.4411      1.717     5.57     1273.491     65.50511      114.184         7     1.339     0.653  33.08   0
        24    735.2004    972.6295 307.5940941  +6.3089519     725.7748     1426.798     1451.589     92.41563     185.6466     371.4042      2.511     4.19     1271.401     65.50511     93.10779         6     0.741     0.676  64.81   0
        25    871.8855    968.3240 307.5374255  +6.3152439      4935.19     10162.16      10978.6     93.30283     186.2374     371.6998      2.072     4.80     1268.367     65.50511     522.3593        44     1.765     1.381  63.87   0
        26    309.6536    964.3971 307.7712558  +6.2982523     5234.843     12951.04     14973.97     92.41563     185.6466     371.1823      2.472     5.91     1275.697     65.50511     676.5392        56     2.015     1.600  59.23   0
        27    408.0744    965.5396 307.7303084  +6.3010465     1238.484      2847.26      3352.85     93.44988     185.8684     371.6259      2.488     7.63     1274.901     65.50511     146.6876        20     1.596     1.269 -64.12   0
        28    229.7316    963.4266 307.8045080  +6.2959986     3751.412     9484.479     11246.17      92.7123     185.7206     371.5151      2.564     6.00     1275.301     65.50511      490.527        49     1.933     1.572  53.35   0
        29    558.6603    957.5408 307.6679901  +6.3093377     761.9507     1491.544     881.0322     93.15556     185.8684     371.6629      1.898     5.69     1273.721     65.50511     94.13025         7     1.287     0.707  43.54   0
        30    723.4404    946.8494 307.5998617  +6.3192019     1000.792     1795.457     1651.834     93.30283     185.8684      371.552      1.845     6.30       1270.3     65.50511     148.5712        10     1.214     0.918 -65.24   0
        31    954.3096    940.3846 307.5041151  +6.3294936     672.3887     1813.507     2546.021     92.86029     185.6466     371.4411      2.941     5.47     1265.736     65.50511     116.8772         7     1.056     0.801 -36.96   2
        32    642.6986    939.9757 307.6336582  +6.3193680     1465.047     3415.186     4458.803     93.30283     185.5726     371.4042      2.757     7.63     1271.075     65.50511     170.3527        25     1.723     1.342  49.39   0
        33    507.8037    941.4138 307.6896804  +6.3143082      625.704     1084.034     1045.398      92.7123     185.4986     371.4781      2.254     4.51     1274.102     65.50511     104.9041         5     0.984     0.587  46.16   0
        34     57.6567    936.0538 307.8769680  +6.3015723     1091.105     2457.461     2808.739     93.30283     185.8684     371.6259      2.401     7.49     1273.515     65.50511     183.5178        19     1.868     1.101  72.70   0
        35    183.4178    935.2297 307.8247247  +6.3060952      1154.58     2958.303     3045.396      92.7123     185.6466      371.552      2.332     8.50     1274.852     65.50511     124.2787        22     1.767     1.143  56.62   0
        36    637.2212    929.1957 307.6363030  +6.3236353     3786.032     9015.588     10028.18      92.7123     185.5726     371.3672      2.393     5.54     1270.964     65.50511     413.0222        46     1.791     1.580  46.87   0
        37    874.8804    925.4622 307.5376405  +6.3330307     1912.834     4058.733     4635.677     93.30283     185.9422      371.589      2.207     7.05     1265.312     65.50511     221.4937        24     1.684     1.138  65.43   0
        38    320.3769    922.6821 307.7682273  +6.3158224     8424.518      21739.5     25795.56     93.00804     185.4986     371.5151      2.576     5.93     1275.089     65.50511     958.4993        67     2.092     1.712  57.95   0
        39     39.5426    936.3812 307.8844856  +6.3008344     1784.055     3924.729     3607.815      92.7123     185.7945     371.4042      2.289     6.00     1273.339     65.50511      202.922        26     1.726     1.168  42.97   0
        40     84.1018    912.7325 307.8667769  +6.3120759     1007.974     2261.403     2687.239     93.15556     186.0161     371.6629      2.518     8.05     1273.173     65.50511     140.7378        14     1.735     1.044  51.33   0
        41     67.3416    907.1688 307.8739343  +6.3138141     1290.126     3499.072     3916.767     92.86029     185.8684      371.552      2.481     7.88     1272.879     65.50511     211.4966        26     1.877     1.368  61.66   0
        42    865.4626    906.7614 307.5421924  +6.3404372     1240.135     2547.857     2516.301     93.15556     185.8684     371.6998      2.153     8.21     1264.419     65.50511     139.1322        21     1.554     1.213  35.34   0
        43    799.3686    905.7970 307.5696998  +6.3386524     1780.186     4091.118     4594.517     92.41563     185.6466     371.3672      2.429     6.73     1267.799     65.50511     192.0868        31     1.692     1.363  35.25   0
        44    835.7969    906.2407 307.5545418  +6.3396725     1248.504     2478.805     3028.063     92.26693     185.4986     371.3302      2.084     6.98     1265.918     65.50511     149.6211        16     1.386     1.038  37.02   0
        45    535.4412    897.6973 307.6796865  +6.3332641     171015.8     437401.1     513818.7     93.15556     185.7206     371.8845      2.541     5.98     1271.428     65.50511     17731.33       191     2.251     1.929  56.54   0
        46    379.7306    900.3849 307.7443195  +6.3269933     3866.949      9837.36     11537.22     92.56409     185.7945     371.5151      2.551     6.09     1273.554     65.50511     415.2454        53     2.029     1.609  62.15   0
        47    323.0190    898.9006 307.7679435  +6.3257238     6267.155     16396.43     19420.19     93.15556     185.7206     371.3672      2.558     6.06     1274.444     65.50511     745.8324        65     2.028     1.777  61.99   0
        48    641.3227    894.6153 307.6357788  +6.3380413      1815.17     4493.493     4873.804      92.7123     185.4986     371.4411      2.475     6.33     1269.534     65.50511     197.8158        32     1.590     1.418 -89.86   0
        49    873.6362    893.5664 307.5392442  +6.3461522      3490.83     7657.375      9156.97     92.86029     185.5726     371.3302      2.359     5.24     1263.571     65.50511     344.3578        40     1.646     1.513  61.73   0
        50    615.8426    888.6075 307.6465756  +6.3396773     1736.768     4549.546     5657.189     92.56408     185.6466     371.2932      3.001     7.58     1269.835     65.50511     206.7592        37     1.942     1.412  51.71   0
        51   1007.1269    887.6146 307.4839550  +6.3530122      3239.69     6552.745     6477.271     92.56408     185.5726     371.5151      2.077     4.88     1261.371     65.50511     349.3113        36     1.679     1.294  70.01   0
        52    804.4294    888.0983 307.5681994  +6.3461233     1011.105     2242.536     1958.061     93.30283     185.5726     371.6629      2.195     8.44     1266.433     65.50511     108.1339        18     1.652     1.205  85.74   0
        53    608.9522    882.4249 307.6496510  +6.3420006     1164.812     2924.594     3986.574      92.7123     185.8684     371.5151      2.973    10.44     1269.588     65.50511     140.0095        22     2.014     1.508  46.18   2
        54    892.4689    881.3794 307.5318306  +6.3518032     1915.657     4609.083     5259.906      92.7123     185.7945     371.5151      2.426     6.70     1262.539     65.50511      224.015        32     1.671     1.475  41.22   0
        55    351.2641    876.6487 307.7569648  +6.3358437     1381.636     3167.933     3417.256     93.00804     185.7206     371.6998      2.406     5.89     1272.973     65.50511     164.6887        20     1.496     1.106  42.38   2
        56    215.9815    872.0192 307.8133567  +6.3332617      586.709     1196.788     1882.929     92.86029     185.7945      371.552      1.573     4.81     1273.976     65.50511     85.75256         6     1.427     0.460  30.39   0
        57    487.0032    867.5341 307.7008525  +6.3441065     1629.937     4232.358     4328.659     92.26692     185.5726     371.3672      2.384     8.91     1271.636     65.50511     157.6322        36     1.834     1.509  61.17   0
        58    831.5922    865.4902 307.5576784  +6.3563503     634.9277     1503.596     2473.537      92.7123     185.4986     371.3302      2.832     6.32     1263.617     65.50511     113.0168         7     1.329     0.844  24.65   0
        59    533.8592    863.2711 307.6815208  +6.3474182     3101.603     8022.786     10626.87     93.30283     185.8684     371.6998      2.902     7.10     1269.198     65.50511      351.376        55     2.193     1.721  35.50   0
        60    451.9591    862.0114 307.7156087  +6.3452240     692.9125     1755.051     1614.197     92.41563     185.6466     371.2932      2.372     7.88     1271.533     65.50511      117.007        12     1.423     1.222  28.64   0
        61    541.2656    861.3601 307.6785073  +6.3484522     659.5435     1340.175     2602.691     93.15556     185.7945     371.7737      3.729     5.47     1268.746     65.50511     113.3148         5     0.993     0.848  69.71   1
        62    504.5344    857.3582 307.6939129  +6.3488868      9506.65     25426.66     30141.93     93.15556     185.7945     371.7368      2.602     6.11     1269.961     65.50511     1050.799        77     2.131     1.843  62.05   0
        63    918.0472    855.4193 307.5220816  +6.3633604     2567.252     5715.442     6107.518     92.56408     185.8684     371.4042      2.196     5.38     1260.832     65.50511      277.226        37     1.704     1.409  51.85   0
        64    297.2906    846.0366 307.7804490  +6.3466846     1670.619     4229.626     4638.759     93.30283     185.7945     371.6629      2.576     7.32     1273.694     65.50511      210.913        35     1.771     1.634  50.97   0
        65     14.8567    847.7766 307.8977896  +6.3365753     882.7542     1843.177     2368.948      92.7123     185.8684     371.4042      2.448     7.71      1270.98     65.50511      120.085        12     1.383     1.202  -9.36   0
        66    762.5848    841.7689 307.5871738  +6.3638596     29955.38     74084.21     84761.78      92.7123     185.5726      371.552      2.460     5.76     1263.797     65.50511     2881.732        95     2.110     1.755  57.62   0
        67    219.4446    818.7258 307.8137444  +6.3553687     782631.9      2557804      3241715     93.00804     185.9422     371.6629      2.932     6.97     1272.183     65.50511     64029.15       589     2.819     2.287  67.32   4
        68    887.6473    836.9374 307.5353486  +6.3699841     5256.274      11714.5     13420.25     93.00803     185.7206     371.6629      2.333     5.33     1260.966     65.50511      517.322        52     1.950     1.539  63.47   3
        69    884.6805    828.1472 307.5368814  +6.3735137     3976.566      9097.78     9701.952     93.15556     185.8684     371.6629      2.249     5.87     1260.804     65.50511     392.7075        42     1.805     1.434  62.54   3
        70    685.7639    833.6115 307.6193872  +6.3646860     37562.77     110156.1     161031.1     92.56409     185.6466     371.2932      3.213     9.54     1265.065     65.50511     4339.102       168     3.548     1.910  32.05   0
        71    329.5852    834.0619 307.7674347  +6.3526982     9180.502     26302.89     32277.21     92.56408     185.7945     371.4042      2.699     6.48     1271.846     65.50511     1068.985        81     2.266     1.843  53.28   0
        72    391.4462    831.8751 307.7417946  +6.3556534     10051.41     28280.79     35114.07     93.00804     185.9422     371.6259      2.744     6.43     1270.258     65.50511      1222.11        88     2.257     1.922  53.33   0
        73    928.1487    830.2874 307.5187381  +6.3740650     1356.953     3047.942     3395.264     93.15556     185.7206     371.7368      2.361     7.52     1259.956     65.50511      166.048        21     1.504     1.162 -63.40   0
        74    625.1688    827.6543 307.6447804  +6.3651395     3001.449     8348.958     9752.599     93.00804     185.9422      371.552      2.582     6.88     1265.344     65.50511      322.132        50     1.859     1.819  71.52   0
        75    660.2616    817.3035 307.6305454  +6.3705722     1258.839     3087.746      3234.34     92.86029     185.9422     371.6998      2.359     7.12     1264.079     65.50511     172.0468        20     1.658     1.250  74.93   0
        76    394.3511    814.5370 307.7411804  +6.3629045     24210.38      68529.3     84006.27     93.00804     185.7945     371.6998      2.716     6.50     1269.272     65.50511     2770.955       104     2.268     1.945  55.87   0
        77    512.0485    813.5211 307.6922881  +6.3672259     3324.329     9029.557     11005.64     93.15556     185.9422      371.589      2.654     6.74     1265.993     65.50511     386.8997        54     2.004     1.768  42.32   0
