#   1 NUMBER                 Running object number                                     
#   2 X_IMAGE                Object position along x                                    [pixel]
#   3 Y_IMAGE                Object position along y                                    [pixel]
#   4 ALPHA_J2000            Right ascension of barycenter (J2000)                      [deg]
#   5 DELTA_J2000            Declination of barycenter (J2000)                          [deg]
#   6 FLUX_APER              Flux vector within fixed circular aperture(s)              [count]
#   9 FLUXERR_APER           RMS error vector for aperture flux(es)                     [count]
#  12 FLUX_RADIUS            Fraction-of-light radii                                    [pixel]
#  13 FWHM_IMAGE             FWHM assuming a gaussian core                              [pixel]
#  14 BACKGROUND             Background at centroid position                            [count]
#  15 THRESHOLD              Detection threshold above background                       [count]
#  16 FLUX_MAX               Peak flux above background                                 [count]
#  17 ISOAREA_IMAGE          Isophotal area above Analysis threshold                    [pixel**2]
#  18 A_IMAGE                Profile RMS along major axis                               [pixel]
#  19 B_IMAGE                Profile RMS along minor axis                               [pixel]
#  20 THETA_IMAGE            Position angle (CCW/x)                                     [deg]
#  21 FLAGS                  Extraction flags                                          
         1    266.9910     29.9910 307.8201069  +6.6167475      10905.6      21901.1     26454.57     92.14298     185.0989     370.3822      2.218     8.89     1218.525     65.31186     1098.659        49     2.281     1.165  61.74   3
         2    270.1357     28.0066 307.8188609  +6.6176750     11504.21     23182.03     28382.56       92.291     185.0252     370.2716      2.280     9.97     1218.495     65.31186     1272.322        48     2.516     1.165  54.90   3
         3     13.5650     26.9167 307.9258983  +6.6094539     1881.825     5856.758     6826.832     92.88072       185.32     370.4927      2.691     7.88      1225.85     65.31186     282.0564        45     1.986     1.722  78.85   0
         4    699.6299     24.4756 307.6398477  +6.6336025     3532.413     10292.52     12294.26     92.73365     185.3937     370.5296      2.642     7.04     1191.598     65.31186     398.1038        53     1.998     1.751  79.17   0
         5    112.0598     21.3537 307.8850060  +6.6150883     2041.334     4533.691     5466.823     92.73364       185.32     370.6401      2.348     9.75     1221.813     65.31186     241.7974        31     2.207     1.201  43.21   3
         6    347.6955     16.8777 307.7868808  +6.6248983      1204.45         2187     2777.258     92.58633     185.6144     370.6032      1.988     6.44      1210.97     65.31186     156.1522        13     1.457     0.800  87.66   3
         7    345.0000     14.9755 307.7880677  +6.6255948     845.4973     1649.393     2573.973       92.291     184.8776     370.2716      2.182     4.89     1211.362     65.31186      137.026         8     1.289     0.526  80.57   3
         8    382.8048     17.8515 307.7722058  +6.6256793     1806.258     4265.268     5440.183     92.14298     185.0989     370.0872      2.605     9.94      1206.96     65.31186     190.1367        34     2.357     1.207  44.40   2
         9    992.1770     10.5612 307.5182841  +6.6491787     939.5515     1883.378     1671.386     92.43879     185.0252     370.3085      2.102     6.93     1181.217     65.31186     136.5649        14     1.456     0.925  66.47   0
        10    196.9978      7.7882 307.8500307  +6.6235736     1895.072     4082.604     4635.334     92.43878     184.9514     367.3106      2.286     9.32     1219.492     65.31186     211.9031        29     2.417     1.003  60.48  19
        11    199.6320      5.7779 307.8489985  +6.6244947     2031.935     3944.674     5067.075       92.291     185.0989     348.8216      2.112     8.54     1219.266     65.31186     258.8815        26     2.327     0.950  53.51  19
        12     79.7016      6.0786 307.8990057  +6.6203163     913.1039     2587.555     3142.213     92.43878     185.6144     352.5195      2.690     9.15     1222.409     65.31186     113.3531        17     1.674     1.395 -59.53  16
        13    659.1801      4.2905 307.6573819  +6.6405977     2464.851     7623.033     8688.834     92.73365       184.36     329.0888      2.642     8.38     1192.242     65.31186     266.0676        47     1.948     1.697  61.84  24
        14    610.4082      3.1224 307.6777625  +6.6394410      3858.45      6664.12     6950.469     92.43878     173.6853     310.9613      1.844     5.49     1192.174     65.31186     403.1974        24     1.591     0.978  50.61  19
        15    613.4911      1.9745 307.6765144  +6.6400199     3010.493     4023.542     4501.056     89.13095     158.1357     290.6781      1.406     3.58     1192.143     65.31186     385.2947        11     1.009     0.759  60.00  27
        16    338.7614      1.2894 307.7911208  +6.6310490      655.352      887.377     560.1874     80.09695     146.5782     278.0537      1.110     2.10     1212.191     65.31186     170.0757         5     0.695     0.441 -11.21  24
        17    622.9431    986.0869 307.6402500  +6.2329993     1404.571     2799.454     2385.465     92.88073       185.32     370.6769      1.972     7.15     1253.325     65.31186       149.15        17     1.412     1.014 -13.08   0
        18    789.4056   1023.3195 307.5696558  +6.2231778     877.9921     1043.923     518.2224     85.37637     153.1365     285.0352      1.237     3.48     1253.988     65.31186     130.9069         9     0.967     0.664   5.89  24
        19    767.9434   1020.6506 307.5786875  +6.2235624     3550.375     6483.767     7936.588     92.88072     184.8776     330.0414      2.122     4.12     1254.449     65.31186     415.9628        33     1.420     1.394  -6.60  18
        20    535.8179   1023.3629 307.6753350  +6.2146414     2882.189      3937.09     3857.159     85.05601     152.6007      284.316      1.418     4.37     1254.843     65.31186      425.493        14     1.307     0.715  -0.95  24
        21    464.5709   1023.3025 307.7050280  +6.2122693     1474.676     1956.866      1651.58     86.01352     153.4926     285.7049      1.496     4.53     1255.835     65.31186     207.7289        13     1.292     0.748   0.88  24
        22    495.4236    986.6807 307.6933741  +6.2284655     850.4985     1514.781     1134.387     92.43879     184.9514     370.4927      1.871     5.26     1254.954     65.31186      134.222         9     1.060     0.737 -40.18   0
        23    660.0193    979.1465 307.6250260  +6.2371178     903.5473     2345.452     3625.115       92.291       185.32     370.3085      3.146     5.69     1252.949     65.31186     142.8752        10     1.411     0.784  24.48   0
        24    208.6065    975.7914 307.8132598  +6.2233084      1769.48     3832.267     4574.569     91.99472     185.0989     370.3453      2.344     8.53     1255.931     65.31186     221.2192        30     2.021     1.305 -84.12   0
        25    140.8187    976.5799 307.8414828  +6.2206940     3073.289     6797.829     6838.249     92.58633     185.2464     370.4559      2.215     5.57     1255.912     65.31186     378.0667        40     1.843     1.410  72.50   0
        26    998.1525    977.6308 307.4841531  +6.2490856     3227.881     4995.749     4899.008     92.43878       185.32      370.419      1.661     3.61     1248.649     65.31186     399.4683        23     1.233     1.114  77.54   0
        27    878.2310    973.7437 307.5342603  +6.2466768     1417.197     2510.913     3162.408     92.73365     185.3937      370.419      1.839     6.38     1250.631     65.31186     214.0938        15     1.354     0.932  88.83   0
        28    468.3208    979.3426 307.7049102  +6.2305907     1265.651     2484.894     2832.967     92.88073       185.32     370.4927      2.080     5.89     1255.028     65.31186     136.5199        13     1.128     0.866  38.51   0
        29      8.0098    974.8883 307.8968825  +6.2169073      888.567     1570.939     1583.298     92.43878     184.9514       368.72      1.944     5.25     1252.836     65.31186     132.7148         9     1.040     0.750  30.49   0
        30    929.9442    973.1619 307.5127267  +6.2486508     1087.481     1851.283     1809.941     92.88073     185.3937     370.5664      1.837     5.19     1249.499     65.31186     143.2393        10     0.996     0.765 -61.72   0
        31    958.0696    967.7119 307.5011830  +6.2518489     3361.543     5434.119     5397.307     92.88073     185.6144     370.5296      1.723     4.12      1248.55     65.31186     422.3687        26     1.425     1.083 -85.21   0
        32    180.6892    966.4484 307.8252017  +6.2262333     867.6166     1429.069     672.4611     92.88073     185.1727     370.7137      1.575     3.78     1255.704     65.31186     170.6515         7     0.967     0.529  62.88   0
        33    816.0969    965.8556 307.5604142  +6.2478583     820.5143     1373.852     1941.439     92.73364       185.32     370.7505      1.776     3.66     1250.809     65.31186     130.3787         7     0.923     0.594  15.14   0
        34    273.8257    961.9257 307.7865376  +6.2312473     1441.201     3371.398     3606.507     92.43878     185.1727     370.4927      2.249     7.18     1255.516     65.31186     161.5146        26     1.639     1.268  78.62   0
        35    638.0566    958.7667 307.6348478  +6.2448152     919.1267     1705.405     1841.639     92.73364       185.32     370.5296      1.929     6.40     1252.211     65.31186      105.804        11     1.436     0.802  55.97   0
        36    591.2394    955.7661 307.6544580  +6.2444837     1453.801     2945.218     3173.937     92.58633     185.1727     370.3085      2.027     7.79      1252.76     65.31186     174.5354        23     1.411     1.310  44.22   0
        37    147.4604    952.8165 307.8394987  +6.2307538     11091.65     24370.68     26856.03       92.291     185.2464     370.2347      2.213     5.13     1255.213     65.31186     1271.358        60     1.836     1.585  77.85   0
        38    890.9685    952.2540 307.5296549  +6.2559988     741.7469     1437.596     1708.353     92.73364     185.3937     370.4559      2.591     3.73      1248.72     65.31186     112.2045         5     1.036     0.594  71.99   2
        39    461.6898    951.4440 307.7085908  +6.2419148      2510.57     5485.357      5370.86     92.88073     185.1727     370.6032      2.166     5.73     1254.568     65.31186     250.6448        34     1.574     1.489  65.77   0
        40    820.8854    950.5665 307.5589192  +6.2543473     2440.142     4468.603     4380.801     92.88073     185.1727     370.4927      1.934     4.95     1250.008     65.31186     277.9038        27     1.477     1.227 -79.20   0
        41    804.0013    948.5836 307.5660210  +6.2546017     954.4886     1805.422     1588.468     92.43878     184.8037     370.2347      2.036     4.46     1250.078     65.31186     158.3352         8     1.171     0.625 -88.05   0
        42    741.6134    948.9045 307.5920122  +6.2523753     1250.984     2320.811     2131.772     92.58633     185.0252     370.3085      1.917     6.23     1250.453     65.31186     136.3734        14     1.190     0.916  10.95   0
        43    565.1173    946.0687 307.6656631  +6.2476193     1779.711     4339.843     4479.016     93.17419     185.6144     370.5664      2.324     7.50     1253.193     65.31186     201.0018        32     1.740     1.352  73.16   0
        44    270.2045    936.3771 307.7888883  +6.2416997     904.3716     2117.861       2002.4     92.43879     185.0252     370.3453      2.300     8.82     1254.863     65.31186     113.5493        17     1.654     1.315 -35.36   0
        45    693.8669    934.0369 307.6123991  +6.2569260     3012.788     6481.355      6865.52     92.73365     185.2464     370.5664      2.154     5.23     1250.325     65.31186     309.6138        33     1.545     1.389  61.58   0
        46    604.4517    931.8679 307.6497361  +6.2548195     1170.757     2335.143      2256.29     92.73364     185.1727     370.4927      2.122     6.00     1251.678     65.31186     156.4938        11     1.078     0.939 -85.30   2
        47    224.0874    931.3884 307.8082717  +6.2422090     896.7034     1747.764     2099.129     92.43878     185.0252     370.3822      2.328     6.78     1253.863     65.31186     144.7997        10     1.280     1.076  28.34   0
        48     59.8471    923.8351 307.8769664  +6.2397897     5259.822     11287.74     12136.68     92.43878     185.2464     370.3822      2.162     4.96     1252.397     65.31186     634.2706        45     1.730     1.489  78.58   0
        49    788.9836    922.9447 307.5731200  +6.2647102     10115.81     20365.33     21465.32     92.14298     185.2464     370.2347      2.051     4.65       1248.8     65.31186     1109.936        49     1.622     1.469  85.24   0
        50    572.4529    913.8741 307.6636630  +6.2611916     100684.7     227489.7       250764     92.88073     185.3937     370.5296      2.285     5.25     1251.991     65.31186     9703.856       104     1.862     1.745  87.50   3
        51    574.0906    906.6344 307.6632182  +6.2642432     46215.87     106212.6     117164.1     93.02757     185.1727     370.5296      2.279     5.65     1251.628     65.31186     4477.041        87     1.836     1.757  32.73   3
        52    206.7256    916.9470 307.8159832  +6.2476004     2493.223     5356.733     5731.896     92.88073       185.32     370.5296      2.184     5.38     1253.826     65.31186     277.6979        31     1.557     1.355  45.46   0
        53    953.9980    912.4555 307.5046872  +6.2745841     839.0988      1399.64     1347.898     92.14298     184.9514      370.161      1.862     5.66     1244.223     65.31186     119.2983         9     1.177     0.767  21.13   0
        54    783.2743    910.6748 307.5759016  +6.2695973     4974.148     9720.893     9817.178     93.17419     185.6144     370.6401      2.025     4.58     1248.126     65.31186     556.0045        39     1.576     1.405  89.32   0
        55    881.0159    907.4622 307.5352691  +6.2742053     1342.297     2287.209     2344.968       92.291     185.2464     370.3085      1.835     5.87     1246.206     65.31186     161.8087        17     1.257     1.149 -71.65   0
        56    204.1844    906.2702 307.8173942  +6.2519338     1189.337     3043.673     3154.489       92.291     185.2464      370.419      2.338     6.45     1253.656     65.31186     159.0118        21     1.539     1.413  83.83   0
        57    421.9704    903.6418 307.7267162  +6.2603632     2295.279     5537.365     6706.524     92.43878     185.1727     370.3822      2.393     6.00     1253.827     65.31186     287.7365        36     1.662     1.508  84.64   0
        58    969.4944    906.2003 307.4984330  +6.2776924     667.6069     1195.957     2056.853       92.291     184.8776     370.0504      1.911     3.75     1243.828     65.31186     93.22656         5     1.047     0.386   6.17   0
        59    707.1282    903.2438 307.6078819  +6.2701170     4881.408      10814.5     12154.04     92.73365       185.32     370.5664      2.253     5.16     1248.703     65.31186     549.8888        45     1.689     1.533  76.77   0
        60    563.4305    902.3582 307.6678015  +6.2656547     2644.957     5800.654     6998.045       92.291     185.2464     370.3453      2.328     5.82     1251.731     65.31186     273.3579        34     1.637     1.397  89.50   0
        61    739.1724    897.9887 307.5946986  +6.2733681     976.3729     1717.861     1485.481     92.43878     185.0989     370.3822      1.736     6.48      1247.69     65.31186     135.0582        12     1.346     0.875 -20.00   0
        62    946.6014    892.5135 307.5084224  +6.2825907     5799.789     10192.68     10424.26     91.99472     184.8037     370.1979      1.859     4.02     1243.363     65.31186     653.6898        34     1.490     1.258  88.34   0
        63    231.2031    893.2474 307.8065632  +6.2582355     863.5046     1871.206       1484.9     92.14298     185.0252     370.0872      1.991     6.62     1253.426     65.31186     111.4133         9     1.319     0.934 -18.33   0
        64    706.5647    890.4766 307.6085354  +6.2753826     1771.645     3996.617     5225.983     92.73365     185.3937     370.5664      2.455     6.79     1248.165     65.31186     183.9425        29     1.679     1.281  71.39   0
        65    721.1899    889.3106 307.6024780  +6.2763564     716.8325     1098.783      790.767     92.58633     184.9514     370.3085      1.723     5.74     1247.732     65.31186     96.11401         8     1.006     0.922 -68.09   0
        66    353.1652    887.9782 307.7559074  +6.2645286     1111.404     2616.527     1923.067       92.291     185.0989     370.2347      2.292     6.95     1254.135     65.31186     159.2615        17     1.479     1.263   3.44   0
        67    535.4061    878.1585 307.6802765  +6.2747287     2505.465     6337.012     7109.029     91.99472     184.9514     370.1979      2.511     7.46      1251.31     65.31186     240.7615        37     1.821     1.497 -83.58   3
        68    532.6218    870.6289 307.6816843  +6.2777516     4641.832     11859.47     13823.28     92.14298     185.0252     370.3453      2.480     6.18     1251.041     65.31186     478.7765        51     1.904     1.603  78.82   3
        69    506.8334    879.3840 307.6921449  +6.2732602     688.5028     1540.312     1682.875     92.43878     185.0252     370.3822      2.137     5.97     1251.899     65.31186     115.9847         9     1.429     0.703  51.32   0
        70    285.8928    877.3912 307.7842930  +6.2666430     8548.501     20869.76     24903.91     92.43878     184.9514     370.3085      2.480     5.91     1253.882     65.31186     1024.578        69     1.976     1.827 -64.34   0
        71    739.9066    877.8666 307.5950522  +6.2817216     5274.999     11650.19     12724.28     92.73364     185.5409     370.5296      2.235     5.10     1246.737     65.31186     524.5122        45     1.643     1.586 -79.82   0
        72    801.7218    877.1240 307.5693121  +6.2841035     939.5836     1643.532     1618.725     93.17419     185.6144     370.6401      1.799     6.15     1245.967     65.31186     118.1433        11     1.146     0.929 -51.31   0
        73    410.7964    877.2993 307.7322397  +6.2708902      678.512     981.1463       654.88     92.58633     185.0252     370.1241      1.704     5.76     1252.795     65.31186     84.88074         6     1.193     0.784  37.16   0
        74    256.0406    876.8270 307.7967530  +6.2658697     509.5241     1065.526     747.8977     92.43878     185.0989     370.3453      1.567     4.39     1253.523     65.31186      87.5708         5     1.452     0.378   0.20   0
        75    901.2666    871.1789 307.5280162  +6.2899024     7189.341      13446.4     14192.63     92.43878       185.32     370.4927      1.942     4.34      1243.48     65.31186     801.3291        40     1.549     1.340  80.42   0
        76    874.8172    867.3224 307.5391667  +6.2906120     9577.019     19073.11     20365.86       92.291     185.0252     370.4559      2.076     4.67     1244.023     65.31186     1002.941        50     1.612     1.504  71.90   0
        77    996.5168    866.6354 307.4884637  +6.2949741     4484.723     7599.288     7798.535     92.88073       185.32     370.4559      1.838     3.95     1241.236     65.31186     571.0668        30     1.426     1.203  89.67   0
