#   1 NUMBER                 Running object number                                     
#   2 X_IMAGE                Object position along x                                    [pixel]
#   3 Y_IMAGE                Object position along y                                    [pixel]
#   4 ALPHA_J2000            Right ascension of barycenter (J2000)                      [deg]
#   5 DELTA_J2000            Declination of barycenter (J2000)                          [deg]
#   6 FLUX_APER              Flux vector within fixed circular aperture(s)              [count]
#   9 FLUXERR_APER           RMS error vector for aperture flux(es)                     [count]
#  12 FLUX_RADIUS            Fraction-of-light radii                                    [pixel]
#  13 FWHM_IMAGE             FWHM assuming a gaussian core                              [pixel]
#  14 BACKGROUND             Background at centroid position                            [count]
#  15 THRESHOLD              Detection threshold above background                       [count]
#  16 FLUX_MAX               Peak flux above background                                 [count]
#  17 ISOAREA_IMAGE          Isophotal area above Analysis threshold                    [pixel**2]
#  18 A_IMAGE                Profile RMS along major axis                               [pixel]
#  19 B_IMAGE                Profile RMS along minor axis                               [pixel]
#  20 THETA_IMAGE            Position angle (CCW/x)                                     [deg]
#  21 FLAGS                  Extraction flags                                          
         1    625.0423     28.8023 307.6773768  +6.8845371     1696.695     4389.379     6243.361     95.56162     191.7368     383.9328      3.147    11.54     1287.993     67.73503     181.6047        39     2.459     1.510 -32.21   2
         2    345.4739     27.3136 307.7942825  +6.8757465     1493.168     4911.042     8357.865     96.47903     192.5773     384.2768      3.793    12.01     1313.263     67.73503     198.9341        52     2.602     2.273 -60.18   2
         3    469.7944     17.8698 307.7426373  +6.8838432     1537.782     4249.189     6294.357     95.71513     191.7368     384.0857      3.029    10.69     1298.185     67.73503     184.8584        38     2.493     1.278 -54.90   2
         4    466.4777     15.0578 307.7441185  +6.8848958     1342.885      3138.06     4343.496     96.32674     192.1193     384.2003      2.877     9.43     1298.722     67.73503     153.7781        23     2.140     1.159 -69.36   3
         5    586.8246     16.5045 307.6937656  +6.8883445     1473.209     3868.902     5310.708     96.47903     191.8899     384.1239      2.740    10.05     1290.123     67.73503     178.3462        33     2.465     1.143 -53.75   3
         6    582.8264     14.9770 307.6954884  +6.8888425     1349.721     3700.795     5179.267     95.71513     192.0428     384.2003      2.741     9.68     1290.402     67.73503     152.8595        28     2.305     1.133 -65.34   3
         7    285.1864     14.9277 307.8198997  +6.8788423     1355.116      4259.96     6988.909     95.71513     191.8899     384.1239      3.343    10.38     1321.382     67.73503     221.4562        39     2.687     1.566 -36.11  18
         8    819.6686      3.3582 307.5968783  +6.9016039     3065.879     9209.967     10640.81      96.1742     183.4407     326.6149      2.635     8.89     1281.706     67.73503     344.4999        51     2.155     1.657 -13.27  24
         9    607.0120      3.5274 307.6857644  +6.8943958     1354.676     3938.253     5094.069     95.71513     184.7962     329.3009      2.883    10.45     1288.902     67.73503      185.212        35     2.392     1.271 -26.54  26
        10    491.0608      2.8770 307.7342537  +6.8907662     6921.347      17855.4     21562.21     96.63109     177.5847     318.3748      2.575    10.31     1297.479     67.73503     767.4968        55     2.465     1.370  -6.82  24
        11    694.8207      1.8731 307.6491157  +6.8980301     1714.709     3253.242     4019.044     90.99717     162.3833     299.7043      2.279     7.87     1284.283     67.73503     228.6821        23     2.009     0.862  -4.60  24
        12    309.7408      1.7791 307.8100806  +6.8851140     4918.939     8664.278     9181.734     89.86067     160.5649     297.7877      1.882     7.32     1318.851     67.73503     639.7042        27     2.006     0.799  -4.37  24
        13      2.1939      1.9488 307.9386212  +6.8746584     4337.719     5218.566     5107.534     89.69714     141.0971     238.5504      1.314     4.33     1325.414     67.73503     644.0161        14     1.169     0.742 -34.51  24
        14    145.2031      1.6730 307.8788574  +6.8796060     1883.291     3333.866     3758.111     88.37799     158.7256     295.4614      1.894     6.82     1322.847     67.73503     291.5769        20     1.976     0.706   0.88  24
        15    159.7239    991.8467 307.8393188  +6.4701413     8755.835     24883.15     30488.51      96.1742     192.2721     384.2768      2.730     6.42      1353.59     67.73503      934.202        77     2.121     1.954 -42.72   0
        16    749.9430   1023.8323 307.5917423  +6.4767482     1893.003      2675.18     2433.435     80.91998     149.4843     285.6588      1.307     4.41     1351.124     67.73503     424.5676        10     1.482     0.373   0.39  24
        17    453.3326   1023.2656 307.7156387  +6.4670224     14322.27     24170.53     26305.15     89.53331     160.0153     297.0967      1.806     6.21     1355.958     67.73503     2073.923        41     2.103     0.867   1.67  24
        18    242.2056    994.6649 307.8047767  +6.4717557      535.814     1301.813     1086.153     95.71513     191.8899     384.0092      2.362     4.95     1354.008     67.73503     106.9449         5     1.119     0.619 -65.64   0
        19    524.0181    990.4073 307.6872233  +6.4830032     1077.463     3600.412     3940.737      95.8684     191.8134     384.0857      2.693    10.67     1353.732     67.73503     158.9147        26     1.895     1.675 -17.95   0
        20    935.6766    991.1443 307.5152650  +6.4965043       726.08     1064.003     1573.659     96.32674     192.1957     384.2003      1.921     5.07     1348.623     67.73503     119.4104         5     0.985     0.737 -13.17   0
        21    897.8796    987.0516 307.5311887  +6.4969336     3084.477     6055.993     6426.066     96.32674     192.1957     384.2768      2.040     4.88     1348.692     67.73503     379.1716        32     1.657     1.224 -38.19   0
        22    571.1210    986.0912 307.6676958  +6.4863729      2803.95     8158.116     8989.852     96.02142     192.4247     384.3532      2.580     6.78     1352.903     67.73503     351.6531        52     2.097     1.649 -40.71   0
        23    920.4144    979.4419 307.5220317  +6.5008388      2225.83     4475.227     4877.495     95.56162     191.9664      383.971      2.148     6.48     1347.995     67.73503     274.3018        27     1.709     1.164 -36.93   0
        24    483.3643    977.2880 307.7046440  +6.4870685     3135.564     9482.348      10670.4     96.32674     192.0428     384.2768      2.662     7.10     1353.252     67.73503     365.8896        51     1.995     1.721 -34.91   0
        25    331.7255    976.9578 307.7679870  +6.4821028     1018.122     1972.287     2765.778      96.1742     192.2721      384.315      1.930     6.43     1354.153     67.73503     139.9696        12     1.737     0.669 -62.05   2
        26    328.1494    976.6458 307.7694911  +6.4821115     964.6619     2142.301     2719.757     96.47903     192.0428     384.3532      2.272     8.32      1354.17     67.73503     145.9567        12     1.827     1.059 -89.01   3
        27    839.4469    972.5007 307.5560822  +6.5010014     1560.258     3469.216     4863.062     96.32674     192.0428     384.5441      2.799     8.19     1348.324     67.73503     177.7228        24     1.693     1.108 -19.95   0
        28    846.8890    966.3469 307.5531802  +6.5037986     1240.953     2532.528     3961.673     96.32674     191.9664     384.4296      3.034     7.53     1347.768     67.73503     173.8202        16     1.770     0.896 -27.50   0
        29    670.8895    963.2057 307.6267956  +6.4991982     1428.434     3818.846     4079.314     95.71513     191.8134      383.971      2.523     8.58     1349.261     67.73503     196.6021        30     2.003     1.543 -41.42   0
        30    343.9651    960.5128 307.7634295  +6.4893236     1558.144     3108.165     4022.666     96.32674     192.0428     384.2768      2.762     8.96     1353.362     67.73503     184.3102        22     2.122     1.056 -89.87   2
        31    340.3564    960.0197 307.7649533  +6.4894063     973.4437     2058.253     4557.228     95.71513     192.0428     384.0857      6.390    11.72     1353.351     67.73503     151.5154        20     3.104     1.232  81.24   2
        32    569.8101    958.1475 307.6691831  +6.4978986     4132.586     12679.06     15774.13     95.56162     192.0428      383.971      2.787     6.95     1351.823     67.73503     479.2183        68     2.340     1.804 -36.63   0
        33    732.7341    954.3139 307.6012635  +6.5049545     7564.579     20672.14     26147.26     96.32674     192.4247     384.3532      2.748     6.74     1348.193     67.73503     868.1949        82     2.629     1.721 -45.17   0
        34    253.6077    956.2936 307.8013095  +6.4880267     990.8411      1922.56     2985.353      95.8684     191.8134     384.0475      2.508     8.56     1353.041     67.73503     149.3682        13     1.959     1.044 -33.83   3
        35    253.9920    954.0000 307.8012264  +6.4889892     996.9851      2240.42     3497.206     95.40786     191.7368     384.0092      2.642     8.18      1352.98     67.73503     153.8945        15     2.520     0.742  -0.88   2
        36     33.5175    962.7842 307.8930085  +6.4779138     963.5821     2658.719     2977.926      95.8684     191.8134     384.1239      2.731     8.55     1351.357     67.73503     152.4884        16     1.790     1.140  58.16   0
        37     70.2530    947.1755 307.8781943  +6.4856166     1903.094     5755.238     6584.835     95.71513     192.1957     384.1239      2.659     8.06       1351.7     67.73503      274.395        45     2.134     1.722 -47.73   0
        38    917.7668    948.4470 307.5241761  +6.5135833     881.9163     1788.085     2068.171     96.02142     192.1957     384.2003      1.997     5.60     1345.837     67.73503     127.7904        10     1.780     0.497 -20.32   2
        39    971.6534    944.0765 307.5018149  +6.5171962     2655.346     5984.709     7228.912     96.47903     192.1957     384.2768      2.425     6.01     1344.316     67.73503     289.9473        38     1.837     1.421 -25.72   0
        40    708.6185    944.2173 307.6116750  +6.5083260       1092.5     2568.611     2819.287     96.02142     191.8899     384.2003      2.270     5.91     1348.194     67.73503     146.9348        11     1.599     0.615 -10.24   0
        41    306.2362    940.4142 307.7798648  +6.4963744     1391.747     3475.399     4971.105      95.8684     191.9664     384.0092      3.030     7.91     1352.935     67.73503     185.6282        23     1.776     1.304   6.02   2
        42    662.4950    938.2208 307.6311412  +6.5092611     789.3349     1749.015     2698.558      96.1742     191.9664     384.0475      3.034     6.58     1348.879     67.73503     103.5883         9     1.173     1.037  50.86   0
        43    671.0027    926.2986 307.6279883  +6.5144829     6006.636     18431.19     22167.77     96.02142     191.8899     383.8945      2.722     6.75     1348.356     67.73503     718.7305        68     2.162     1.819 -34.64   0
        44    773.6698    927.4550 307.5850671  +6.5174478     1038.105     2474.285     2546.824     96.32674     192.0428     384.2003      2.591     5.41     1346.886     67.73503     203.2123        14     1.383     1.089 -11.04   0
        45    787.5015    927.8178 307.5792776  +6.5177612     644.1219     1269.333     2137.577     96.32674     192.0428      383.971      2.909     3.01     1346.902     67.73503     153.8542         5     1.005     0.592 -24.43   0
        46    591.8664    922.4017 307.6611729  +6.5134395      1272.09     3544.168     4054.391     95.56162     191.7368     384.0092      2.501     8.06     1349.541     67.73503     187.4087        27     1.903     1.385  52.49   0
        47    564.4122    917.5806 307.6728021  +6.5145134      5920.14     19811.32     29018.98     96.02142     191.8899     384.1621      3.226     8.34     1350.374     67.73503     613.7657       102     2.741     2.156  29.43   0
        48    896.1643    915.8767 307.5342908  +6.5263456     2013.049     5056.853     5134.726      96.1742     192.2721      384.315      2.346     5.86     1343.993     67.73503     261.1453        36     1.660     1.556 -14.33   0
        49    335.4317    912.5132 307.7686118  +6.5089095     10360.53     35112.46     44521.02     96.47903     191.9664     384.2003      2.906     7.57     1351.798     67.73503     1213.397        93     2.316     2.054 -39.47   0
        50     82.7405    913.0255 307.8741334  +6.5001771      795.902     2221.894     2260.397      95.8684     192.1957     384.0857      2.441     5.83     1350.559     67.73503     125.5503         8     1.531     0.625  63.67   2
        51    851.5894    910.7801 307.5530803  +6.5269631     693.7542     2210.389     2933.708      95.8684     191.8134     384.1239      3.383     8.74     1344.506     67.73503     113.8331        11     2.301     0.928 -24.70   0
        52    864.9422    906.3633 307.5476511  +6.5292391     2447.609     6018.877     6844.144     96.32674     192.1957     384.2768      2.471     6.61     1344.001     67.73503     288.4768        43     2.084     1.441 -31.40   0
        53    192.9408    903.2512 307.8284378  +6.5079423     5210.674     16967.58     21570.03     96.32674     192.1957     384.2768      2.916     7.52     1350.717     67.73503     593.8093        77     2.221     2.040 -54.95   0
        54   1019.4934    904.4600 307.4831589  +6.5351994     2708.182     5698.621     5914.908     96.17421     192.1193     358.5839      2.139     5.35     1341.218     67.73503     349.5212        34     1.683     1.339 -42.99  16
        55     16.0326    907.3770 307.9021850  +6.5002627     778.4567     1661.367     2522.832     95.71513     191.9664     384.0092      2.344     4.83     1350.696     67.73503     140.5529         7     1.437     0.459   6.55   0
        56    997.4453    893.1699 307.4927465  +6.5391366     5185.201     11546.13     12568.56      95.8684     192.2721     384.1239      2.256     5.49     1341.212     67.73503      582.479        47     1.895     1.404 -42.55   0
        57     93.4952    891.8455 307.8703576  +6.5093091     1941.785     6393.519     8314.149     96.32674     192.1193     384.4296      2.902     8.68     1349.428     67.73503     262.3556        50     2.124     1.749 -56.48   0
        58    115.6192    887.2086 307.8612740  +6.5119757     1136.414     3024.966     3728.059     96.02142     191.8899     384.0475      2.594     7.68     1349.261     67.73503     156.8877        24     1.802     1.402   8.50   0
        59    340.4335    881.3057 307.7675749  +6.5219988     810.4934     1904.573      2219.14     96.47903     192.0428     384.3914      2.467    10.28     1351.284     67.73503     104.9087        13     1.943     1.516  -8.12   2
        60    337.0000    880.9868 307.7690198  +6.5220152     677.6683      1534.84     2015.874     95.71513     191.7368     384.0092      2.416     3.88     1351.304     67.73503     96.48914         5     0.845     0.510 -65.50   3
        61    392.5973    875.8652 307.7459705  +6.5260074     2563.247     8953.918     11721.22     95.56162     191.8899     384.0092      2.995     8.09     1350.852     67.73503     309.9409        62     2.185     1.962 -53.23   0
        62    732.6296    872.8843 307.6040414  +6.5386661     5270.846     15728.57     19751.26     96.32674     191.9664     384.1239      2.854     7.65     1345.052     67.73503     560.9069        78     2.784     1.792 -12.33   0
        63    976.9351    867.8858 307.5021606  +6.5489193     1974.353     4530.733     4949.073     96.47903     192.4247      384.315      2.349     6.66     1340.356     67.73503     293.3641        32     1.823     1.299 -32.10   0
        64    441.1147    858.6364 307.7262858  +6.5347733     1091.625     3058.861     3976.879     96.32674     192.1193     384.2768      2.605    10.12     1349.806     67.73503     138.2129        25     1.941     1.470  12.15   0
        65    798.3305    855.8009 307.5771711  +6.5479422     14415.67     41392.39     51099.23     95.71513     191.6602     384.0475      2.733     6.57     1342.141     67.73503     1659.867        87     2.296     1.849 -47.56   0
        66    410.3607    859.0560 307.7391173  +6.5335648     753.0577     1300.031     2271.207     96.32674     192.2721     384.2386      2.144     5.67     1350.296     67.73503     94.86255         9     1.614     0.561  76.95   0
        67    414.7639    859.1046 307.7372765  +6.5336929     731.8894     1863.235     2552.503     96.47903     192.0428     384.4296      3.016     5.02      1350.25     67.73503     129.7656         7     1.353     0.528 -12.90   0
        68    570.5602    847.8126 307.6725809  +6.5436065     1114.195     3186.689     4366.806     95.71513     191.9664     384.0092      2.999     9.77      1346.22     67.73503     159.2214        25     1.662     1.603  -8.75   0
        69    654.8574    841.8997 307.6375682  +6.5488855     27955.73     94419.69     119123.6     96.02142     192.1957     384.5441      2.882     7.38     1343.938     67.73503     3446.538       117     2.381     2.060 -39.57   0
        70     55.0691    840.3007 307.8881497  +6.5293523     1770.268     3401.339     4556.365     96.32674     192.3484     384.2768      2.172     8.42     1347.415     67.73503     247.3621        21     2.063     0.961   3.84   3
        71     56.0882    836.7841 307.8878429  +6.5308426     2282.594     5039.005     7223.823     96.02142     191.8899     384.0857      2.556     8.55     1347.245     67.73503     260.2744        36     2.313     1.179   3.55   2
        72    519.6187    839.0617 307.6941538  +6.5455178     679.8186     1621.328     2393.244      95.8684     192.1193     384.1239      2.150     3.55      1347.15     67.73503     116.2928         5     1.259     0.289 -57.09   2
        73    516.4895    837.7228 307.6955059  +6.5459669     910.4141     2001.147     2991.977      96.1742      192.501     384.3532      2.892     6.80     1347.158     67.73503     131.7594        10     1.652     0.785  -6.09   2
        74    500.5728    834.9203 307.7022488  +6.5465922       2341.9     8387.035     11117.51      96.1742     192.0428     384.2768      3.043     8.86     1347.295     67.73503      302.556        60     2.271     1.905 -48.43   0
        75    363.6451    830.2191 307.7596020  +6.5439318     7764.868     30194.06     40234.63      95.8684     192.0428     384.0092      3.080     8.33     1349.698     67.73503     950.3728        92     2.392     2.145 -46.13   0
        76    230.6438    831.6754 307.8151067  +6.5388479     1053.701     2853.281     3190.523      96.1742     192.2721      384.315      2.531     8.17     1349.483     67.73503     137.7303        18     1.892     0.985  21.12   0
        77    454.3101    822.3422 307.7219965  +6.5502442     1780.791      3179.95     4348.238      96.1742     192.1193     384.4296      1.880     6.35     1347.829     67.73503     236.2755        14     1.659     0.682 -51.70   3
