#   1 NUMBER                 Running object number                                     
#   2 X_IMAGE                Object position along x                                    [pixel]
#   3 Y_IMAGE                Object position along y                                    [pixel]
#   4 ALPHA_J2000            Right ascension of barycenter (J2000)                      [deg]
#   5 DELTA_J2000            Declination of barycenter (J2000)                          [deg]
#   6 FLUX_APER              Flux vector within fixed circular aperture(s)              [count]
#   9 FLUXERR_APER           RMS error vector for aperture flux(es)                     [count]
#  12 FLUX_RADIUS            Fraction-of-light radii                                    [pixel]
#  13 FWHM_IMAGE             FWHM assuming a gaussian core                              [pixel]
#  14 BACKGROUND             Background at centroid position                            [count]
#  15 THRESHOLD              Detection threshold above background                       [count]
#  16 FLUX_MAX               Peak flux above background                                 [count]
#  17 ISOAREA_IMAGE          Isophotal area above Analysis threshold                    [pixel**2]
#  18 A_IMAGE                Profile RMS along major axis                               [pixel]
#  19 B_IMAGE                Profile RMS along minor axis                               [pixel]
#  20 THETA_IMAGE            Position angle (CCW/x)                                     [deg]
#  21 FLAGS                  Extraction flags                                          
         1     27.0304     71.2618 307.9358921  +6.6322606     709834.9      1432504      1541170      77.6264     155.3764     310.5983      2.098    11.65     824.7384     54.75889     60882.46       431     2.237     1.691 -40.87   4
         2    646.6724     13.8984 307.6803273  +6.6766747     3464.964     4952.012       5521.1      77.6264     155.4998     310.6601      1.475     3.77     815.5895     54.75889      563.925        18     1.389     0.711 -43.17   2
         3    465.8109     15.8628 307.7554207  +6.6698268     24323.76     35565.37     36818.19     77.37878      155.191     310.4747      1.515     3.82     817.0823     54.75889     4020.818        41     1.555     0.874 -40.76   0
         4    286.4520     16.2744 307.8299394  +6.6636590     10190.99     14684.42     15326.17     77.87322     155.4381     310.6601      1.546     3.97     822.6186     54.75889     1510.276        33     1.489     0.919 -39.66   0
         5    943.4564     15.9533 307.5569233  +6.6857076     2103.098     3323.427     2986.038     77.87322     155.3764     310.7527      1.639     4.36     813.6079     54.75889     279.7973        20     1.487     0.826 -42.75   0
         6     51.7437     15.9925 307.9274782  +6.6559097     2448.112     3471.079     3367.524     77.25468     155.2528     310.4438      1.421     3.34     821.0234     54.75889      375.241        21     1.384     0.808 -41.83   0
         7    274.2870     12.8463 307.8351092  +6.6646672     3341.723     4855.625      5613.81     77.87322     155.2528     310.6601      1.537     4.01     822.0464     54.75889     526.0436        21     1.472     0.764 -41.51   0
         8    327.4714     10.8998 307.8130739  +6.6672508     1139.247     1526.691      1482.35      77.6264     155.4998     310.6909      1.383     3.80     822.7568     54.75889     217.9722        12     1.308     0.610 -38.61   0
         9    964.3775      5.9840 307.5485605  +6.6905194     1223.725     1635.495     1705.638      77.6264      155.191     294.5519      1.469     5.29     812.6925     54.75889     206.9325        11     1.208     0.662 -52.01  16
        10    715.6677      5.4369 307.6519372  +6.6824684     1988.555     2885.035     3142.324     77.74991     155.3764     289.2928      1.496     4.30     815.3192     54.75889     334.1578        16     1.298     0.688 -40.06  16
        11    120.4268      5.7670 307.8992814  +6.6624354     601.2209     925.0345     1185.657     77.37878     155.1291     292.3284      1.698     4.43     817.6777     54.75889     85.03223         7     1.239     0.451 -50.32  16
        12    226.1796      1.6944 307.8554735  +6.6676609     654.3376     694.3405     756.3821     71.84901     128.6915      239.421      1.227     3.74     819.4775     54.75889     145.8432         6     0.942     0.427 -38.55  24
        13    280.6786      1.3732 307.8328374  +6.6696183     514.3137     643.5875     990.2316     68.00693       124.06     234.2759      0.946     2.84      822.337     54.75889     124.6564         5     0.707     0.470 -12.57  24
        14    457.4035   1005.2283 307.7258723  +6.2610286     3937.378     5873.182     6488.253     77.37878     155.1291     310.5056      1.610     3.68     848.0145     54.75889     541.1636        26     1.491     0.892 -38.45   0
        15    825.0433   1023.4258 307.5726099  +6.2657653      7029.34     9447.822     9459.326     70.36464     127.0406     237.5703      1.363     4.91     845.9221     54.75889     1381.339        20     1.444     0.700  -8.40  24
        16     95.7449   1023.7414 307.8754182  +6.2412901     2932.857     3673.318     3980.662     67.01199     122.5034     232.6318      1.113     2.98      842.717     54.75889     727.8159        11     1.248     0.432  -3.45  24
        17    734.7406   1004.2526 307.6107450  +6.2706773     1277.343     1994.622     2689.936     77.87322     155.3146     310.6601      1.722     4.58     846.1298     54.75889     168.9414        17     1.477     0.826 -48.13   0
        18    598.7032   1003.9932 307.6672415  +6.2662524     3904.251     6475.199     7286.323      77.6264     155.0054     310.4129      1.771     4.06     848.0093     54.75889     489.9722        30     1.637     1.031 -42.49   0
        19    774.6528   1000.5038 307.5942965  +6.2735537     1180.243     2115.609     2794.471     77.74991     155.3764     310.9071      1.823     5.27     845.6227     54.75889     147.4005        17     1.464     0.862 -36.88   0
        20    982.1148    994.5502 307.5083458  +6.2829092     5531.162     10588.74     11280.65     77.87322     155.3764     310.7527      2.027     4.66     842.4664     54.75889     619.4352        43     1.761     1.299 -44.56   0
        21    266.7590    994.5342 307.8053893  +6.2590741     1337.515     2205.132     2337.497     77.87322     155.3146     310.7527      1.768     4.56     846.0411     54.75889     175.5024        17     1.360     0.892 -42.67   0
        22    736.3984    995.1856 307.6103584  +6.2744764     891.8496     1479.103     1666.005     77.50269     155.0673     310.4438      1.512     3.69     846.0046     54.75889     150.0975         6     1.181     0.331 -38.46   3
        23    741.8138    992.7183 307.6081917  +6.2756755     2621.022      4508.18     5267.679     77.50269     155.1291     310.4747      1.923     5.65     845.9041     54.75889     338.3748        27     1.734     0.964 -43.93   2
        24    464.8262    993.4034 307.7231848  +6.2661590      822.845     1167.234     1640.091     77.37878     155.1291     310.5056      1.381     4.55     847.6802     54.75889     131.4747         8     1.136     0.519 -54.08   0
        25    757.5149    991.6779 307.6017066  +6.2766277       1016.9     1790.821     2008.661     77.87323     155.6848     310.7527      1.991     6.64     845.6539     54.75889     146.1407        14     1.359     0.910 -51.22   0
        26    388.4303    990.1099 307.7550165  +6.2649679     1892.171     2914.256      3363.06     77.99635      155.191     310.6292      1.683     5.00     847.5726     54.75889     243.2744        22     1.609     0.954 -55.35   0
        27    727.1945    986.8339 307.6144582  +6.2776185     551.1566     830.8193     856.7588     77.13038      155.191     310.4438      1.461     3.75     845.9043     54.75889     98.44165         5     1.388     0.291 -78.61   0
        28    775.3984    979.7200 307.5946783  +6.2821606      7396.88     12120.78     12892.28     77.25468     154.8196     310.4438      1.763     4.18      845.114     54.75889     848.4648        38     1.648     1.077 -41.77   0
        29    570.8483    980.2568 307.6795991  +6.2751247     4227.315      6826.87     7525.496     77.87322     155.3764     310.7836      1.739     4.14     847.3972     54.75889     563.6721        29     1.588     0.996 -39.92   0
        30    541.0169    981.7170 307.6919376  +6.2735268     1029.802     1552.604     1408.792     77.50269     155.0673     310.5983      1.556     4.79     847.4597     54.75889     137.6306        10     1.305     0.587 -54.07   0
        31    321.1348    978.9804 307.7833312  +6.2673145        14829     23556.37      25515.9     77.50269     155.3764     310.5056      1.705     4.20     846.7649     54.75889       2060.2        52     1.936     0.985 -37.82   0
        32    445.4721    979.5699 307.7316829  +6.2712249     1083.707     1548.164     1424.733     77.74991     155.3764     310.6292      1.627     4.66     847.2556     54.75889     182.8421        12     1.348     0.702 -40.29   0
        33     17.0676    980.4960 307.9095338  +6.2565093     771.6245     1314.119     1719.756     77.87322     155.4998     310.6601      1.752     4.61     839.9019     54.75889      116.488         7     1.119     0.540 -23.73   0
        34    836.2978    978.9868 307.5694140  +6.2844894     1164.497     2106.406     1796.525     77.74991     155.1291     310.4129      1.821     4.99     844.5276     54.75889     171.2151        18     1.490     0.904 -41.81   0
        35    292.5420    976.3771 307.7952907  +6.2674335     931.3457     1621.004     1346.104     77.50269     155.3764     310.5056      1.728     5.25     846.1907     54.75889     137.8456        10     1.443     0.540 -42.79   0
        36    936.7019    973.1119 307.5279157  +6.2902530     7600.471     13656.29     14250.23     77.87322      155.808     310.6909      1.918     4.35     842.5549     54.75889     944.1344        44     1.703     1.279 -45.94   0
        37    568.1010    972.4770 307.6809992  +6.2782455     8159.409     12989.38     13156.75     77.50269     155.5615     310.6909      1.679     4.08     847.2037     54.75889     1134.229        35     1.606     0.985 -39.38   0
        38     66.7150    972.2037 307.8891978  +6.2615973     591.4116     892.9421     789.1855     77.37878     155.0054      310.382      1.651     7.02     840.8585     54.75889     93.89807        10     1.364     1.012   1.75   0
        39    910.3364    969.3306 307.5389898  +6.2909383     10968.55     19684.99     21433.33     77.87322     155.3764     310.7218      1.945     4.44     843.0374     54.75889     1226.186        53     1.848     1.264 -38.19   0
        40    622.8907    969.7219 307.6583399  +6.2812098     1341.721     2276.905      2636.64      77.6264     155.6232     310.7218      1.860     5.26     846.8513     54.75889     156.4928        18     1.360     0.947 -30.45   0
        41     20.3398    971.0001 307.9084935  +6.2605398     679.7741     966.9675      1455.42     77.13038     155.1291     310.3201      1.783     5.29     839.8271     54.75889     85.20367         8     1.093     0.724 -34.32   0
        42    554.4612    968.3834 307.6867995  +6.2794809     4234.751     6898.166     7813.214     77.37879     155.3146     310.4747      1.819     4.17     847.1278     54.75889     564.3771        33     1.654     1.079 -21.55   0
        43    664.3473    967.4639 307.6412003  +6.2835236     1308.755     1946.958     1525.394     77.87323     155.3146     310.6292      1.648     4.38      846.126     54.75889     201.8975        18     1.376     0.914 -21.67   0
        44    819.0084    965.9726 307.5770262  +6.2892882     608.3588     835.6309     816.2207     77.50269      155.191     310.5056      1.436     5.25     844.1701     54.75889     80.60364         7     1.045     0.745  86.68   0
        45     89.0069    966.9097 307.8801192  +6.2645301     837.5753     1208.476     1484.515     77.50269     155.0673     310.4438      1.574     3.53     841.2191     54.75889     171.6764         8     1.121     0.603 -41.31   0
        46    507.6552    964.6894 307.7063586  +6.2794448     2073.226     3320.539     3319.516     77.87322     155.2528     310.7836      1.714     4.58     846.9548     54.75889     304.9615        21     1.606     0.809 -37.17   0
        47    942.0806    956.8354 307.5262227  +6.2971527     38085.62     68074.06     73243.95     77.74991     155.4381     310.6909      1.920     4.24     842.0694     54.75889     4620.976        73     1.816     1.305 -44.47   0
        48     14.8298    956.7365 307.9112594  +6.2662445      3229.38     4745.177     4626.782      77.6264     155.3764     310.5983      1.545     3.75     839.5058     54.75889      423.444        24     1.484     0.839 -35.92   0
        49    249.3826    955.1938 307.8139199  +6.2747367     1876.364       2812.3     3281.336     77.50269     155.1291     310.5056      1.631     4.51     844.7154     54.75889     280.4431        19     1.485     0.822 -37.27   0
        50    648.3256    953.2919 307.6483254  +6.2888416       915.54     1324.325     1583.215     77.87322     155.4998     310.6601      1.630     4.61      846.235     54.75889     129.5722        13     1.262     0.905 -18.79   0
        51    137.3676    954.2433 307.8604632  +6.2713800     681.0408     799.3856     504.0343     77.50269     155.3146     310.4747      1.386     3.82     842.0741     54.75889     106.9748         6     0.867     0.509 -48.24   0
        52    839.9099    950.6824 307.5688551  +6.2962970     2263.389      3577.98     3634.393      77.6264     155.6232     310.7527      1.743     4.15     843.6469     54.75889     312.7386        23     1.438     1.003 -41.64   0
        53    788.2209    948.5161 307.5903916  +6.2954720     6348.788      10411.9     11727.38      77.6264     155.0673     310.5365      1.791     4.06     844.0281     54.75889     773.4874        37     1.609     1.152 -40.26   0
        54    257.5543    947.8065 307.8107738  +6.2780603     1472.003     2374.983     2062.504     77.37878     155.1291     310.3201      1.692     5.48     844.7548     54.75889     179.8109        19     1.602     0.827 -40.71   0
        55    575.1661    947.9311 307.6788837  +6.2886164     934.4792      1576.68     1540.968     77.74991     155.3764     310.7218      1.717     5.97     846.5957     54.75889     117.7763        15     1.410     1.034 -29.88   0
        56    221.7580    947.3777 307.8256518  +6.2770398     853.5256      1077.82     1236.263     77.50269     155.2528     310.4438      1.358     3.98     843.9615     54.75889      135.931         9     1.054     0.621 -42.68   0
        57     82.5850    945.7468 307.8834946  +6.2730531     2786.757     4240.125     4058.444     77.25468     155.3146      310.382      1.589     3.81     840.6235     54.75889     408.6895        21     1.608     0.791 -38.94   0
        58    976.4045    943.5700 307.5124096  +6.3037705     5874.697     10613.56     11797.04     77.37879      155.191     310.4747      1.930     4.32     841.2086     54.75889     732.6757        39     1.646     1.236 -45.35   0
        59    232.9132    939.3582 307.8212881  +6.2807243     595.1722     953.4343     941.7377     77.87322     155.3146     310.6909      1.503     5.96     844.0413     54.75889      88.5871         6     1.443     0.692 -25.98   0
        60    658.4534    937.8080 307.6446355  +6.2955726     785.7591     1246.343     1076.388     77.37878     155.2528      310.382      1.765     5.18     846.0359     54.75889      127.894         8     1.252     0.605 -14.80   0
        61    950.0576    935.2842 307.5236259  +6.3063167     1910.034     3255.982     3648.743     77.87322     155.3764     310.7218      1.784     4.30      841.379     54.75889     259.0715        23     1.444     1.027 -22.94   0
        62      7.4138    933.8366 307.9151063  +6.2754511     988.4827     1762.225     1921.436     77.37878      155.191     305.8665      1.879     4.87     839.0134     54.75889     172.2633        10     1.251     0.588 -26.53  16
        63    809.6042    931.7368 307.5820700  +6.3031120     1277.583     1965.881     2403.698     77.13038     155.1291     310.4129      1.664     4.93     843.1415     54.75889      179.231        17     1.454     0.822 -36.79   0
        64    670.9362    931.2623 307.6396699  +6.2986913     4474.071     7048.808     7144.394     77.87322     155.3764     310.6909      1.631     4.04     845.9783     54.75889     612.4678        28     1.587     0.882 -40.09   0
        65    283.0977    931.4495 307.8007141  +6.2856685     4667.469     6743.402     6815.527     77.87322     155.3146     310.8145      1.522     3.65     844.8654     54.75889     646.0403        26     1.481     0.828 -41.39   0
        66   1020.1954    930.6972 307.4946516  +6.3105402     662.6553     1183.459     1746.821      77.6264     155.0673     282.0715      2.153     4.83     840.1724     54.75889     84.93744         7     1.161     0.569 -56.11  16
        67    493.2477    929.6962 307.7135086  +6.2934131     1105.546     1492.064     1511.525     77.74991     155.2528     310.8145      1.483     5.44     845.8929     54.75889     165.8111        12     1.388     0.601 -31.99   0
        68     51.8229    928.9163 307.8968316  +6.2789715     2149.903     3358.276      3619.38     77.74991     155.1291     310.5674      1.643     4.10     839.7125     54.75889     303.2919        21     1.452     0.873 -30.93   0
        69    902.6328    927.6425 307.5435740  +6.3078962     834.2921     1264.387     1066.543      77.6264     155.3764     310.5056      1.744     7.01     842.0852     54.75889     95.76868        15     1.428     0.965 -25.90   0
        70    974.5475    924.8519 307.5138022  +6.3114380     749.9272      1234.01     1771.723     78.11927     155.2528     310.6909      2.063     6.95     840.7884     54.75889     102.1386        11     1.433     0.946 -59.10   0
        71    319.3298    925.2281 307.7858770  +6.2894489     800.9739     1316.672     1784.276      77.6264     155.3764     310.5983      1.845     5.24     845.1912     54.75889     137.9761        12     1.276     0.855 -25.02   0
        72    595.4058    923.8540 307.6712816  +6.2992331     1691.263     2701.173     2740.708     77.37878     155.1291      310.351      1.666     4.60     845.9829     54.75889     246.4927        19     1.541     0.748 -36.65   0
        73     84.1544    921.0212 307.8836712  +6.2833148     850.2183     1375.823     1249.262     77.50269     155.3764     310.5056      1.507     4.56     840.1009     54.75889     152.6106        10     1.342     0.607 -64.20   0
        74    634.9580    920.2739 307.6549763  +6.3020298     1272.356     1784.176     1768.459     77.74991     155.4381     310.6909      1.505     4.24     845.8626     54.75889     171.2965        15     1.264     0.831 -35.67   0
        75     79.1580    919.8384 307.8857855  +6.2836358     508.9986      825.696     1034.869      77.6264     155.3764     310.5365      1.324     3.90     839.9853     54.75889     85.57251         6     0.776     0.561 -32.95   0
        76    314.4142    918.0513 307.7881581  +6.2922479     1449.595     2025.993     2117.873     77.25468     155.3764     310.4129      1.509     4.11     844.9088     54.75889     204.5586        13     1.221     0.711 -42.25   0
        77    582.2470    916.6808 307.6769850  +6.3017563      834.341     1149.025      997.187     77.87322     155.3764     310.6909      1.463     4.04     845.9243     54.75889     146.4463        10     1.086     0.733 -35.38   0
