#   1 NUMBER                 Running object number                                     
#   2 X_IMAGE                Object position along x                                    [pixel]
#   3 Y_IMAGE                Object position along y                                    [pixel]
#   4 ALPHA_J2000            Right ascension of barycenter (J2000)                      [deg]
#   5 DELTA_J2000            Declination of barycenter (J2000)                          [deg]
#   6 FLUX_APER              Flux vector within fixed circular aperture(s)              [count]
#   9 FLUXERR_APER           RMS error vector for aperture flux(es)                     [count]
#  12 FLUX_RADIUS            Fraction-of-light radii                                    [pixel]
#  13 FWHM_IMAGE             FWHM assuming a gaussian core                              [pixel]
#  14 BACKGROUND             Background at centroid position                            [count]
#  15 THRESHOLD              Detection threshold above background                       [count]
#  16 FLUX_MAX               Peak flux above background                                 [count]
#  17 ISOAREA_IMAGE          Isophotal area above Analysis threshold                    [pixel**2]
#  18 A_IMAGE                Profile RMS along major axis                               [pixel]
#  19 B_IMAGE                Profile RMS along minor axis                               [pixel]
#  20 THETA_IMAGE            Position angle (CCW/x)                                     [deg]
#  21 FLAGS                  Extraction flags                                          
         1    432.9721     32.4271 307.7557987  +6.6696409     14997.94     32571.24     36404.62     87.54823     175.5868     351.3135      2.240     5.01     1089.095     61.95553     1538.052        69     1.911     1.580 -70.59   0
         2    171.0528     14.8782 307.8652912  +6.6681092     7512.834     15626.53     17261.29     88.10765     175.7966     351.4883      2.199     4.76      1105.84     61.95553     856.7278        54     1.812     1.510 -72.29   0
         3    515.3293     13.1339 307.7222085  +6.6803629     2017.134     4237.944     4531.111     88.10765     175.8664     351.4883      2.142     5.48     1085.504     61.95553     201.8966        31     1.618     1.315 -34.76   0
         4    916.4984     12.3088 307.5554312  +6.6940909     3561.119     6147.524     6416.339     88.10765      176.285     351.4534      1.857     4.15     1073.921     61.95553     423.0126        32     1.606     1.161 -66.89   0
         5    453.2262     11.6715 307.7480796  +6.6788893     1267.293     2522.556     2711.622     87.68842     175.6568     351.4184      2.084     6.87     1087.792     61.95553     143.5878        17     1.261     1.048 -48.79   0
         6    717.4299     10.9706 307.6382496  +6.6880075      1486.52     2881.975      2521.98     87.54823     175.5169     351.2086      1.957     6.45     1077.288     61.95553     169.2803        22     1.432     1.214  81.74   0
         7    981.3475      8.6926 307.5285881  +6.6977429     1894.485     2788.894      2302.18     87.96813     175.6568     351.7328      1.649     3.69     1067.973     61.95553     243.7654        17     1.111     0.988 -71.51   0
         8    700.6292      5.2820 307.6454273  +6.6897958     5573.198     10412.89     11452.13     87.96813     175.6568     325.2423      1.987     4.41     1078.202     61.95553     545.4493        40     1.548     1.354 -78.00  16
         9    620.9377      4.6059 307.6785856  +6.6874141     2516.825      5223.77      5381.39     87.40781     175.5868     316.5533      2.118     5.31     1080.883     61.95553     284.4303        33     1.586     1.424  79.82  24
        10     22.1369      1.9540 307.9276431  +6.6684443     4799.355     6620.404     6285.304     84.25952     149.6813     275.6067      1.461     4.28     1111.967     61.95553     733.7135        23     1.385     0.952 -10.67  24
        11    421.1254      2.0616 307.7617516  +6.6817832     3623.745     5489.845     5647.291      85.7049     151.4759     277.6493      1.662     4.82     1090.215     61.95553     463.6219        25     1.490     0.999  -7.92  24
        12    537.6569    996.5321 307.6797181  +6.2750241     4044.806     6381.145     7373.602     88.24696     175.7267     351.4534      1.764     3.55     1136.352     61.95553     485.9753        32     1.553     1.111 -77.89   0
        13    741.7574   1023.2163 307.5940227  +6.2708162     623.5832     754.0642     1155.979     81.89388     146.8647     272.5142      1.203     3.73     1134.438     61.95553     114.0806         5     0.913     0.437 -44.36  24
        14    709.3557   1021.1938 307.6075525  +6.2705710     7481.892     11193.28     11863.71     87.54823     172.0535     305.2943      1.606     3.24     1134.742     61.95553     1095.336        32     1.488     1.012 -69.89  24
        15    576.6893   1023.2393 307.6626008  +6.2652992     39884.47     50248.75     52523.61     82.34261     146.8647     272.1985      1.274     3.73     1136.151     61.95553     8474.103        44     1.413     0.918 -11.28  24
        16    565.6174   1020.3863 307.6672969  +6.2661076     3816.388     5985.647     6512.436     87.82838     175.4469     316.7085      1.698     3.80     1136.408     61.95553     484.7423        27     1.468     1.026 -79.36  24
        17    424.3106   1021.5612 307.7259633  +6.2609001     3619.578     5592.289     6190.196     88.10765     168.7376     300.1411      1.724     3.56     1138.533     61.95553     425.6422        25     1.363     1.010 -76.28  24
        18    206.3805   1023.3151 307.8164407  +6.2528801     1512.335     1872.996     1283.349     80.98894     145.5203     270.7053      1.242     3.70     1140.794     61.95553     281.8979        12     1.194     0.666 -18.38  24
        19    742.1915    995.8602 307.5947634  +6.2821273     7967.089      12143.5     12355.21     87.40781     175.5868     351.2436      1.609     3.43     1133.041     61.95553     1102.705        34     1.459     1.063 -71.02   0
        20    507.7368    997.6733 307.6921101  +6.2735532     1058.736     1703.786     1791.917     88.24695     175.7966     351.4883      1.722     4.13     1136.742     61.95553     127.9508        10     0.900     0.820 -87.37   0
        21    288.1494    995.1528 307.7834236  +6.2672486     13690.68      23012.1     25656.98     88.10765     175.6568     351.5233      1.849     3.51     1139.871     61.95553     1905.541        63     1.892     1.364 -45.90   0
        22    411.9356    995.6881 307.7319784  +6.2711703      1018.75     1542.196     1323.884     88.10765     176.0061     351.4883      1.751     6.48     1138.078     61.95553     118.7249        14     1.295     0.911  -3.39   0
        23    803.3866    994.7043 307.5693774  +6.2846442     1183.141     1673.498     1703.189     87.82838     175.5169     351.2786      1.591     3.95     1130.921     61.95553     165.4846        10     0.891     0.828  83.44   0
        24    258.7946    992.3845 307.7957125  +6.2674085     654.3307     1106.464     705.6115     87.68842     175.4469     351.3135      1.809     3.44     1139.789     61.95553     88.90698         5     0.777     0.441 -18.78   0
        25    903.5414    989.2540 307.5279486  +6.2902303     9622.255     13683.97     13697.49     88.24696     175.7966     351.4883      1.530     3.04     1129.026     61.95553     1339.512        33     1.344     1.027 -70.92   0
        26    534.9453    988.7173 307.6811083  +6.2781606      7864.34     12349.84      13813.3     88.10765     175.7966     351.5931      1.693     3.46     1136.129     61.95553     1017.621        37     1.519     1.136 -72.37   0
        27    877.2006    985.3987 307.5390224  +6.2909454     12774.67     19392.79     20358.53     87.40781     175.3068     351.1387      1.648     3.31     1129.499     61.95553     1879.212        46     1.509     1.224 -59.43   0
        28    590.1399    985.9857 307.6582690  +6.2811320     1281.281     2419.717     2701.497     87.54823     175.6568     351.2086      2.128     5.88     1134.784     61.95553     151.3177        18     1.553     0.945 -70.13   0
        29    521.1936    984.6116 307.6869602  +6.2793966     3641.446     6409.941     7937.496     87.68842     175.5868     351.3835      1.995     4.03     1136.205     61.95553     470.6699        31     1.443     1.209 -80.40   2
        30    998.8904    984.7232 307.4884850  +6.2952736     5370.951      7807.33     8382.109     87.96813     176.0758     351.5233      1.511     3.31     1124.868     61.95553     831.5547        27     1.394     0.934 -65.28   0
        31    630.8701    983.8912 307.6414175  +6.2833566     1465.319     2233.502     2283.721     88.10765     175.9362     351.4883      1.482     4.40      1133.94     61.95553     198.9963        12     1.247     0.681 -64.50   0
        32     55.9279    983.9399 307.8802775  +6.2640935     774.0082      1183.93     1006.909     88.24695     175.7966     351.5233      1.473     4.87     1138.715     61.95553     108.9933         7     1.148     0.584  75.51   0
        33    895.2050    984.1279 307.5315846  +6.2920696     483.3251     657.0848     787.7974     87.68842     175.3068     351.3835      1.203     4.47     1128.983     61.95553     100.6038         5     0.792     0.718  86.65   0
        34    474.6778    981.0499 307.7064060  +6.2793129     2035.772     3328.342     3157.176     88.10765     175.8664     351.4534      1.678     3.85     1136.806     61.95553     297.3328        19     1.199     1.062  22.40   0
        35    509.8777    977.2302 307.6919107  +6.2820666     567.1191     571.3359     1083.698     87.96812     175.8664     351.4883      1.322     4.97      1136.15     61.95553     89.80347         6     1.071     0.653  75.93   0
        36    908.9386    972.9875 307.5262531  +6.2971272     45500.98     67671.77     71245.95     87.54823     175.5868     351.1736      1.558     3.28     1128.023     61.95553     6719.303        67     1.557     1.161 -73.40   0
        37    314.1355    975.1804 307.7733031  +6.2763660     636.7458     1028.098     929.6348     87.68842     175.7966     351.3135      1.844     5.16     1138.822     61.95553     81.07068         6     1.080     0.696  10.13   0
        38    216.4788    971.6799 307.8139932  +6.2745404     1680.581     2528.442     2576.094     88.38603     176.0758      351.663      1.619     3.21      1139.26     61.95553      260.505        16     1.121     0.891 -77.75   0
        39    614.5575    969.6940 307.6486736  +6.2886748     748.6895     1095.262     767.0254     88.24696     175.7267     351.6281      1.532     3.44     1133.842     61.95553      116.301         5     0.727     0.470  73.26   0
        40    104.8349    970.0128 307.8604317  +6.2714855     660.3232     965.1023     1221.052     87.54823     175.5868     351.2786      1.565     4.97     1138.694     61.95553     105.9829         6     1.023     0.685  85.29   0
        41    806.8961    966.7881 307.5688587  +6.2962892     2525.131     3988.597     4047.812     87.82838     175.5169     351.2436      1.671     3.58     1129.754     61.95553     339.5919        21     1.301     0.919 -68.70   0
        42    755.1367    964.6528 307.5904358  +6.2954459      6767.02     10395.08     11748.23     88.10765     175.7267     351.4534      1.694     3.39      1131.07     61.95553     946.9429        35     1.559     1.065 -65.98   0
        43    224.5916    963.8869 307.8108865  +6.2780303     1327.809     2153.876      2120.73     87.68842     175.4469     351.2436      1.638     4.90     1139.039     61.95553     189.7115        18     1.282     1.132 -19.77   0
        44    541.9731    963.9228 307.6790251  +6.2886341     745.1318       1118.6     913.0388     87.96813     175.7267     351.4534      1.406     4.31     1135.185     61.95553     119.3358         7     1.002     0.559 -57.24   0
        45    188.9766    963.1995 307.8257061  +6.2771205     859.6928     1368.985     1248.115     87.68842     175.4469     351.2436      1.672     5.59     1138.988     61.95553     106.8647        10     0.989     0.897  27.23   0
        46     49.7772    962.0601 307.8835745  +6.2729218     2597.447     4284.968     4033.468     87.68842     175.7267     351.3835      1.737     3.81     1138.476     61.95553     316.0656        23     1.389     0.996 -79.85   0
        47    943.1766    959.8140 307.5124704  +6.3037066     7208.828     10468.32      10362.8     87.82838     175.5868     351.3835      1.527     3.13     1126.216     61.95553     1157.835        29     1.379     0.954 -71.29   0
        48    199.0500    956.1118 307.8217611  +6.2803849     624.8093     1100.588     1276.496     88.10765     175.5868     351.6281      1.942     5.00     1138.777     61.95553     105.5088         7     1.098     0.645 -63.82   0
        49    624.6760    954.1741 307.6449928  +6.2954214     581.5707     906.9504     923.8758     87.68842     175.7267     351.4534      1.661     4.05     1133.188     61.95553     105.4507         6     0.928     0.635 -16.02   0
        50    917.0190    951.1784 307.5236289  +6.3064023     2111.818     2983.813      2765.99     87.82838     175.7267     351.4184      1.468     4.16     1126.611     61.95553     311.1309        17     1.333     0.846 -69.21   0
        51    637.7448    947.3763 307.6397922  +6.2986647     4474.872     7315.972     6977.445     87.68842     175.8664     351.2786      1.721     3.54     1132.614     61.95553     576.7896        34     1.525     1.135 -65.31   0
        52    250.0146    947.8632 307.8008667  +6.2854988     4102.583     6632.175     7069.515     87.54823     175.6568     351.3135      1.734     3.49     1138.598     61.95553     536.7668        27     1.394     1.075 -71.14   0
        53    776.5224    948.3548 307.5820991  +6.3028890     1254.729      1756.57     1935.108     87.96813     175.8664     351.4883      1.607     3.86     1129.698     61.95553     158.4509        13     1.003     0.892 -48.49   0
        54    987.1998    947.3786 307.4945968  +6.3103064     846.6054     1421.414     1145.071     87.68842     175.4469     351.1387      1.541     3.54     1123.872     61.95553     156.4509         7     1.140     0.418 -66.58   0
        55    459.7117    946.1578 307.7138022  +6.2932210     984.5728     1704.072     1388.943     88.10765     175.7267     351.5233      1.655     6.08     1136.306     61.95553     137.9076        12     1.377     0.754 -37.21   0
        56     18.6522    945.2881 307.8970739  +6.2788025     2166.656     3322.145     3587.351     88.10765     175.6568     351.6281      1.732     3.71     1138.284     61.95553     296.6039        20     1.316     0.932 -78.74   0
        57    869.5486    943.9110 307.5435970  +6.3078231      980.456      1748.65     1383.325     88.10765     175.5868     351.6281      1.587     5.33     1127.463     61.95553     159.2511        10     1.424     0.564 -69.63   0
        58    286.3036    941.1553 307.7860169  +6.2894843     904.2695     1294.272     1436.103     88.10765     175.7267      351.663      1.548     4.28     1138.388     61.95553     135.2726         7     0.895     0.842 -74.36   0
        59    993.4359    940.2619 307.4922448  +6.3134526     1068.341      1595.67     1694.113     88.10765     175.7966     351.4534      1.782     4.11     1123.366     61.95553     144.3916        12     1.247     0.736 -77.18   0
        60    941.0083    941.1300 307.5139992  +6.3113501     747.8339     657.4756     274.2445     87.54823     175.3768     351.3485      1.087     2.85     1125.307     61.95553     152.3809         7     0.873     0.690  84.09   0
        61    562.3140    939.9512 307.6713827  +6.2992125     1774.894     2851.487     2684.183     88.10765     175.7267     351.5233      1.671     4.72     1134.034     61.95553     227.2651        18     1.355     0.922 -79.66   0
        62    601.5864    936.4439 307.6551840  +6.3019722      1206.46     2009.578     1614.256     87.40782     175.5868     351.2086      1.803     3.73     1133.316     61.95553     144.0889        13     1.032     0.898 -68.80   0
        63    281.4611    934.0771 307.7882683  +6.2922450     1202.236     2184.616     2132.067     88.38603     175.8664     351.4534      1.964     4.40     1138.199     61.95553     155.3131        15     1.137     1.057  84.49   0
        64    748.3333    930.3783 307.5944166  +6.3093728     989.4877     1625.179     1554.419     87.68842     175.7966     351.4184      1.764     6.79     1129.503     61.95553     119.4508        13     1.376     0.940  81.22   0
        65    885.9532    926.6966 307.5373598  +6.3154780      7142.49     10732.76     11065.33     88.10765     175.6568      351.663      1.602     3.35     1126.125     61.95553     1022.978        33     1.469     1.032 -67.92   0
        66    422.0280    923.8781 307.7302113  +6.3011611     1905.444     2815.984     2677.369     87.96813     175.7966     351.4883      1.528     3.56     1136.439     61.95553      267.124        18     1.189     0.952 -74.47   0
        67    323.6010    922.3333 307.7711576  +6.2985055     8344.995     13977.19     14495.34     87.26718     175.3068     351.2086      1.797     3.71     1137.921     61.95553     968.2076        41     1.553     1.236 -64.06   0
        68    243.7619    921.4047 307.8043598  +6.2962150     6260.968     10491.52     10837.23     87.12631     175.5169     351.2086      1.815     3.62     1137.955     61.95553     788.0004        37     1.486     1.240 -79.52   0
        69    571.4593    915.8094 307.6683974  +6.3094871     958.9101     1399.307     1982.573     87.40781     175.6568     351.1736      1.592     4.03     1133.089     61.95553     141.2188         7     0.969     0.480  80.77   0
        70    901.6727    912.0587 307.5313205  +6.3220461      966.184     1559.028     1532.051     88.24695     175.7966     351.4534      1.866     5.25     1124.916     61.95553     134.9235        11     1.122     0.878 -73.96   0
        71    205.2097    911.9985 307.8206954  +6.2988072     592.1821     717.3965     1104.189     87.40781     175.4469     351.2086      1.436     3.77     1137.646     61.95553     81.78699         5     0.813     0.502  34.36   0
        72    857.8586    910.6567 307.5495727  +6.3211663     714.3251     1188.015     1338.932     88.24695     175.7966     351.5233      1.563     4.55     1126.086     61.95553     101.7765         6     1.100     0.534 -69.31   0
        73    968.8295    907.4641 307.5035707  +6.3261782     831.9034     1260.161     1732.695     87.82838     175.7966     351.4184      1.737     4.12     1122.597     61.95553     125.9755         7     1.024     0.568  76.42   0
        74    737.8636    904.8318 307.5996271  +6.3195732     1676.156     2728.232     3482.207     87.82838     175.8664     351.4534      2.053     3.98     1128.577     61.95553     215.0074        18     1.267     0.954 -76.18   0
        75    602.1590    901.3372 307.6561300  +6.3164885     803.2121      1246.24     914.1008     88.10765     175.7267     351.5931      1.612     4.89     1131.755     61.95553     91.01807         9     0.973     0.697 -70.44   0
        76    135.7411    901.3970 307.8499165  +6.3008557     1870.968     1862.356      1813.69     87.40781     175.5868     351.2086      0.743     0.76     1137.219     61.95553     887.4042         5     0.584     0.420 -72.12   0
        77    969.3391    900.1709 307.5036041  +6.3292069     1184.603     1981.375      2528.09     87.82838     175.7966     351.4184      2.074     5.79     1122.234     61.95553     179.8893        12     1.441     0.655 -77.88   0
