#   1 NUMBER                 Running object number                                     
#   2 X_IMAGE                Object position along x                                    [pixel]
#   3 Y_IMAGE                Object position along y                                    [pixel]
#   4 ALPHA_J2000            Right ascension of barycenter (J2000)                      [deg]
#   5 DELTA_J2000            Declination of barycenter (J2000)                          [deg]
#   6 FLUX_APER              Flux vector within fixed circular aperture(s)              [count]
#   9 FLUXERR_APER           RMS error vector for aperture flux(es)                     [count]
#  12 FLUX_RADIUS            Fraction-of-light radii                                    [pixel]
#  13 FWHM_IMAGE             FWHM assuming a gaussian core                              [pixel]
#  14 BACKGROUND             Background at centroid position                            [count]
#  15 THRESHOLD              Detection threshold above background                       [count]
#  16 FLUX_MAX               Peak flux above background                                 [count]
#  17 ISOAREA_IMAGE          Isophotal area above Analysis threshold                    [pixel**2]
#  18 A_IMAGE                Profile RMS along major axis                               [pixel]
#  19 B_IMAGE                Profile RMS along minor axis                               [pixel]
#  20 THETA_IMAGE            Position angle (CCW/x)                                     [deg]
#  21 FLAGS                  Extraction flags                                          
         1    181.8502     20.4171 307.8654146  +6.6683842     5106.857     13142.79     17586.65     90.67259     182.1426     363.7423      2.749     6.50     1178.406     64.16656     585.3323        70     2.401     1.680 -32.45   0
         2    927.2678     18.0003 307.5554376  +6.6941789       2485.8     5340.152     6108.559     90.52717     181.4904     363.7423      2.283     5.67     1139.507     64.16656     312.5371        36     1.977     1.142 -27.11   0
         3    525.8362     18.4954 307.7224018  +6.6806449       1458.2     3767.194     3448.903     91.39625     181.9255     364.1767      2.503     8.49     1151.056     64.16656     158.9655        32     1.847     1.367 -34.18   0
         4    464.5208     17.0907 307.7479538  +6.6791844     916.4552      2382.09     2658.664     90.96275     182.2872     364.1044      2.385     9.00     1153.939     64.16656     112.1559        17     1.696     1.335 -27.70   0
         5    727.9927     17.0427 307.6383623  +6.6879648     1069.576     2515.738     2576.726     90.67259     181.7806     363.7061      2.338     7.04     1145.445     64.16656     126.8792        15     1.549     0.896 -16.79   0
         6    992.0652     13.9533 307.5286203  +6.6979975     1251.646     2741.576     3203.796     91.25198     181.9979      364.032      2.380     6.80     1132.049     64.16656     177.7769        22     1.993     1.022 -25.79   0
         7    711.4566     10.7706 307.6454534  +6.6900073     4049.933     9181.425     10817.06     90.81779     182.1426     363.9234      2.468     6.09     1145.673     64.16656     447.2594        52     2.220     1.444 -27.72  16
         8    631.6501     10.1902 307.6786697  +6.6875956     2051.908     4902.236     5374.713     90.67259     181.9255     363.6699      2.418     7.40     1148.548     64.16656     231.6116        39     2.141     1.336 -27.35  16
         9    432.0055      6.3018 307.7618453  +6.6825595     3209.479     8053.896     10253.03     90.96275     181.6356     348.2725      2.672     7.22     1157.089     64.16656     372.6998        56     2.371     1.521 -24.17  16
        10     32.9490      6.1996 307.9278314  +6.6692823     4398.211     10844.44     13453.63     90.38151      181.563     347.1357      2.586     6.10      1181.24     64.16656     506.6824        64     2.314     1.597 -27.71  16
        11    328.3352      2.4265 307.8050987  +6.6807058     6242.187      11542.7     13487.26     90.81779     162.4111     293.9921      2.062     6.27     1169.515     64.16656     729.0291        40     2.205     1.044 -14.97  24
        12    102.4639      2.3001 307.8990515  +6.6732177     1299.141      2285.99     2739.152     90.38151     160.5344     291.6523      2.014     7.03     1180.409     64.16656     178.1832        16     1.799     0.771 -22.32  24
        13     94.0545      1.6175 307.9025724  +6.6732187     729.8387     1156.427      2064.14     83.09012     149.9247     279.1887      2.065     5.27     1180.569     64.16656     105.0345         8     1.383     0.568 -18.74  24
        14    813.5341   1000.9235 307.5694764  +6.2842487     878.5249     1542.647     2058.225     91.39625     182.0703     363.9958      2.046     5.35     1207.138     64.16656     133.4399        10     1.293     0.624 -22.86   0
        15    577.7470   1023.7739 307.6667030  +6.2669805     1041.822     1369.706     1248.303     77.51151       143.09     271.8239      1.527     4.52     1213.498     64.16656     241.3892         8     1.397     0.415   2.27  24
        16    914.4402    994.7078 307.5277455  +6.2901608     7074.267      12655.2     14029.57     91.39625     181.9979     364.1044      1.980     5.38     1206.661     64.16656     930.2053        41     2.097     0.939 -29.08   0
        17    545.7858    994.2162 307.6809891  +6.2781319     5884.687     11486.21     14457.65     90.96275     181.7081     363.9596      2.160     5.43     1212.862     64.16656      656.405        44     2.092     1.116 -26.56   0
        18    887.9398    990.8900 307.5388894  +6.2908606     9967.435     18340.57      20491.8     91.10748      182.215     364.0682      2.016     5.33     1206.508     64.16656     1272.546        45     2.061     0.997 -26.19   0
        19   1009.8317    990.2061 307.4882482  +6.2951789     4165.411     7316.383     7720.485     90.52717     181.8531     363.7785      1.854     5.78     1201.354     64.16656     629.5232        29     1.888     0.822 -26.54   0
        20    600.6130    991.5046 307.6582931  +6.2810744     946.3477     1658.446       1729.9     90.96275     181.7806     363.8148      2.074     6.41     1212.461     64.16656     163.5826        10     1.427     0.808 -15.75   0
        21    532.1496    990.0725 307.6867973  +6.2793908     3041.316     6091.793     7460.183     91.25198     182.1426     364.0682      2.409     5.38     1213.191     64.16656     387.4937        36     2.044     1.114 -18.99   0
        22    641.8642    989.1867 307.6412262  +6.2834024     993.1091     1764.557     2339.886     90.67259     181.8531     363.8872      2.076     5.83     1211.829     64.16656     141.4669        12     1.597     0.599 -28.07   0
        23    485.3369    986.4374 307.7063773  +6.2793363     1576.306      3056.78     3154.379     91.25198     182.1426      364.032      2.069     6.65     1214.512     64.16656     219.7888        21     1.824     0.795 -15.89   0
        24    919.7816    978.4403 307.5260750  +6.2970598     35590.29     64958.31     71186.13     90.81779     181.8531     363.7423      1.977     5.56     1205.468     64.16656     4989.424        70     2.098     1.114 -26.60   0
        25    227.2246    976.9254 307.8139777  +6.2746707     987.6317     2001.876     2451.096     90.81779     181.8531     363.9596      2.370     5.75     1216.779     64.16656      127.968        11     1.266     0.735 -31.82   0
        26    625.3359    975.5187 307.6485592  +6.2885012     671.8428     1206.085      1137.48     91.39625     182.1426      364.032      1.879     4.90     1211.536     64.16656     96.34424         7     1.085     0.627 -19.10   0
        27    817.4011    972.2565 307.5688386  +6.2962227     1770.893     3350.417     3669.947     90.52717     181.7081     363.7061      2.020     5.63     1206.358     64.16656     222.7495        23     1.816     0.835 -34.74   0
        28    765.9332    970.1198 307.5903035  +6.2953989     4974.341     9305.967     10661.82     91.39625     182.2872      364.032      2.054     5.15     1208.012     64.16656     650.8798        40     2.008     1.045 -27.08   0
        29    235.6978    969.4941 307.8107089  +6.2780239     950.1101     1717.849     2181.093     91.25198     182.7204     363.8872      2.133     6.05       1216.7     64.16656     121.9446        11     1.243     0.828  -7.19   0
        30     60.6972    967.4821 307.8835099  +6.2730153      1859.51     3459.074     3326.709     91.10748      182.504     364.1044      1.999     5.58     1217.022     64.16656     203.9326        21     1.581     0.957 -23.23   0
        31    954.1953    965.2237 307.5122173  +6.3036607      5304.46     9941.735     10961.85     90.67259     181.7806      363.851      1.991     5.52      1203.41     64.16656     754.9591        35     1.966     0.951 -27.02   0
        32    927.8683    956.7927 307.5234452  +6.3062728     1653.914     3043.712     3032.989     90.67259     181.7806     363.8872      1.852     5.32     1204.002     64.16656     216.1217        20     1.686     0.781 -28.95   0
        33    261.1453    953.2575 307.8006846  +6.2855813     2931.541     6067.881     6641.203     91.39625     182.1426     364.0682      2.217     5.81     1216.703     64.16656     338.0719        37     1.954     1.197 -22.28   0
        34    648.6545    952.8530 307.6396349  +6.2986415       3236.6      6465.02     7660.124     91.54029     181.9979     363.9958      2.255     5.90     1209.516     64.16656      408.087        34     1.942     1.076 -22.54   0
        35    787.1621    953.5796 307.5820394  +6.3029377     1019.937     1694.995     1805.868     90.81779     181.7806     363.7423      1.946     5.49     1206.814     64.16656     153.4299        14     1.420     0.714 -29.45   0
        36     29.7640    950.4971 307.8969448  +6.2790000      1404.98      3012.26     3529.229     91.25198     181.9255     364.2129      2.193     7.14     1216.533     64.16656     222.2299        20     1.820     0.920 -24.97   0
        37    471.9201    950.8932 307.7131600  +6.2935772     712.3859     1208.167     1519.604     90.96275     182.2872     364.1044      1.692     5.05     1212.763     64.16656     99.01526         8     1.235     0.584 -27.85   0
        38    880.4489    949.0969 307.5434156  +6.3078822     667.6936     1034.172     1102.905     91.10748     181.9979     364.2129      1.899     5.72     1203.617     64.16656     135.0598         8     1.587     0.580 -23.49   0
        39    952.2342    946.2835 307.5136722  +6.3114223     716.7385     1295.476      1193.98     91.25198     182.0703     363.9958      1.938     5.46     1202.469     64.16656     110.4689         8     1.193     0.851 -30.42   0
        40    573.2349    945.3273 307.6712380  +6.2992457     1066.669     2114.345     2258.083     91.10748     182.0703      364.032      2.205     6.77     1211.339     64.16656     131.0248        14     1.797     0.714 -33.01   0
        41   1004.9205    944.7867 307.4918229  +6.3137846     763.8582     1591.022     1394.666     90.81779     181.7806     363.8148      2.011     4.44      1200.65     64.16656     104.2618         6     0.952     0.588 -24.67   0
        42    612.5192    941.4987 307.6550393  +6.3021331     820.9404     1541.838      1114.28     91.10748     182.5761     364.1044      1.829     4.61     1210.705     64.16656     126.6493         8     1.208     0.499  -1.52   0
        43    294.0727    938.9131 307.7874868  +6.2926059     894.9659     1978.507     1852.025     91.39625     182.3595      364.032      2.282     6.83     1216.857     64.16656     110.9788        11     1.287     1.017 -28.43   2
        44    896.6946    932.0278 307.5372398  +6.3154737     5523.818     10021.84      10397.6     91.39625     181.7806     363.9234      1.957     5.19     1202.384     64.16656     728.8784        37     1.940     1.000 -23.32   0
        45    432.7652    929.4874 307.7301611  +6.3011195     1446.792     2798.822     3558.958     91.25198     181.9255      364.032      2.199     7.10     1212.623     64.16656     182.1383        18     1.820     0.775 -23.69   0
        46    334.5529    927.7723 307.7710404  +6.2985581     6305.456     12939.91     15135.96     90.81779     182.1426     363.9596      2.245     5.16     1216.078     64.16656     698.9279        53     2.096     1.318 -28.97   0
        47    254.7146    926.7758 307.8042580  +6.2963092     4608.515     9555.978     11122.53     91.25198     181.7806      363.851      2.251     5.77     1216.349     64.16656     502.3201        45     2.058     1.261 -27.79   0
        48    582.4600    920.5968 307.6682420  +6.3097713     840.6471     1675.952     1739.887     90.52717     181.7806     363.7061      2.041     6.06      1210.36     64.16656     107.2373         9     1.218     0.848 -45.33   0
        49    913.4591    916.6447 307.5307912  +6.3223856     684.1639     1166.656     1765.732     91.10748     181.9979     364.1405      1.741     4.96     1201.366     64.16656     145.2457         7     1.279     0.545 -22.31   0
        50    748.6040    910.3527 307.5995293  +6.3195208     1218.693     2156.375     2255.839     90.52717     181.7806     363.6699      1.802     5.79     1204.971     64.16656     197.3098        14     1.546     0.729 -30.26   0
        51      1.8030    907.5866 307.9100287  +6.2957961     554.5466     810.4432     1082.452     85.43555      152.452     282.6127      1.581     4.46      1214.99     64.16656     80.27075         5     1.166     0.485  55.93  24
        52    613.8372    906.8026 307.6556674  +6.3165138     583.7816     971.4456     1112.539     90.23561     181.8531     363.8148      1.811     5.42     1208.521     64.16656     101.6846         7     1.338     0.620 -26.56   0
        53    534.3426    905.9536 307.6887390  +6.3142227     752.9836     1564.881      1314.61     91.25198     182.0703     364.1767      2.371     6.26     1210.746     64.16656     109.2058         9     1.795     0.613 -31.64   0
        54    979.9357    905.8661 307.5035226  +6.3290406     1012.481     1725.483     2651.921     91.25198     182.0703     364.0682      2.002     4.87     1198.475     64.16656     193.0231        10     1.300     0.517 -29.08   0
        55    667.3387    903.5934 307.6335375  +6.3196168     1735.669     3428.343     3919.602     90.52717     181.8531     363.7423      2.061     5.95     1206.218     64.16656     213.7063        25     1.808     1.010 -31.16   0
        56     64.4523    899.8513 307.8842537  +6.3010855     1938.728     4073.154     4289.552     91.39625     181.9255     364.0682      2.314     6.03     1215.374     64.16656     206.7992        25     1.587     1.220 -40.51   0
        57     81.9632    899.5946 307.8769845  +6.3017764     1179.975     2541.555      2739.02     90.23561     181.7806     363.8148      2.246     6.52     1215.487     64.16656     188.9368        17     1.546     1.045 -25.05   0
        58    208.1428    898.7132 307.8245698  +6.3063518     1371.207     2852.337     3724.871     91.25198     182.0703     364.1767      2.407     7.84      1215.56     64.16656     161.5532        21     1.898     0.907 -21.97   0
        59    662.1738    892.9115 307.6360463  +6.3238592     4778.104     9660.609     10758.95     91.39625     181.7806     363.8872      2.223     5.84     1206.056     64.16656     506.5056        48     2.216     1.183 -22.33   0
        60     33.5893    890.5164 307.8973995  +6.3039116     785.9898     1479.885     1804.734     90.81779     181.7806      363.851      1.707     3.88     1215.133     64.16656     104.7473         5     1.016     0.425 -74.39   0
        61    899.7680    888.9915 307.5374168  +6.3333590     2136.493     3943.508     4514.776     90.67259     181.8531      363.851      1.977     5.55     1199.793     64.16656     257.4949        23     1.701     0.918 -25.97   0
        62    345.2193    886.1483 307.7680216  +6.3161127     10147.81      21592.6      25936.8     90.67259     182.1426     363.8148      2.307     5.52     1214.306     64.16656      1083.58        65     2.233     1.363 -27.68   0
        63     78.8061    887.7382 307.8787006  +6.3065700     836.7135     1827.509     2163.411     90.52717     181.8531     363.7785      2.533     5.36       1215.3     64.16656     112.7662        10     0.960     0.845  22.97   2
        64    215.8926    886.3768 307.8217684  +6.3117077     991.6675     1703.392     1767.625     91.25198     181.8531      363.851      1.921     5.26     1215.369     64.16656     133.1447        11     1.228     0.927 -16.50   0
        65    108.2855    876.5328 307.8668296  +6.3121844     1020.993     2183.811     2928.166     91.25198     182.3595     364.0682      2.474     6.98     1215.205     64.16656      142.051        14     1.475     1.010 -10.27   0
        66     90.5201    871.0103 307.8744018  +6.3138731     992.9086     1961.615     2746.627     90.81779     181.7081      363.851      1.893     5.01     1215.075     64.16656     148.5115         8     1.190     0.596  73.12   3
        67     93.0000    870.0006 307.8734054  +6.3143731     1295.854     2113.854     2960.834     90.38151     181.4904     363.6699      2.178     4.41     1215.061     64.16656     189.3842        12     1.023     0.872 -81.57   2
        68    890.1433    870.6825 307.5420366  +6.3406058     1452.814     2567.323     2316.896     91.25198     182.0703     364.1405      1.840     6.33     1198.953     64.16656     189.7493        15     1.625     0.693 -20.55   0
        69    860.8247    870.2211 307.5542395  +6.3398250      1375.61     2891.281      3080.31     90.81779     181.8531      364.032      2.187     6.21     1199.648     64.16656     198.3735        15     1.771     0.611 -26.41   0
        70    824.2557    869.5844 307.5694622  +6.3388760     2173.332     4136.251     4665.318     90.52717     181.9979     363.7061      2.044     5.52     1201.208     64.16656     278.2018        26     1.733     1.061 -23.99   0
        71    560.1890    861.2568 307.6795115  +6.3335512     213957.7     449679.8     524704.8     90.52717     181.9979     363.6699      2.282     5.53     1208.508     64.16656     22050.57       168     2.355     1.526 -26.76   0
        72    404.4606    863.8625 307.7441546  +6.3272941     4797.431     10118.21     11571.91     91.25198     182.0703     364.0682      2.323     5.76     1211.476     64.16656     529.0989        56     2.226     1.398 -24.59   0
        73    347.6124    862.3690 307.7678350  +6.3260182     8004.426     17195.26     20279.55     90.67259     181.7806     363.9596      2.338     5.85     1213.271     64.16656     766.3822        58     2.268     1.320 -27.30   0
        74    648.8127    863.9172 307.6425825  +6.3353964     828.4306     1441.322      1602.63     90.81779     181.7806      363.851      1.821     6.07     1205.114     64.16656     110.8817         9     1.828     0.566 -35.67   0
        75    665.9233    858.4354 307.6356557  +6.3382298     2374.469     4661.669     5529.242     91.10748     182.1426     364.0682      2.152     6.51     1204.734     64.16656     254.4836        29     1.921     0.988 -32.96   0
        76    898.2374    857.2321 307.5391266  +6.3464320      3978.26     7284.433     8642.311     90.81779     181.7806     363.7785      2.029     5.34     1197.886     64.16656     563.9163        31     1.945     0.930 -23.93   0
        77    640.8351    852.5594 307.6462835  +6.3398247     2069.988     4477.667     5846.056     90.96275     182.0703     363.8148      2.692     6.84     1204.587     64.16656     246.8597        35     2.038     1.173 -30.07   0
