#   1 NUMBER                 Running object number                                     
#   2 X_IMAGE                Object position along x                                    [pixel]
#   3 Y_IMAGE                Object position along y                                    [pixel]
#   4 ALPHA_J2000            Right ascension of barycenter (J2000)                      [deg]
#   5 DELTA_J2000            Declination of barycenter (J2000)                          [deg]
#   6 FLUX_APER              Flux vector within fixed circular aperture(s)              [count]
#   9 FLUXERR_APER           RMS error vector for aperture flux(es)                     [count]
#  12 FLUX_RADIUS            Fraction-of-light radii                                    [pixel]
#  13 FWHM_IMAGE             FWHM assuming a gaussian core                              [pixel]
#  14 BACKGROUND             Background at centroid position                            [count]
#  15 THRESHOLD              Detection threshold above background                       [count]
#  16 FLUX_MAX               Peak flux above background                                 [count]
#  17 ISOAREA_IMAGE          Isophotal area above Analysis threshold                    [pixel**2]
#  18 A_IMAGE                Profile RMS along major axis                               [pixel]
#  19 B_IMAGE                Profile RMS along minor axis                               [pixel]
#  20 THETA_IMAGE            Position angle (CCW/x)                                     [deg]
#  21 FLAGS                  Extraction flags                                          
         1      2.2904     33.5190 307.9364284  +6.6318857     554795.7      1051098      1193358     93.10021     165.7296     301.3525      2.112     9.24     1295.098     66.31096     60409.75       184     2.455     1.245 -88.34  28
         2     21.8630     20.3443 307.9287078  +6.6379991     3641.976     7783.149     9646.505     94.45065     188.1549     376.1977      2.234     7.32       1292.8     66.31096     352.5826        34     2.052     1.145  37.16   3
         3     24.8724     17.5989 307.9275450  +6.6392369     3999.551     7980.377     10201.02     93.55252     187.6307     376.0106      2.466     9.34     1292.387     66.31096     503.8507        41     2.774     1.168  36.22  19
         4    822.7761     12.6456 307.5948371  +6.6682016     2304.775     5109.948     6290.806     93.85285     188.1549      376.048      2.340     8.01     1243.938     66.31096     279.1499        33     2.326     1.005  75.74  19
         5    826.2170     11.6824 307.5934338  +6.6687157     1681.221     3451.434     4383.364     93.85285     187.7807     376.1229      2.403     7.33     1243.802     66.31096     212.6749        19     2.063     0.730  72.68  19
         6    768.2740     13.6370 307.6175427  +6.6659600     1132.362     3126.924      5257.24     94.15223     188.2297     376.2351      4.097     9.27      1244.68     66.31096     155.8707        22     2.154     1.114  72.12  18
         7     64.6791      8.9654 307.9112302  +6.6441566     990.9468     2401.239     3717.022     94.15222     188.2297     376.1977      3.141     9.01     1285.405     66.31096     148.3813        14     1.721     1.316 -17.73  18
         8      4.2902      7.9822 307.9364552  +6.6425180     956.3897     1871.536     1806.461     94.00266     187.1802     332.0531      1.807     5.47     1296.828     66.31096     111.5004        10     1.473     0.574  38.78  16
         9      7.1433      4.4235 307.9353850  +6.6440870     765.5936     1493.785     1089.429     93.85285     188.1549     327.5305      1.883     5.12     1296.563     66.31096     101.9816         8     1.384     0.535  65.53  16
        10      3.5759    996.6745 307.9034422  +6.2334630     6787.197     16406.21     18495.54     93.85285     181.7646     323.1624      2.392     5.66     1303.185     66.31096     865.8237        55     2.055     1.550  75.34  24
        11    282.2396   1023.3950 307.7863868  +6.2318257     1011.176      1644.96     1566.524     85.37392     154.2981     288.1774      1.708     5.06     1309.387     66.31096     160.8037         9     1.196     0.604  24.12  24
        12    613.0206    994.4351 307.6494692  +6.2549528      849.004      1731.85     2281.311      93.7028     187.9305     375.9358      2.279     5.86     1308.594     66.31096     116.9722         9     1.521     0.635  34.80   0
        13    797.2519    985.9350 307.5729517  +6.2646617     8052.895     19317.95     21172.41     94.30155     188.0801     376.1603      2.343     5.75       1307.4     66.31096     863.4912        57     1.851     1.637  77.40   0
        14     68.1682    986.7795 307.8768509  +6.2397419     3890.845     10405.31      12328.5      93.7028     187.9305      376.048      2.618     6.16     1305.505     66.31096     508.1578        56     2.051     1.720  65.09   0
        15    580.7936    976.7767 307.6634948  +6.2611742     74794.89       211603     281447.7      93.7028     187.9305      376.048      2.840     8.40     1308.463     66.31096     7847.103       149     2.765     1.999 -84.38   3
        16    583.3039    968.7993 307.6627153  +6.2645592     34856.98     71614.52     80656.01      93.7028     187.7057     375.7486      2.156     6.31     1308.224     66.31096     3750.074        59     2.071     1.216  28.54   3
        17    215.8298    979.1499 307.8155554  +6.2478887     1860.101     4238.976     5906.245     93.85285     188.3044     376.0854      3.051     6.54     1308.183     66.31096     235.5026        28     1.724     1.325  58.24   2
        18    791.4421    973.7949 307.5757792  +6.2694894     3749.395     9417.603     10508.22     93.55252     187.7807     375.8609      2.446     6.09     1306.724     66.31096     373.2961        46     1.845     1.556  78.29   0
        19    889.1929    970.7524 307.5351295  +6.2740294     887.2319     1852.229     1974.157      93.7028     187.9305     375.7486      1.980     6.25     1305.601     66.31096      119.866        11     1.555     0.774 -62.79   0
        20    211.3288    969.2593 307.8177639  +6.2518286     916.3596     2056.241     2055.055     94.45065     188.1549     376.2725      2.287     7.41     1307.891     66.31096     112.8038        13     1.754     0.876 -80.93   2
        21    214.6239    968.9805 307.8163997  +6.2520552     838.6447     1112.239     1583.404     94.00266     187.9305     376.1229      1.560     3.94     1307.964     66.31096     160.1322         5     0.855     0.519  37.34   3
        22    571.6234    965.7273 307.6676875  +6.2654371     1701.564     5538.777     8069.538     93.85285     187.9305     376.1229      3.211     9.97     1308.312     66.31096     201.6355        47     2.147     1.703  64.57   1
        23    715.4913    966.1453 307.6076976  +6.2701027     3844.648     9833.758     12013.15     94.15222     188.0053     376.3473      2.654     6.22     1306.865     66.31096     388.8141        48     1.838     1.649  72.36   0
        24    432.4480    966.4404 307.7256822  +6.2604549     1513.006     2350.792     2864.863     94.15223     188.1549      376.048      1.702     3.77      1309.21     66.31096     264.6968         8     1.107     0.469  80.02   3
        25    429.3582    965.8832 307.7269889  +6.2605813     1586.478     3811.959     4878.107     94.30155     188.1549     376.1229      2.706     8.97     1309.216     66.31096     167.2843        25     2.033     1.106 -78.24   2
        26    746.6860    961.7320 307.5948404  +6.2729769     809.1357     2007.161      2476.76     94.45065     188.4538     376.2351      2.780     6.38     1306.236     66.31096     107.9541        11     1.596     0.716 -86.75   0
        27    954.8803    955.5046 307.5082535  +6.2825411     4602.514     9918.948     10716.25     94.00266     188.4538     376.3099      2.181     5.10     1303.939     66.31096     475.6246        43     1.709     1.480 -79.38   0
        28    714.4765    953.6448 307.6085385  +6.2752405     1576.521     4254.053     5461.646     94.15223     188.2297     376.2351      2.833     8.66      1306.38     66.31096     200.4176        32     1.681     1.548 -72.09   0
        29    240.2474    954.8286 307.8061937  +6.2587754     850.1848     1763.276     2541.081     93.85285     188.3044     376.0854      2.337     6.37     1308.003     66.31096     102.9547        10     1.420     0.804  26.97   0
        30    363.4830    951.4340 307.7549349  +6.2643384     852.6119     1927.141     2511.115     94.30156     188.1549     376.1603      2.503     7.51     1308.792     66.31096     126.2844        11     1.899     0.832  67.20   2
        31    730.9966    951.8503 307.6017115  +6.2765381     561.2188     1237.307      1725.78     93.55252     187.8556     375.7111      1.644     4.43     1305.921     66.31096     90.42688         6     1.480     0.377  34.35   0
        32    543.4886    940.3427 307.6802663  +6.2749924     2059.215     5700.362     8019.308     94.30156     188.0801     376.3473      3.090    10.02     1308.189     66.31096      229.447        46     2.371     1.773  70.80   3
        33    540.1398    935.7438 307.6818164  +6.2767824     3018.428      5097.24     6301.368     94.45065     188.1549     376.2351      2.101     6.54     1308.109     66.31096     347.4392        20     1.797     0.763  40.04   3
        34    542.0460    932.7718 307.6811213  +6.2780762      3494.54     7719.942     9464.689      93.7028     188.2297     376.0854      2.349     7.20     1308.044     66.31096     437.4298        35     2.082     1.137  34.22   3
        35    292.4852    942.4805 307.7848323  +6.2656475      4222.59     6800.465     7951.058     94.00266     188.5285     376.3099      1.820     4.69     1308.339     66.31096     515.7349        18     1.402     0.942  52.60   3
        36    294.7504    939.7391 307.7839800  +6.2668581     7068.871     16178.24     20759.74     94.30155     188.0801     376.2725      2.551     6.48      1308.32     66.31096     930.5699        62     2.225     1.661  45.68   3
        37    808.1090    939.6047 307.5699729  +6.2841948     708.1755     1339.846     2057.322     93.85285     187.7807     375.8609      2.294     5.66     1304.668     66.31096     114.9697         7     1.283     0.703 -47.79   0
        38    748.2209    940.7458 307.5949019  +6.2817112     4042.574     10824.66     12315.42      93.7028     188.1549     375.9732      2.504     6.46     1305.166     66.31096     417.1095        50     1.818     1.727  81.83   0
        39    909.5450    934.2306 307.5278635  +6.2898226     5309.732     12498.72     14145.62     94.15223     188.2297     376.1603      2.363     5.54     1303.858     66.31096      539.114        55     1.802     1.683 -89.09   0
        40    883.0173    930.3456 307.5390526  +6.2905400     7101.871     17576.24     19512.75      93.7028     188.1549     375.8983      2.399     5.76     1303.727     66.31096     721.3706        57     1.864     1.670 -86.86   0
        41   1004.7143    929.5590 307.4883425  +6.2949464     3463.406     7019.919     7725.329     94.30155     188.0801     376.1603      2.161     5.57     1301.303     66.31096     346.3462        41     1.735     1.487 -85.87   0
        42    527.4633    929.5988 307.6873069  +6.2788979     1798.327     5300.056     6855.487     93.55253     187.9305     375.9358      2.837     8.52     1307.983     66.31096      223.927        39     1.872     1.762  64.01   0
        43    479.6351    927.2448 307.7073247  +6.2782611     793.7828     2291.013     2617.036     94.00266     188.0801      376.048      2.893     6.28     1307.896     66.31096     144.0028        11     1.417     0.781 -34.94   2
        44    914.8399    917.8950 307.5262010  +6.2967589     25791.84     61965.56     69127.47     94.30155     188.0801     376.3099      2.351     5.54     1303.072     66.31096     2554.549        82     1.945     1.723  82.99   0
        45    223.2776    915.7679 307.8145800  +6.2743626      794.514     1926.167     2963.599     94.15223     188.1549     376.1603      2.585     5.97     1306.959     66.31096     138.8486         9     1.712     0.585  36.00   0
        46    760.1099    909.5059 307.5909894  +6.2950356      3186.72     6987.994     8367.709     94.30155     188.7523     376.2351      2.401     6.53     1303.404     66.31096     338.4288        36     2.032     1.153 -88.72   2
        47    763.0000    908.9675 307.5898025  +6.2953555     2259.926     3411.829     4502.633     93.40199     187.8556     375.8609      1.574     4.86     1303.313     66.31096     382.7992        13     1.589     0.605  82.91   3
        48    812.4329    911.2148 307.5691185  +6.2960859     1385.002     2935.202     3804.388     93.85285     187.8556     376.0854      2.369     8.56     1302.936     66.31096     156.1241        22     1.561     1.310  17.23   0
        49     55.9727    907.3614 307.8846069  +6.2721857       1165.6      3302.24     4092.369     93.85285     187.9305     376.0106      2.668     8.04     1303.943     66.31096     173.3756        27     1.876     1.615  57.52   0
        50    231.8608    909.4237 307.8112151  +6.2772771     693.2017     1386.048     1864.123     93.85285     188.0801     376.0854      2.068     4.20       1306.9     66.31096     89.24377         5     1.197     0.421  13.38   0
        51    949.1014    904.7181 307.5123565  +6.3033597     4377.624     9899.787     10613.44     94.30155     188.6777     376.3099      2.237     5.50     1301.609     66.31096     438.3853        43     1.706     1.514 -78.22   0
        52    922.8475    896.2543 307.5235846  +6.3059810     1157.419      2578.41     2849.442     94.30155     188.1549     376.2351      2.155     7.33      1301.88     66.31096     166.2365        16     1.372     1.097  70.18   0
        53    257.0708    892.8011 307.8012639  +6.2850055     1665.805     4426.328     6374.267     93.55252     187.6307     376.0106      2.895     8.61     1306.766     66.31096     199.4658        32     2.139     1.316  89.63   2
        54    253.7149    892.3060 307.8026795  +6.2850970     1194.655     2170.356      3313.13     94.15223     188.6031     376.3099      2.224     6.36     1306.708     66.31096      151.811        13     1.790     0.636 -80.26   3
        55    643.7635    892.3433 307.6400688  +6.2982255     1921.138     5546.414     5865.446     94.30155     188.1549     376.2351      2.594     8.12     1304.712     66.31096     240.4261        39     1.785     1.737 -70.36   0
        56    781.8484    892.8484 307.5824830  +6.3026576     644.9501     1364.286     1821.881     94.30155     188.0053     376.1977      2.430     4.92     1302.161     66.31096     96.69641         8     1.187     0.577  85.33   0
        57     26.7778    890.8977 307.8973313  +6.2780092     1173.591     2557.881     3586.033     94.15222     187.8556     375.9732      2.817     6.01     1303.771     66.31096     170.5138        13     1.389     0.731  79.46   2
        58    992.1741    891.2225 307.4948488  +6.3103874     725.8163     1366.546     1449.927      93.7028     187.9305     376.1229      2.011     4.01     1299.007     66.31096     90.50977         5     0.835     0.637  50.02   0
        59    568.3813    884.2331 307.6717675  +6.2990446     723.3165     1869.561     1874.625     93.70281     187.9305     375.9732      2.315     8.16     1305.986     66.31096      94.1394        13     1.710     1.088 -61.76   0
        60    288.2459    879.3464 307.7887192  +6.2916243     634.6041     1801.781     2325.469     94.30155     188.1549     376.2351      2.782     7.13     1306.678     66.31096     113.6478         9     1.839     0.776  38.05   0
        61    891.8477    871.5209 307.5373344  +6.3151743     3847.411     9436.492        10196     94.30155     188.2297     376.1229      2.375     5.81     1300.582     66.31096     379.1339        49     1.793     1.670  87.45   0
        62    428.6312    869.1339 307.7305358  +6.3005845     861.1681     2860.597     3425.473     94.00266     188.1549     376.1229      2.849    10.33     1307.092     66.31096     153.6656        18     1.958     1.518  51.31   2
        63    328.0244    868.7650 307.7724911  +6.2973444      2737.15     5524.153      6660.53      93.7028     187.9305     375.9358      2.220     7.68     1306.977     66.31096     311.7871        27     1.953     1.028  52.71   3
        64    330.6339    866.3894 307.7714829  +6.2984153     3936.109     8296.114     9789.089     93.70281     187.8556     376.0106      2.210     6.85     1306.965     66.31096     506.8046        36     2.195     1.106  41.61   3
        65    248.5326    868.5327 307.8056385  +6.2947576     2013.963     4098.343     5767.545     94.30156     188.1549     376.2351      2.138     7.19     1306.056     66.31096     240.1039        24     2.110     0.803  42.91   3
        66    250.7411    865.6557 307.8048144  +6.2960224      2913.69     6720.322     8166.243     94.45065     188.1549     376.2351      2.480     7.09     1305.994     66.31096      335.597        37     2.158     1.207  41.35   3
        67    907.0953    855.0407 307.5315272  +6.3225043     670.3311     1405.565     1512.847     94.30155     188.0801     376.3473      1.932     4.65     1299.283     66.31096     99.83484         7     1.607     0.382 -54.47   0
        68    742.5623    848.0439 307.6003595  +6.3198750      651.349     1759.523     2378.054     94.00266     188.1549     376.0106      2.795     5.67     1300.373     66.31096     109.0238         7     1.566     0.578  74.60   2
        69    975.0239    844.3962 307.5035606  +6.3291864     737.1072     1364.312     2035.086     93.85285     187.7807     376.0106      2.396     5.74     1296.102     66.31096     101.7325         7     1.116     0.832  17.99   0
        70    661.0004    843.3135 307.6345228  +6.3190904     911.0987     2421.093     3912.429     93.40199     187.5557      375.786      2.954     6.15     1301.479     66.31096     133.1248        12     1.629     0.653  83.38   3
        71     61.3452    839.4134 307.8846539  +6.3004785     1140.231     2906.575       4696.8     93.55252     188.0801     375.8983      3.241    10.67     1302.993     66.31096     195.7545        20     1.977     1.605 -77.22   2
        72    204.4588    838.2360 307.8250305  +6.3058034     944.4415     1901.122     2877.212     94.30155     188.1549     376.1977      3.037     6.19     1305.196     66.31096     137.3887        10     1.386     0.778  65.79   0
        73     78.0123    838.3764 307.8777405  +6.3014712     929.4988     1805.199     2675.859     93.85285     187.9305     376.1229      2.238     6.32     1303.134     66.31096       129.02        10     1.435     0.781  36.33   0
        74    655.6875    831.9110 307.6371194  +6.3236293     2375.943      4877.96     5818.264     94.00266     188.7523     376.3099      2.218     8.49     1301.029     66.31096     304.5441        26     2.268     0.889  84.80   3
        75    658.6985    831.3640 307.6358823  +6.3239569     2678.528     4997.323     6574.068     94.30155     188.0053      376.422      2.365     8.01     1300.884     66.31096     320.6931        29     2.159     1.114  81.59   3
        76    894.5526    828.2201 307.5376519  +6.3331802     1514.713     3834.204     4922.962     93.85285     188.1549     375.9732      2.700     8.29       1296.9     66.31096     169.5989        28     1.656     1.408 -84.14   0
        77    340.3751    826.0331 307.7687763  +6.3154403     5243.779     19098.23     25467.15     93.55252     187.8556     375.9358      3.061     7.88     1305.815     66.31096      783.292        82     2.337     2.074  81.51   0
