#   1 NUMBER                 Running object number                                     
#   2 X_IMAGE                Object position along x                                    [pixel]
#   3 Y_IMAGE                Object position along y                                    [pixel]
#   4 ALPHA_J2000            Right ascension of barycenter (J2000)                      [deg]
#   5 DELTA_J2000            Declination of barycenter (J2000)                          [deg]
#   6 FLUX_APER              Flux vector within fixed circular aperture(s)              [count]
#   9 FLUXERR_APER           RMS error vector for aperture flux(es)                     [count]
#  12 FLUX_RADIUS            Fraction-of-light radii                                    [pixel]
#  13 FWHM_IMAGE             FWHM assuming a gaussian core                              [pixel]
#  14 BACKGROUND             Background at centroid position                            [count]
#  15 THRESHOLD              Detection threshold above background                       [count]
#  16 FLUX_MAX               Peak flux above background                                 [count]
#  17 ISOAREA_IMAGE          Isophotal area above Analysis threshold                    [pixel**2]
#  18 A_IMAGE                Profile RMS along major axis                               [pixel]
#  19 B_IMAGE                Profile RMS along minor axis                               [pixel]
#  20 THETA_IMAGE            Position angle (CCW/x)                                     [deg]
#  21 FLAGS                  Extraction flags                                          
         1      2.8423     76.7512 307.9331275  +6.6324401     7279.427     19592.53      30675.9     78.07063       143.66     257.5492      4.261     9.15     844.9899      54.8977     1505.435       177     5.113     2.150 -87.01  24
         2    434.7076     21.1897 307.7555818  +6.6698154     24866.55     35239.84     36117.99     77.82318     155.3983     311.2617      1.481     3.65     831.7618      54.8977     4187.828        42     1.500     0.899 -38.55   0
         3    243.1275     18.3462 307.8352682  +6.6645945     3351.525      4998.18      5203.05     77.94701     155.6464     311.3857      1.518     3.66     839.2232      54.8977     496.5045        22     1.452     0.781 -40.57   0
         4     58.7556     12.5690 307.9120566  +6.6608135     427.6577     653.7391     146.9888     77.69916     155.8321     311.3237      1.728     5.50      839.604      54.8977     86.24817         7     1.367     0.625  76.37   0
         5    933.2874     11.1783 307.5487734  +6.6905323        986.1      1424.96     1992.026     78.07063     155.5844     311.3237      1.492     3.68      824.091      54.8977     146.0986        10     1.037     0.664 -53.31   0
         6    684.5065     10.7638 307.6521489  +6.6824397      2078.85     2737.333     3013.029     78.19406     155.6464     311.5405      1.494     3.93     827.1552      54.8977     290.4984        16     1.322     0.743 -44.55   0
         7     89.0737     11.4996 307.8994974  +6.6622698     610.6727     779.1649     454.3008     77.57494      155.894     311.3857      1.470     4.94     838.3096      54.8977     97.30725         7     1.186     0.582 -39.66   0
         8    195.4389      6.7693 307.8554682  +6.6677808     984.8398     1248.435     1249.665     77.69916     155.5224     302.0152      1.431     5.28     838.7155      54.8977     131.9764        11     1.247     0.632 -45.53  16
         9    250.4310      5.6700 307.8326590  +6.6700726     847.4265     1064.815     761.0457     77.94701     155.7702     292.2126      1.239     3.31     839.1083      54.8977     162.5757         7     0.980     0.509 -42.89  16
        10    172.7449      3.6929 307.8649994  +6.6682923     11679.69     16768.05     16859.53     77.94701     151.5017     269.3727      1.502     3.58     838.4927      54.8977      1876.64        32     1.506     0.891 -38.62  24
        11    918.1250      1.7616 307.5553867  +6.6939177     3517.011     4499.084     4720.119     72.83003     130.0601     241.1503      1.298     3.55     824.0343      54.8977     637.7766        17     1.287     0.693 -17.83  24
        12    516.9139      1.9392 307.7220726  +6.6805044     3228.539      4076.53     4076.396     74.78993     132.7026     244.0522      1.314     3.34     828.9802      54.8977     626.1946        15     1.171     0.694 -24.17  24
        13    718.4189      1.2275 307.6383776  +6.6875052     1000.699     1000.888     1097.713     66.46024     122.1841      232.476      1.072     2.89     827.1671      54.8977     250.1745         7     1.070     0.416  -3.22  24
        14    454.2078      1.1851 307.7481497  +6.6787258     1024.202     1215.793     1375.826     65.14116     121.1536     231.6449      1.166     3.51     830.7604      54.8977     287.3829         7     1.115     0.366  -7.07  24
        15    433.6692    998.9988 307.7233170  +6.2660213      942.175     1225.367     1178.568     77.57494     155.3362     311.2927      1.677     5.45     861.6196      54.8977     127.2178        11     1.154     0.783 -44.38   0
        16    752.7791   1023.0574 307.5900428  +6.2667030     854.1722     1305.434     1243.913     74.14239     132.4116     243.9732      1.601     5.64     859.5437      54.8977     120.1019        12     1.224     0.731  -9.69  24
        17    576.9001   1021.0665 307.6631215  +6.2616781       148085     240925.9     250764.3     78.07063     153.3995     272.2926      1.729     3.73     861.2178      54.8977     18632.11        90     1.747     1.222 -33.63  27
        18    578.6088   1013.8836 307.6626518  +6.2647010     69258.37     113519.9     121236.4     77.69916     155.4604     311.2927      1.761     3.74     861.1444      54.8977     8398.469        75     1.741     1.197 -37.21  19
        19    211.2316   1023.2721 307.8148422  +6.2485786     2814.419      3724.44     3813.557     72.43169       129.54     240.6298      1.371     4.32     860.3965      54.8977     441.6217        16     1.374     0.707 -18.21  24
        20    726.5319    996.9307 307.6018092  +6.2766196     977.5479     1456.357     1106.511     78.07063      155.894     311.4166      1.649     4.85     859.5074      54.8977     140.4152        13     1.252     0.897 -53.50   0
        21    357.5973    995.5114 307.7550128  +6.2649256     1931.488     2932.928     3158.449     77.45052     155.4604     311.1688      1.610     3.99     860.9292      54.8977     240.1142        19     1.360     0.866 -23.57   0
        22    695.5129    991.9074 307.6148538  +6.2776632     568.4444     878.2952     1153.752     78.07063      156.203     311.5405      2.052     4.18     859.8432      54.8977     99.38934         6     1.301     0.382 -75.00   0
        23    540.0171    985.7063 307.6796127  +6.2750519     4145.671     6712.978      7230.01     77.82318     155.5844     311.3237      1.698     3.63     861.1579      54.8977     513.9119        31     1.570     1.023 -44.08   0
        24    744.4524    985.0515 307.5947653  +6.2821203     7525.714     12315.09     13278.29     78.19406     155.6464     311.4785      1.782     3.83     858.7252      54.8977      894.401        40     1.609     1.149 -36.23   0
        25    510.0830    987.1467 307.6919913  +6.2734605     1092.085     1660.361     959.9986     78.07063     155.7702     311.5714      1.569     4.30     861.7492      54.8977     157.4266        10     1.085     0.652 -20.22   0
        26    290.1712    984.3987 307.7833745  +6.2672651     14686.78     23256.93     25350.78     77.57494     155.5844     311.2617      1.721     3.76     860.5039      54.8977     1933.074        54     1.939     1.048 -35.80   0
        27    115.9579    985.1724 307.8556673  +6.2611276     465.4276     583.7307     421.4588     77.69916     155.7702     311.3237      1.447     4.64     857.3922      54.8977     85.79779         7     1.621     0.376 -36.41   0
        28    805.6279    984.0358 307.5694024  +6.2845713     1004.679     1583.978     1317.644     77.69916     155.5224     311.2617      1.797     6.34     857.0325      54.8977     135.3804        13     1.322     0.854 -35.26   0
        29    414.3043    984.9354 307.7318258  +6.2711831      928.395         1236     1396.759     78.07063      155.894     311.4785      1.560     5.02     860.8724      54.8977     120.3802        11     1.177     0.655 -15.22   0
        30    261.7944    981.8320 307.7952402  +6.2673779     889.3585     1326.389     1045.106     77.45052     155.5844     311.2307      1.500     4.87     859.9884      54.8977     135.3824         9     1.251     0.537 -28.82   0
        31    905.8411    978.4398 307.5279851  +6.2902075     7388.144     13825.35     14456.79     77.82318     155.8321     311.3237      1.988     4.34     855.3783      54.8977     841.8579        47     1.729     1.319 -40.57   0
        32    537.0624    977.8791 307.6811006  +6.2781856     8257.445     13099.03     14406.09     78.19406     155.8321     311.4476      1.690     3.54     861.1544      54.8977     1077.796        40     1.581     1.103 -38.40   0
        33    879.3250    974.6073 307.5391208  +6.2909105     10837.55     19613.39     21554.77     77.69916     155.2741     311.3237      1.948     4.16     855.9595      54.8977      1254.82        53     1.775     1.332 -38.39   0
        34   1001.0688    973.9775 307.4885992  +6.2952069     3970.578     7802.106     8262.722     77.69916     155.7083     311.4166      2.048     4.48     853.1777      54.8977     455.9042        37     1.645     1.283 -40.73   0
        35    592.1497    975.0349 307.6583266  +6.2811932     1364.532     2321.212     2103.684     77.94701     155.7702     311.3547      1.790     5.36     860.6403      54.8977     188.7885        16     1.391     0.848 -42.75   0
        36    523.7064    973.7838 307.6867818  +6.2794320     4060.918     6608.894     7453.896     77.82318     155.5844     311.2927      1.821     3.83     861.3213      54.8977     511.8617        33     1.688     1.137 -22.95   0
        37    632.8025    972.9212 307.6415204  +6.2834183      1398.87     2536.595     1828.368     77.45052     155.2741     311.2307      1.860     4.76     860.1862      54.8977     168.1041        20     1.414     1.002 -35.88   0
        38     58.2160    972.4186 307.8800642  +6.2644632     833.2437     1161.591     1228.954     77.82318     155.5224     311.3857      1.497     4.60     856.3038      54.8977     128.6536         8     1.179     0.510 -21.75   0
        39    476.5976    970.1815 307.7064587  +6.2793507     2234.992     3418.438     3224.532     77.69916     155.3362     311.1997      1.618     3.92     861.7836      54.8977     329.0257        21     1.440     0.857 -34.91   0
        40    911.1152    962.1583 307.5263370  +6.2971056     37912.68     68125.87      72949.6     78.07063     155.6464     311.4166      1.925     4.11       854.94      54.8977     4330.594        76     1.800     1.360 -41.41   0
        41    218.3379    960.7328 307.8139864  +6.2746394     1640.958      2546.82     2195.446     78.07063     155.7083     311.4476      1.628     4.22     858.7854      54.8977     222.1953        17     1.321     0.898 -42.50   0
        42    617.4064    958.6404 307.6483882  +6.2888032      977.288      1392.95     1070.311     77.45052     155.4604     311.1378      1.605     4.34     860.1485      54.8977     153.4646        11     1.143     0.784 -73.70   0
        43    106.5662    959.7869 307.8604169  +6.2712957     677.2005      1012.37      820.281     77.57494     155.5224     311.3547      1.532     3.99     856.4016      54.8977     108.8556         6     1.019     0.455 -30.71   0
        44    809.1737    955.9005 307.5688669  +6.2963070     2217.842     3729.902     4596.672     78.07063     155.5224     311.3547      1.811     3.75     856.7368      54.8977     277.8433        23     1.394     0.974 -48.23   0
        45    757.2800    953.8196 307.5904802  +6.2954430     6316.741     10583.53     11417.81     77.69916     155.4604     311.4166      1.789     3.95     857.5256      54.8977     772.7358        37     1.608     1.133 -36.53   0
        46    544.2121    953.5308 307.6789451  +6.2884776      772.151       1184.3     862.6249     77.57494     155.5844     311.2927      1.663     5.21     860.9113      54.8977     116.3221        10     1.202     0.661 -37.84   0
        47    226.6096    953.0460 307.8108099  +6.2780897     1505.048      2355.55     1887.612     77.57494     155.6464     311.1378      1.620     3.93     858.7428      54.8977     218.9429        14     1.181     0.844 -48.84   0
        48    190.9842    952.7628 307.8256085  +6.2770169     849.5402     1296.011     1313.032     77.69916     155.5844     311.1997      1.528     4.78     858.0505      54.8977     113.5148         8     1.016     0.639   5.00   0
        49     51.5955    951.3018 307.8835207  +6.2729612     2823.107     4229.803     4459.686     77.82318     155.4604     311.1378      1.666     3.70     855.6417      54.8977      390.946        23     1.388     0.961 -25.71   0
        50    945.4758    948.9217 307.5125119  +6.3037108     5956.947     10771.94     11805.62      78.3173     156.0177     311.5405      1.940     4.16     854.0527      54.8977     640.0605        41     1.603     1.318 -33.65   0
        51    201.8183    944.7471 307.8213794  +6.2806885     709.7228     991.0482      940.366     77.57494     155.8321     311.2307      1.394     4.57     858.0178      54.8977     100.7967         8     1.069     0.554 -57.76   0
        52    627.7349    943.2039 307.6446152  +6.2955208     789.4111     1200.031     759.4249      77.3259     155.5224     311.2307      1.636     6.05     859.6868      54.8977     107.8802        10     1.370     0.752 -62.67   0
        53    919.2710    940.5018 307.5236712  +6.3063188     1892.174      3175.22     3176.316     77.94701     155.9559     311.4476      1.764     4.66     854.3597      54.8977     241.9058        22     1.458     1.099 -36.54   0
        54    639.8403    936.6035 307.6398097  +6.2986489     4416.605     6994.529     7088.653      77.3259     155.5224     311.1688      1.671     3.79     859.3465      54.8977     560.3826        29     1.530     1.013 -38.19   0
        55    252.1385    936.9799 307.8007500  +6.2855759     4507.771      6637.69     6518.646     77.69916     155.7702     311.3547      1.558     3.59     858.5651      54.8977     627.2513        27     1.462     0.938 -32.58   0
        56    778.7281    936.9601 307.5821373  +6.3031172     1233.838     1914.194     1767.997     77.94701     155.7702     311.5095      1.617     4.17     856.8987      54.8977     153.1639        13     1.073     0.880  -2.80   0
        57    462.2202    934.9853 307.7136031  +6.2934052     1195.861     1930.641     1825.181     77.82318     155.5224     311.3547      1.666     3.96     860.5438      54.8977     181.8214        14     1.281     0.842 -43.71   0
        58     20.7034    934.5435 307.8969068  +6.2788475     2157.397     3350.912     3300.696     77.94701     155.7083     311.6642      1.621     4.05     854.8752      54.8977     298.8589        20     1.408     0.869 -32.74   0
        59    871.4114    933.2769 307.5437812  +6.3077147     803.4758     1346.572     957.5161     77.69916     155.3983     311.2927      1.776     3.45     855.1475      54.8977     134.6627         8     0.953     0.779 -30.17   0
        60    288.2202    930.5891 307.7859850  +6.2894191     953.6188     1408.507     1490.981     77.69916     155.4604     311.3237      1.555     4.00     858.6313      54.8977      193.574        11     1.094     0.914 -31.76   0
        61    943.1133    929.8689 307.5141261  +6.3115001     630.0223     1217.423     1470.939     78.19406     156.0177     311.4785      2.059     2.95     853.8083      54.8977     130.6802         6     0.810     0.617 -87.75   0
        62    564.8422    929.1320 307.6711948  +6.2992392     1593.625     2221.061     1950.295     78.07063     155.7083     311.5095      1.510     3.97     860.4775      54.8977     198.9318        16     1.242     0.823 -32.45   0
        63    996.5654    926.1769 307.4920571  +6.3147964     1387.145     2222.265     1892.171     77.57494     155.5224     311.2307      1.427     4.35      853.103      54.8977      964.037         9     1.969     0.274 -72.48   0
        64     53.8850    926.1497 307.8834139  +6.2834234     761.9725     1005.617     1146.351     78.07063     155.7083     311.5095      1.480     5.51     854.8914      54.8977     126.8849         8     1.111     0.771  87.60   0
        65    603.5964    925.4436 307.6552288  +6.3020517     1237.842      1859.43     2002.223     77.45052     155.3983     311.1068      1.600     4.76     859.8034      54.8977     174.9832        12     1.213     0.771 -46.82   0
        66    283.6584    923.3641 307.7881206  +6.2922502     1619.166     2475.304     3009.559     78.07063     155.7702     311.4476      1.699     5.15     858.4115      54.8977     214.8848        19     1.559     0.876 -28.10   0
        67    551.8752    921.5283 307.6768319  +6.3019474      736.899     1219.457     1098.765      78.3173     156.0177     311.4476      1.985     4.69     860.4339      54.8977     121.0353         8     1.004     0.795 -16.10   0
        68    750.5560    919.1743 307.5944257  +6.3095258     818.2995     1215.986     1024.804     77.69916     155.8321     311.3237      1.542     5.99     856.8009      54.8977     107.6299        12     1.144     1.051 -52.46   0
        69    888.1796    915.7703 307.5374019  +6.3155000     6278.599     10792.02     11645.76     77.57494     155.5844     311.3547      1.832     4.03     854.6251      54.8977     780.3165        38     1.664     1.177 -36.17   0
        70    125.9953    917.3787 307.8537729  +6.2894561     615.8004     982.4082     394.9411     77.69916     155.5224     311.2617      1.658     4.58     855.5507      54.8977      109.139         7     1.115     0.534 -29.25   0
        71    424.1085    913.2063 307.7301528  +6.3011285     2067.135     3085.715     3302.991     77.69916     155.4604     311.2617      1.569     3.90     859.2065      54.8977      320.385        15     1.286     0.777 -27.97   0
        72    325.6382    911.5405 307.7710885  +6.2985331     10266.09     15146.75     15830.53     78.07063     155.8321     311.4785      1.596     3.51     858.3779      54.8977     1439.703        34     1.542     0.936 -37.85   0
        73    245.6863    910.4959 307.8043152  +6.2962963     7150.542     10514.67     10901.91     78.07063     156.1413     311.5095      1.585     3.43     857.8134      54.8977     1014.808        28     1.453     0.922 -38.07   0
        74    758.4305    904.1321 307.5916575  +6.3159988      707.769      1337.52      1583.64     77.94701     155.7702     311.4166      2.206     6.46      856.589      54.8977     106.5652        12     1.314     0.892 -33.99   0
        75    574.1702    904.6483 307.6681393  +6.3096596     1155.197     1628.228     1507.116     77.69916     155.8321     311.3547      1.539     3.49     859.6464      54.8977     180.0707        14     1.106     0.839 -32.30   0
        76    136.6427    901.3751 307.8498892  +6.2964200     604.6971     794.1211      1053.42     77.69916     155.7083     311.2617      1.389     5.26     855.4122      54.8977     110.1154         7     1.134     0.690 -54.78   0
        77    903.4766    900.7589 307.5315503  +6.3222062     897.6914     1378.113     1661.213     77.94701     155.7702     311.4785      1.750     3.16     854.1942      54.8977     148.6464        10     1.050     0.622 -47.75   0
