#   1 NUMBER                 Running object number                                     
#   2 X_IMAGE                Object position along x                                    [pixel]
#   3 Y_IMAGE                Object position along y                                    [pixel]
#   4 ALPHA_J2000            Right ascension of barycenter (J2000)                      [deg]
#   5 DELTA_J2000            Declination of barycenter (J2000)                          [deg]
#   6 FLUX_APER              Flux vector within fixed circular aperture(s)              [count]
#   9 FLUXERR_APER           RMS error vector for aperture flux(es)                     [count]
#  12 FLUX_RADIUS            Fraction-of-light radii                                    [pixel]
#  13 FWHM_IMAGE             FWHM assuming a gaussian core                              [pixel]
#  14 BACKGROUND             Background at centroid position                            [count]
#  15 THRESHOLD              Detection threshold above background                       [count]
#  16 FLUX_MAX               Peak flux above background                                 [count]
#  17 ISOAREA_IMAGE          Isophotal area above Analysis threshold                    [pixel**2]
#  18 A_IMAGE                Profile RMS along major axis                               [pixel]
#  19 B_IMAGE                Profile RMS along minor axis                               [pixel]
#  20 THETA_IMAGE            Position angle (CCW/x)                                     [deg]
#  21 FLAGS                  Extraction flags                                          
         1    172.6415     20.1364 307.8654805  +6.6683788     8008.013     16105.89     17639.66     77.98661     155.5407     311.2052      2.125     5.87     826.6085     54.83862     909.8558        50     1.988     1.200  40.98   0
         2    516.8381     18.2635 307.7225078  +6.6807316     2145.506     4237.055     4872.174     77.98661     155.5407     311.1743      2.118     6.11     817.1911     54.83862     259.5753        31     2.026     0.939  50.92   0
         3    918.3081     17.9914 307.5556711  +6.6942978     3103.109     5848.018     6605.704     77.61554     155.2931     310.9268      2.008     6.77     814.4003     54.83862     371.4922        29     1.914     0.934  40.34   0
         4    718.7458     16.2939 307.6386656  +6.6883184     1518.699     3020.437     3506.473     77.86312     155.5407     311.3289      2.150     6.69     816.5222     54.83862     176.7183        23     1.921     0.855  52.70   0
         5    454.9438     16.4166 307.7482928  +6.6794153     1363.427     2476.139     2689.851     77.49146     155.5407     310.8648      1.947     5.93     819.3808     54.83862     178.8475        20     1.658     0.886  41.61   0
         6    983.0059     14.2754 307.5289093  +6.6979956     1531.935     3136.696     3342.062     77.61554      155.107     310.9886      2.094     6.11     811.8688     54.83862     215.6865        25     1.833     0.931  43.93   0
         7    702.4193     10.6739 307.6456424  +6.6900927     5503.234     10647.86      11852.6     77.61554     155.5407     311.0505      2.071     6.30     816.2952     54.83862     675.9967        42     1.976     1.076  42.96  16
         8    622.7863      9.9027 307.6787633  +6.6877411     2740.071     5515.565     6332.918     77.86312      155.355     310.8958      2.177     5.92     816.1392     54.83862     351.2028        33     1.930     1.089  39.24  16
         9    324.2425      9.5206 307.8028445  +6.6778688     864.6443     1920.234     2677.841     77.98662     155.6026     311.0815      2.740     6.65     826.6767     54.83862     116.3561        15     1.671     0.743  56.18  17
        10    422.7965      6.0938 307.7620055  +6.6825988     4579.381     9033.628     9758.385     77.73943     155.2931     295.7953      2.118     5.73     822.2094     54.83862     551.5982        39     1.916     1.115  41.69  24
        11     23.7646      5.6218 307.9278448  +6.6693528     6124.615     12057.79     12985.15     77.49146      155.355      291.238      2.071     5.80     828.8029     54.83862     679.7863        41     1.900     1.133  38.82  16
        12    669.8022      4.6162 307.6594045  +6.6915015     641.7232     1007.424     1096.519     77.61554     155.2311     280.2935      1.794     4.15     816.0336     54.83862     89.74323         6     1.184     0.416  33.67  16
        13    320.0948      2.0693 307.8048234  +6.6808071     8430.327     12441.11     13897.86     75.47835     134.2191     245.8728      1.560     4.05     826.6462     54.83862     1102.708        34     1.668     0.962  10.67  24
        14    498.6475      3.6271 307.7305677  +6.6861664     641.7755     1175.513     1641.462     77.61554     151.0204     268.0436      2.183     2.69     816.6496     54.83862     143.6865         5     0.896     0.474   7.06  16
        15    378.1962      7.8712 307.7804794  +6.6803651     542.8419     1059.309     742.4841     77.49146     155.2311     308.8773      1.543     3.40     825.2629     54.83862     93.90985         5     1.013     0.331  45.85   0
        16     93.4708      2.0065 307.8990023  +6.6731981     1855.886     2893.551     2952.993     74.96662     133.1393     244.8138      1.692     4.67     827.0466     54.83862      245.498        20     1.545     0.869  12.70  24
        17     85.6394      1.4780 307.9022748  +6.6731523     685.1703      1113.32     1491.786     69.64289     125.8567      236.537      1.870     4.54      827.182     54.83862     122.2491         7     0.892     0.658  10.41  24
        18    386.7319      1.1386 307.7771626  +6.6834331     490.0376     554.8044      289.888     65.21878      120.625     230.8126      1.063     3.01     824.7584     54.83862     150.6052         5     0.918     0.343   2.94  24
        19    591.8005    991.9359 307.6581273  +6.2810502      858.233     1735.173     2025.394     77.24268     155.2931     310.8648      2.015     6.60     851.6485     54.83862     114.0845        14     1.838     0.665  31.45   0
        20    743.2953   1022.1007 307.5941905  +6.2736658     878.0385     1765.692     1871.676     77.98661     144.4412     257.9818      2.010     6.81     850.5667     54.83862      147.496        14     1.678     0.776  49.46  24
        21    565.6141   1023.5704 307.6679223  +6.2671046     1013.895     1395.766     1529.187     69.08796     125.0128     235.5177      1.340     3.50     852.4571     54.83862     235.6735        11     1.276     0.637   8.69  24
        22    422.7539   1023.7488 307.7272376  +6.2622362     589.4984     921.8544     1139.759     66.96602     122.4462     232.9293      1.326     3.45     851.7357     54.83862     131.8911         6     1.014     0.386 -12.17  24
        23    522.7040    990.1735 307.6868800  +6.2794605     2965.379     6312.486      7215.69     78.10992      155.355     310.9886      2.301     6.06     851.7693     54.83862     348.0176        39     1.970     1.134  34.22   0
        24    631.9495    989.1033 307.6415516  +6.2835662     946.0757     1902.374     1676.189     77.86312     155.5407     311.2979      2.006     6.50     851.0238     54.83862     134.5692        16     1.910     0.621  45.89   0
        25     57.3946    988.5580 307.8801505  +6.2644795      754.937     1354.347      1639.55     77.36717     155.2931     310.8339      2.031     5.86     845.5669     54.83862     97.35626        10     1.479     0.653  49.68   0
        26    476.0021    986.7269 307.7063907  +6.2793168     1577.737     3115.913     2997.781     77.49146     155.1691     310.9886      1.974     6.22     851.9297     54.83862     231.5898        22     1.780     0.828  35.77   0
        27    910.3901    978.7772 307.5262761  +6.2971519     30862.31     63888.98     72784.88     77.61554      155.355     310.9577      2.204     5.76     846.5754     54.83862     3506.249        94     2.205     1.404  38.74   0
        28    217.4785    976.8164 307.8140805  +6.2747211     1360.894     2783.128     2708.365     77.61554      155.355     310.9886      2.127     7.37     849.7585     54.83862     161.1133        23     1.852     0.873  40.31   0
        29    808.2988    972.4985 307.5688854  +6.2963312     1791.842     3486.693     4346.201     77.98662     155.9732     310.9577      2.301     6.45     847.0414     54.83862     208.1322        25     1.816     0.998  47.11   0
        30    756.4446    970.4936 307.5904871  +6.2954238     4911.758     9844.065     11971.64     77.86312     155.5407     311.2361      2.280     6.19      848.364     54.83862     582.3777        49     2.080     1.356  49.13   0
        31    615.8996    974.4359 307.6487166  +6.2890870     664.6412     1063.923     759.8414     77.98661     155.4789      311.267      1.574     3.70     850.9667     54.83862     112.3409         6     0.795     0.495   2.27   0
        32    226.3298    969.6268 307.8106512  +6.2779887     1127.048     2233.301     2421.708     77.61554     155.4789     311.0505      2.028     7.56     849.8461     54.83862     153.6353        20     1.783     0.898  35.63   0
        33    543.4083    969.8677 307.6789752  +6.2885429     825.0081     1410.914     1136.925     77.49146      155.355     311.0196      1.648     5.43     851.1529     54.83862     96.31451        11     1.227     0.679  40.66   0
        34    190.5051    969.3705 307.8255359  +6.2768888      674.161     1169.357     1309.291     78.10992      155.355     311.0196      2.080     3.88     848.6586     54.83862     88.69794         7     1.126     0.702  84.41   0
        35     50.6467    967.3285 307.8836802  +6.2730210     2002.809     4344.542     4387.889     77.98662     155.6026     311.1124      2.145     6.71     845.1765     54.83862     231.3436        29     1.895     1.041  47.17   0
        36    944.8209    965.5469 307.5124274  +6.3037678     4807.155     9925.809     10699.07     77.49146     155.6026     310.9268      2.189     6.28     845.2956     54.83862     518.0287        48     2.121     1.180  39.34   0
        37    628.2141    960.3793 307.6440819  +6.2953062     494.0955     773.8591     503.4991     77.73943     155.2931     311.0196      1.612     4.69     850.3161     54.83862     68.41797         6     0.821     0.761   8.33   2
        38    918.5779    956.9312 307.5236184  +6.3064497     1470.438     3059.601     2124.371     77.61554     155.5407     311.0815      1.542     7.54     845.6169     54.83862     208.0663        22     1.839     0.919  46.87   0
        39    639.2999    953.1197 307.6397258  +6.2986766     3414.084     6677.924     7745.329     77.98661     156.0349     311.1433      2.093     6.55     849.9006     54.83862     434.4918        35     1.990     1.011  41.92   0
        40    251.4932    953.3570 307.8007589  +6.2855559     3382.408     6555.471     7530.298     77.98662     155.6026     311.2361      2.147     5.73     849.7336     54.83862     398.7296        35     1.840     1.144  43.65   0
        41    779.6851    954.6871 307.5813740  +6.3027311     669.6564     1628.926     2157.753     77.73943      155.788     311.1743      3.115     6.28     847.4764     54.83862     127.1076         8     1.356     0.818  40.54   2
        42    987.2074    952.4243 307.4952709  +6.3106046      552.892     1204.512     1285.857     77.49146     155.4789     310.9577      2.138     6.36     843.7217     54.83862     78.34845         7     1.180     0.961  37.27   2
        43    461.7087    952.0049 307.7135117  +6.2931796     881.9297     1677.581     1636.562     77.61554     155.2931     310.8648      1.832     6.98     850.9173     54.83862     118.7745        13     1.633     0.836  40.45   0
        44     20.0352    950.7191 307.8969606  +6.2788496     1475.188     3092.182     3617.797     77.86312     155.6644     311.1124      2.217     7.63     843.8745     54.83862     173.7123        23     1.631     0.998  38.73   0
        45    942.1683    946.7888 307.5141665  +6.3114278     626.0078     1191.914     1440.622     77.49146      155.355     310.9886      2.048     5.63     844.6584     54.83862     93.23505         9     1.586     0.562  47.63   0
        46    995.4705    946.0143 307.4920571  +6.3135284      661.151     1091.758     1258.632     77.49146     155.4789     311.0196      2.071     6.40     843.4667     54.83862      110.986         9     1.435     0.801  41.16   0
        47    563.9817    945.3868 307.6712670  +6.2993455     1301.549     2546.169     2190.083     77.73943     155.2931     311.0196      1.946     7.43      850.476     54.83862     151.5056        19     1.706     0.906  45.56   0
        48    603.3120    942.1145 307.6550458  +6.3020161     953.1309     1817.075     2087.543     77.73943     155.8498     311.2052      2.043     7.02     850.2138     54.83862     132.4614        16     1.664     0.830  41.84   0
        49    283.1864    940.0349 307.7880539  +6.2921249     1001.983     2140.013     3284.697     77.49146     155.4169     310.9886      3.343     7.33     849.9913     54.83862     147.8679        16     1.648     0.912  32.88   0
        50    749.2098    936.1071 307.5946624  +6.3093859     651.8783     1469.443     1584.146     77.61554     155.2311     310.9268      2.136     6.30     847.4954     54.83862     107.6595        10     1.664     0.671  27.14   0
        51    887.4365    932.3949 307.5373852  +6.3155442     4993.189     10044.54     10448.45       77.118      155.355     310.9268      2.081     5.99      845.739     54.83862     587.1133        45     2.020     1.167  37.15   0
        52    324.9924    927.8847 307.7711091  +6.2985496     7294.982     14283.14     15672.47     77.61554     155.2931     310.9577      2.075     5.78     850.2507     54.83862     868.3881        49     1.975     1.160  39.30   0
        53    245.0930    926.7249 307.8043278  +6.2963414     5362.659     10691.34     12478.67     77.86312     155.7262     311.1124      2.139     5.83     848.9191     54.83862     665.4771        45     1.960     1.165  38.57   0
        54    572.8517    921.4474 307.6684000  +6.3095317     849.0346     1494.563      1529.49     78.10992     155.4789     311.1433      1.928     5.67     849.8457     54.83862     128.6662        11     1.590     0.571  41.66   0
        55    903.4838    919.4714 307.5311603  +6.3214191     577.8547     810.5751     1399.911     78.23302     155.9115     311.1433      1.897     3.55     844.9972     54.83862     98.18048         5     0.773     0.471 -14.50   3
        56    901.9549    916.3174 307.5319025  +6.3226709     719.1136     982.9558      1462.77     77.98661     155.6026     311.1124      1.527     5.60     845.0051     54.83862     96.29962        10     1.186     0.745  37.48   2
        57    423.2346    929.5247 307.7302564  +6.3011735     1639.606     3321.896     3412.497     77.86312     155.6644     311.0815      2.081     7.23     850.5789     54.83862     190.6061        27     1.907     1.027  41.87   0
        58    971.4109    914.1920 307.5031299  +6.3258700     538.0768     831.0168     1155.134     77.61554     155.4169     311.0505      1.928     3.75     843.2958     54.83862     71.95117         5     1.049     0.385  -4.77   0
        59    739.5793    910.3477 307.5995389  +6.3197042     1185.684     2313.867     2754.284     77.49146     155.6026     310.9268      2.052     7.15     847.2244     54.83862     144.3068        20     1.694     0.847  35.16   0
        60    971.4293    907.4451 307.5033515  +6.3286577     829.0759     1914.785     3936.728     77.61554     155.6644     310.9886      4.078     4.59     843.1507     54.83862     143.9548        10     1.182     0.864  35.33   2
        61    603.8382    907.7672 307.6559985  +6.3162218     547.2289     1109.548     1022.895     77.61554     155.4169     310.8958      2.301     5.98      849.421     54.83862     109.9011         8     1.687     0.595  26.64   0
        62    524.9321    906.7651 307.6888010  +6.3139891     862.1476      1456.09     1779.407     77.86312     155.6644     311.2052      1.778     4.38     849.6766     54.83862     129.4593         7     1.178     0.463  48.45   0
        63    657.9778    903.8313 307.6336492  +6.3196624      2009.05     3700.686     4804.423     77.49146     155.4169     310.9268      2.094     6.91     848.4083     54.83862     237.0237        22     1.741     0.857  40.95   0
        64   1009.3430    902.6954 307.4877672  +6.3318861     528.3242     940.1455       667.27     77.86312     155.6026     311.3289      1.346     4.22      842.143     54.83862      81.5564         6     1.508     0.337  45.94   0
        65    819.2341    900.7781 307.5667846  +6.3263233     672.6392     1278.848     1133.977     77.49146     155.4169     310.8648      1.895     6.44     846.4846     54.83862     114.4879        11     1.413     1.112  45.21   0
        66     54.7556    899.9418 307.8842841  +6.3009942     2064.739       4512.2     5271.438     77.86312     155.5407     311.2052      2.412     7.32     845.0529     54.83862     277.9818        28     1.936     1.015  44.39   0
        67     72.2596    899.0273 307.8770468  +6.3019619     1416.929     2878.161     3292.392     77.61554     155.6644     311.0196      2.204     6.78     845.5851     54.83862     211.1862        25     1.902     1.046  41.88   0
        68    936.3834    899.4873 307.5181765  +6.3307739     569.6849     1073.416     1447.994     77.73943      155.355     310.9886      2.060     4.29      843.902     54.83862     99.79065         5     1.331     0.395  54.55   0
        69    198.0540    898.8924 307.8248140  +6.3062549     1603.498     3291.006     3423.607     77.86312     155.5407      311.267      2.104     6.58     847.9244     54.83862        204.6        24     1.702     0.999  40.94   0
        70    338.0306    896.0000 307.7667849  +6.3121585      698.121     1466.521     2228.562     77.24268      155.355     310.8958      2.165     4.17     849.4325     54.83862     98.34601         5     1.121     0.443 -21.12   2
        71    231.8970    895.7570 307.8108674  +6.3086891     553.1948      729.605      651.684     77.98661     155.5407     311.2979      1.453     4.78     848.5643     54.83862     110.5959         6     1.540     0.420  38.71   0
        72    652.7415    893.0304 307.6361919  +6.3239485     5135.875     9896.434     10928.55     77.73943     155.6026     311.0505      2.095     5.76     848.2792     54.83862     604.6318        43     1.999     1.101  41.51   0
        73    890.3732    889.3636 307.5376288  +6.3334178     2086.552      4126.49     4310.119     77.49146     155.4169     310.9268      2.086     6.49     845.0782     54.83862     231.4034        30     1.852     1.084  45.13   0
        74     14.0233    892.2101 307.9014635  +6.3028145     733.2971     1047.014     1048.188     77.61554     155.4169     310.9886      1.531     4.55     843.7627     54.83862     102.7177         7     0.797     0.738  66.38   3
        75     11.4261    890.0104 307.9026175  +6.3036355     804.6201     1061.589     1162.358     77.61554     155.4169     310.9886      1.441     3.82     843.6721     54.83862       130.85         8     0.871     0.677  33.22   3
        76     25.6954    889.7886 307.8966997  +6.3042083     921.5225     1679.722     2253.092     77.61554     155.2931     310.8648      2.190     6.88     844.1317     54.83862     116.0139        15     1.476     0.899  27.13   0
        77    335.6849    886.1074 307.7680972  +6.3161659     12097.82     24116.57     27320.57     77.73943     156.0349     311.2052      2.139     6.00     849.1273     54.83862     1494.677        57     2.042     1.189  39.64   0
