#   1 NUMBER                 Running object number                                     
#   2 X_IMAGE                Object position along x                                    [pixel]
#   3 Y_IMAGE                Object position along y                                    [pixel]
#   4 ALPHA_J2000            Right ascension of barycenter (J2000)                      [deg]
#   5 DELTA_J2000            Declination of barycenter (J2000)                          [deg]
#   6 FLUX_APER              Flux vector within fixed circular aperture(s)              [count]
#   9 FLUXERR_APER           RMS error vector for aperture flux(es)                     [count]
#  12 FLUX_RADIUS            Fraction-of-light radii                                    [pixel]
#  13 FWHM_IMAGE             FWHM assuming a gaussian core                              [pixel]
#  14 BACKGROUND             Background at centroid position                            [count]
#  15 THRESHOLD              Detection threshold above background                       [count]
#  16 FLUX_MAX               Peak flux above background                                 [count]
#  17 ISOAREA_IMAGE          Isophotal area above Analysis threshold                    [pixel**2]
#  18 A_IMAGE                Profile RMS along major axis                               [pixel]
#  19 B_IMAGE                Profile RMS along minor axis                               [pixel]
#  20 THETA_IMAGE            Position angle (CCW/x)                                     [deg]
#  21 FLAGS                  Extraction flags                                          
         1    932.7420     24.1454 307.5553107  +6.6941202     3739.009     6023.076     6288.538     79.57073     158.5757     316.9623      1.677     4.31     843.8056     55.86422     596.9095        28     1.796     0.819  42.65   0
         2    716.8448     16.8556 307.6452530  +6.6899218     6907.376     11059.11     11780.87     79.44512     158.5127     316.9308      1.653     4.46     847.0358     55.86422     1124.052        34     1.681     0.911  43.41   0
         3    637.1218     16.0645 307.6784012  +6.6875825     3409.252     5663.723     5602.031     79.69614     158.5757     316.8993      1.733     4.70     848.9645     55.86422     506.7507        28     1.779     0.854  40.93   0
         4    393.1127     14.3351 307.7798332  +6.6801230     710.3981     993.5184     649.4511     79.44512     158.7016     316.9623      1.724     5.34     856.5546     55.86422     97.66461         9     1.226     0.657  67.95   0
         5    437.2005     12.2762 307.7615865  +6.6824515     5728.807     9548.469     10044.44     78.68729     157.8814     316.7417      1.741     4.50     853.3658     55.86422     833.6168        33     1.735     0.924  43.43   0
         6     38.1646     11.7775 307.9273766  +6.6692523     7592.623     12852.13     14128.39      78.9407     158.2605     316.7102      1.797     4.58     861.8995     55.86422     1063.704        38     1.776     0.966  44.75   0
         7    684.3983     11.3814 307.6589174  +6.6910975     683.6896     1092.805     1141.141     79.06712     158.0711     316.6471      1.583     4.71     848.3538     55.86422     127.8787         9     1.193     0.615  40.87   0
         8    512.9677      9.6708 307.7301969  +6.6860664     866.6374     1497.278     1405.811     79.31932     158.5127     316.8993      1.648     6.25     849.3837     55.86422     146.6897        11     1.533     0.716  86.51  16
         9    333.7962      7.1982 307.8047166  +6.6810799     11767.92     19719.33     21805.93     78.81409     158.0711      310.597      1.756     4.40     860.4746     55.86422     1702.639        48     1.840     1.066  44.41  16
        10    429.0614      8.0515 307.7651104  +6.6839231     751.8184      1219.57     1706.861     79.44512     158.4497     315.7312      1.820     6.06     853.9924     55.86422     114.8143        11     1.608     0.642  59.96  16
        11    107.4578      7.5035 307.8987352  +6.6733489     2301.893      3782.67     4375.708     79.31932     158.5127     312.9034      1.810     4.66     862.9907     55.86422     385.7396        21     1.617     0.778  45.28  16
        12     98.9826      6.4256 307.9022925  +6.6735088     1414.921     2410.086     2680.095     79.06711     158.3236     304.5906      1.681     4.93      862.876     55.86422     210.8539        14     1.498     0.668  55.48  16
        13    802.2517      6.2552 307.6101259  +6.6971526     986.6151     1518.958     1755.774     79.44512     158.5127     303.1446      1.662     6.11     843.8795     55.86422     141.6337        13     1.416     0.742  41.35  16
        14    400.1934      5.2717 307.7771973  +6.6841029     2071.531     3589.519     3476.703      78.9407     158.0711     292.9928      1.733     4.65      856.097     55.86422     320.2981        22     1.665     0.786  44.55  16
        15    467.8693      5.1786 307.7490845  +6.6864103     496.9392     891.0946     1015.502     79.06711     158.4497      292.071      2.039     4.73     850.6956     55.86422     78.18304         6     1.135     0.559  23.84  16
        16    995.2456      2.0945 307.5300819  +6.7053097     710.4896     1049.917     1109.286     77.14927     136.9483     250.8695      1.396     3.92     836.5988     55.86422     145.8149         8     1.062     0.544  64.15  24
        17    661.4342      1.7680 307.6687815  +6.6942992     8186.009     9811.776      9712.64     73.84227     132.1989     245.3145      1.191     2.84     848.6533     55.86422     1653.139        21     1.169     0.772  19.14  24
        18    826.1563      1.3016 307.6003606  +6.6999964     877.5305      1159.43     1386.501     68.65619     125.4547     238.0838      1.049     2.53     843.3934     55.86422     234.8972         5     0.745     0.423  16.90  24
        19    538.7986      1.2394 307.7197494  +6.6904131     843.7998     1160.948     1038.829     67.33434      124.094     236.5267      1.136     2.38     848.8912     55.86422     238.8336         6     0.919     0.379  13.58  24
        20    605.8647    997.8785 307.6583605  +6.2811091     1219.008     2030.609     2256.564     79.69614     158.5757     316.8993      1.678     4.62     882.6311     55.86422      168.796        13     1.323     0.751  39.34   0
        21    964.7783   1022.3777 307.5085425  +6.2829739     5672.534      9204.64       9861.9     79.19331     143.6395     258.7086      1.744     4.60     875.1628     55.86422     688.0261        32     1.724     1.003  28.85  24
        22    719.8264   1023.2791 307.6101989  +6.2744292     831.7746     1314.887     2074.097      73.7069     131.5931     244.7847      1.840     4.91     881.0998     55.86422     140.4343         7     0.987     0.692  11.01  25
        23    249.1931   1022.5489 307.8055891  +6.2589735     1314.692     1856.001     1837.219      78.9407     141.3972     255.8362      1.490     4.68     884.9431     55.86422     203.6906        13     1.380     0.772  46.64  24
        24    537.2833    996.3781 307.6868809  +6.2794345     4057.221     6838.498     7758.997     79.19331     158.1974     316.8048      1.952     4.41      884.376     55.86422     512.5792        36     1.974     1.003  29.87   0
        25    646.8245    995.7398 307.6414288  +6.2833618     1180.746     1641.894     1546.429     79.06711     158.5127     316.8048      1.489     3.79     881.7445     55.86422      194.885         9     1.107     0.554  42.32   0
        26     71.7497    994.9890 307.8801758  +6.2643939     840.6586     1387.028     1631.468     78.81409     158.3866     316.6471      1.799     5.23     883.6124     55.86422     110.3724        11     1.111     0.805  34.22   0
        27    490.4819    992.8029 307.7064295  +6.2793442      2109.16     3484.467     3669.797     78.81409     158.1342     316.6471      1.713     4.90     884.3734     55.86422       318.75        22     1.645     0.875  38.20   0
        28    924.8096    984.9763 307.5263880  +6.2970865     38707.48     67217.27     73570.33     79.06711     158.3236     316.8048      1.887     4.38     876.2003     55.86422      5123.32        82     1.943     1.262  43.04   0
        29    232.2541    983.2920 307.8139448  +6.2746153     1781.979      2568.49     2481.804     79.31932     158.3866     317.0883      1.580     4.00     884.4145     55.86422     246.0333        17     1.300     0.896  39.98   0
        30    120.7755    982.3708 307.8602515  +6.2712520     451.9684     802.9479     163.2863      78.9407     158.3866     316.7733      1.477     3.43     883.3185     55.86422     70.62683         5     1.188     0.286  54.79   0
        31    631.3486    981.6436 307.6483270  +6.2886653     748.5574     987.5701     899.7095     79.57073     158.4497     316.9623      1.452     4.36     881.8074     55.86422     146.5014         9     1.109     0.614  50.02   0
        32    822.7966    978.7563 307.5689465  +6.2962524     2044.714     3380.582     3910.472     78.81409     158.1342      316.584      1.794     4.34     877.3017     55.86422      282.028        19     1.436     0.854  49.70   0
        33    771.0023    976.5485 307.5905226  +6.2954352     6232.639      10580.3     11981.89     78.81409     158.1342     316.5209      1.817     4.29     878.5812     55.86422     840.0955        35     1.759     0.969  48.19   0
        34    240.3833    975.5291 307.8108321  +6.2780937     1286.046     2010.199     2164.615      78.9407     158.4497     316.8363      1.704     5.41     884.3348     55.86422     202.7264        15     1.531     0.775  48.32   0
        35    205.0776    975.6666 307.8254833  +6.2768518     840.0448     1511.188     1556.297     79.57073     158.5757     316.8993      1.845     5.26     883.9572     55.86422     142.2781        11     1.250     0.827  45.44   0
        36    557.5435    975.5303 307.6791714  +6.2887212     993.1697     1615.629     1382.431     79.57073     158.5127     316.8993      1.753     4.38     883.3304     55.86422     187.2114        10     1.251     0.602  46.65   0
        37     65.2542    973.5977 307.8835949  +6.2730085     2629.183     4337.751     4599.278     78.81409     158.3236     316.5525      1.793     4.08      883.266     55.86422     347.2606        27     1.629     0.939  44.48   0
        38    959.1221    971.6485 307.5125897  +6.3037338     6018.431     10408.76     11445.46     79.44512     158.5757     316.8993      1.876     4.32     874.6199     55.86422     726.6312        40     1.815     1.076  40.21   0
        39    214.5325    967.2397 307.8218429  +6.2806489     541.9995     967.7379      1240.66     79.31932     158.4497     317.0254      1.951     4.91     883.9604     55.86422     100.7712         5     1.029     0.663  14.09   0
        40    641.9445    966.1289 307.6444496  +6.2954262     558.3716     576.1782     557.0533     79.31932     158.4497     316.8993      1.406     3.88     881.3163     55.86422     90.82324         6     0.964     0.449  38.44   0
        41    932.9858    963.3424 307.5237185  +6.3062926      1874.72     3180.326     2923.402     78.81409     158.3866     316.6156      1.802     5.16     875.3363     55.86422      240.092        24     1.729     0.918  37.22   0
        42    792.6085    959.8949 307.5821117  +6.3030335     1172.057     2061.127     2011.089     79.19331     158.1342     316.6786      1.904     5.87     877.5186     55.86422      141.702        17     1.536     0.754  43.32   0
        43    653.6140    959.2081 307.6398376  +6.2986741     4228.198      6934.08     7613.402     79.06712     158.2605     316.7733      1.773     4.55     880.9827     55.86422      612.461        27     1.654     0.865  44.41   0
        44    265.8149    959.3910 307.8008194  +6.2856110     4175.005     6702.157     7138.001     79.19331     158.2605     316.8048      1.720     4.29     884.3315     55.86422     599.4182        28     1.655     0.887  46.08   0
        45    475.7186    957.7800 307.7137368  +6.2933121     1051.613     1847.459     2129.957     79.19331     158.1974     316.8678      1.923     4.46     883.5469     55.86422     165.1085        13     1.317     0.670  46.42   0
        46   1002.8618    957.9598 307.4948895  +6.3108439     638.9871     1029.556     1298.916     79.44512     158.5127     316.9939      1.633     3.86     872.9771     55.86422     88.77167         5     0.817     0.521 -30.72   0
        47     34.6390    956.8026 307.8968711  +6.2789142     2022.581     3503.548     3494.297     78.56026     158.2605     316.6471      1.842     4.76     882.7275     55.86422     265.6815        21     1.542     0.855  41.77   0
        48    885.5679    955.8655 307.5436547  +6.3077991     903.9862     1334.305     1298.598     79.31932     158.5757     316.8993      1.682     4.66     875.8491     55.86422     110.1923         8     0.936     0.659  32.25   0
        49    956.9033    952.9333 307.5141377  +6.3113882     647.5649     984.9209     765.3726     79.44512     158.5757     316.9623      1.647     5.19     874.3387     55.86422     89.25879         7     1.210     0.628  57.73   0
        50   1008.0003    950.0000 307.4930227  +6.3143020     503.2639     1221.051     1298.321     78.68729     158.0079     316.6156      2.284     3.38     872.8415     55.86422     93.90765         4     0.717     0.462  -0.01   2
        51    578.3497    951.5226 307.6713413  +6.2993310     1618.322     2585.158     2563.181     79.44512     158.5757     316.8993      1.737     4.96     882.1873     55.86422     266.6017        18     1.592     0.842  34.13   0
        52    617.4211    947.9142 307.6552424  +6.3021278     1104.946     1985.345     1925.808     79.31932     158.2605     316.8363      1.693     5.89     881.4199     55.86422     166.7119        15     1.562     0.662  44.27   0
        53     66.8520    948.4611 307.8837811  +6.2834417     737.2021     1236.231     1387.565     79.44512     158.4497     316.9308      1.854     4.03     882.7849     55.86422     115.4596         6     1.011     0.460  52.58   0
        54    297.3945    945.9241 307.7881640  +6.2922314     1237.491     2150.073     2530.304     79.06711     158.0079     316.7733      2.895     5.65     884.5336     55.86422      207.763        15     1.727     0.662  47.41   0
        55    565.5726    944.4680 307.6768828  +6.3018167     560.8539     1085.159      1232.16     79.06712     158.3866     316.8363      1.895     5.58      882.156     55.86422     87.83911         8     1.065     0.826  34.00   0
        56    764.5361    942.2402 307.5943584  +6.3093867     796.9243     1228.774     1273.209     79.44512     158.4497     316.9939      1.592     5.13     878.0933     55.86422     130.7253         9     1.249     0.636  51.84   0
        57    901.9489    938.6133 307.5374323  +6.3154696     6339.215     10747.39     10985.04     78.81409     158.4497     316.6786      1.781     4.45     875.1054     55.86422     864.5504        37     1.774     0.987  46.14   0
        58    140.0661    940.5715 307.8536554  +6.2891601     526.7745     894.8829      527.766     79.19331     158.4497     316.8678      1.476     4.25     883.0609     55.86422     94.64764         5     1.096     0.471  61.58   0
        59    437.7242    935.5954 307.7302565  +6.3012004     1981.787     3294.487     3449.428     79.06712     158.0079     316.7733      1.715     4.28     883.0171     55.86422     316.6512        20     1.616     0.798  45.96   0
        60    339.4243    934.0660 307.7711159  +6.2985375     8811.909     14569.27     15711.44     79.06711     158.5127     316.8678      1.752     4.41     884.5214     55.86422     1179.077        39     1.715     1.014  45.97   0
        61    259.5505    932.9787 307.8043107  +6.2963072     6448.028     10759.78     11282.65      78.9407     158.5757     316.8048      1.727     4.33     884.0409     55.86422     966.7063        35     1.715     0.952  43.07   0
        62    587.4417    927.5319 307.6683734  +6.3095418     1106.266     1730.685     1516.042     79.31932     158.4497     317.0254      1.581     5.29     881.4175     55.86422     152.2571        14     1.431     0.761  44.92   0
        63    772.7436    927.3566 307.5914505  +6.3158068     546.3604     801.9366     887.3189     79.31932     158.5127     316.9308      1.225     3.47     877.5558     55.86422     91.35059         5     1.182     0.294  53.99   0
        64    917.5353    923.6201 307.5314639  +6.3221807     1042.372     1913.871     2601.592     79.06712     158.5127     316.7733      2.141     6.68     874.4899     55.86422     141.8536        15     1.516     0.825  37.19   0
        65    149.4794    923.6904 307.8503177  +6.2964470     550.0305     929.7498     1440.081     79.19331     158.7016     316.9939      1.946     5.59     882.9174     55.86422     101.6424         6     1.279     0.690  51.75   0
        66    873.8341    922.4783 307.5496453  +6.3211949     839.5811      1631.79      1850.93     79.31932     158.5127     316.8993      1.975     6.08     875.0869     55.86422     126.6181        12     1.512     0.686  29.05   0
        67    985.8257    919.8698 307.5032376  +6.3260055     665.7496     1142.301     1579.665     79.06711     158.3866     316.8678      1.988     5.94     873.0042     55.86422     97.23218        11     1.555     0.639  61.80   0
        68    847.5380    917.6501 307.5607244  +6.3223114     581.5455     627.4836     565.6044     79.44512     158.4497     316.9939      1.351     5.00     875.5544     55.86422     93.15643         6     0.970     0.729  56.62   0
        69    754.2448    917.0222 307.5994773  +6.3194567      1472.79     2410.381     2676.316      78.9407     158.4497     316.7733      1.719     5.95     877.8348     55.86422     187.8426        17     1.480     0.774  51.16   0
        70    577.6942    917.4767 307.6727582  +6.3133679     677.6518      981.208     893.8719     79.19331     158.6386     316.9308      1.458     4.27     881.2321     55.86422     114.3648         6     1.134     0.459  45.62   0
        71      4.8771    913.9686 307.9106739  +6.2956002     842.1522     1437.574     1576.524     79.31932     158.5757     288.7353      1.745     4.66      881.117     55.86422     134.4161        12     1.280     0.822  51.92  16
        72    985.4224    912.5145 307.5036514  +6.3290294     1163.894     1717.469     1859.555     79.44513     158.3236     316.8363      1.624     5.58     872.7771     55.86422     154.4703        15     1.549     0.726  45.11   0
        73    539.2571    912.7391 307.6888748  +6.3140382      1099.62     1744.728       1554.6     79.57073     158.4497     316.9623      1.661     5.28     881.5496     55.86422     192.0126        13     1.422     0.655  46.25   0
        74    630.1959    913.4179 307.6510983  +6.3167999     534.6994     795.5175      816.314     79.06712     158.0711     316.7417      1.380     4.56     880.4738     55.86422     120.7112         6     1.297     0.455  25.12   0
        75    618.0977    913.1728 307.6561292  +6.3164965     643.7972     1069.857     692.2328     79.57072     158.2605     316.8993      1.605     3.96     880.6622     55.86422     103.2997         6     0.790     0.568  39.13   0
        76    672.5643    910.0154 307.6336231  +6.3196212     2451.096     3970.547     4052.957     79.06711     158.3236     316.7417      1.710     4.73     879.7267     55.86422     338.4402        23     1.611     0.860  47.26   0
        77    212.7590    905.2481 307.8246710  +6.3061874     2097.959     3296.877     3448.954     79.31932     158.4497     316.8048      1.670     4.58     883.1881     55.86422     290.0732        21     1.610     0.862  43.80   0
