#   1 NUMBER                 Running object number                                     
#   2 X_IMAGE                Object position along x                                    [pixel]
#   3 Y_IMAGE                Object position along y                                    [pixel]
#   4 ALPHA_J2000            Right ascension of barycenter (J2000)                      [deg]
#   5 DELTA_J2000            Declination of barycenter (J2000)                          [deg]
#   6 FLUX_APER              Flux vector within fixed circular aperture(s)              [count]
#   9 FLUXERR_APER           RMS error vector for aperture flux(es)                     [count]
#  12 FLUX_RADIUS            Fraction-of-light radii                                    [pixel]
#  13 FWHM_IMAGE             FWHM assuming a gaussian core                              [pixel]
#  14 BACKGROUND             Background at centroid position                            [count]
#  15 THRESHOLD              Detection threshold above background                       [count]
#  16 FLUX_MAX               Peak flux above background                                 [count]
#  17 ISOAREA_IMAGE          Isophotal area above Analysis threshold                    [pixel**2]
#  18 A_IMAGE                Profile RMS along major axis                               [pixel]
#  19 B_IMAGE                Profile RMS along minor axis                               [pixel]
#  20 THETA_IMAGE            Position angle (CCW/x)                                     [deg]
#  21 FLAGS                  Extraction flags                                          
         1    177.6192     20.1644 307.8654001  +6.6680782     4956.294     13862.99     16974.82     89.88207     180.2676      360.607      2.718     6.44     1160.539     63.60712     524.3954        67     2.173     1.807  79.68   0
         2    923.2993     17.5358 307.5553350  +6.6940342     2559.348     5619.873     5748.599     90.45641     180.5546     360.8941      2.220     5.39     1132.811     63.60712     250.8271        38     1.658     1.496 -58.55   0
         3    522.2488     18.5903 307.7221142  +6.6802467     1563.014     3717.218     4691.582     89.88207     180.2676     360.4992      2.590     6.50     1141.911     63.60712     187.1973        27     1.474     1.417 -40.47   0
         4    460.3263     16.5734 307.7479378  +6.6790129     830.7473     2065.955     3069.065       90.026     180.4112     360.8223      2.917     9.07     1145.087     63.60712     109.8962        14     1.558     1.474   4.68   0
         5    723.7241     16.9571 307.6383677  +6.6876358     1008.532     2127.832     2431.671     90.31316     180.5546     360.8941      2.160     6.15     1137.594     63.60712     130.4995        13     1.323     0.805  54.67   0
         6    987.7704     13.9087 307.5286397  +6.6976732     1340.206      2874.65     2856.113     90.59942     180.1957     360.7864      2.170     6.84     1128.542     63.60712     136.6595        21     1.380     1.263 -42.79   0
         7    707.4008     10.3226 307.6453806  +6.6898320     3782.789     9444.537     10691.55     89.59353     179.8362     360.5711      2.500     5.78     1138.086     63.60712     347.8423        50     1.821     1.677  87.40  16
         8    627.7737      9.7076 307.6785217  +6.6874334     1819.775     4811.623     5460.288     90.59942     180.1957     360.6788      2.608     7.55      1139.67     63.60712     182.0303        39     1.923     1.513  57.43  16
         9    427.8533      6.1571 307.7617957  +6.6822300      2690.42     7606.064     9780.535     90.45641     180.4829     343.9964      2.791     7.47     1148.197     63.60712     299.1182        50     2.100     1.627  87.46  24
        10     28.8796      5.8587 307.9277462  +6.6690014     4286.447     11066.54     13275.87     90.59942     180.4829     340.8203      2.592     6.23     1162.361     63.60712     468.6279        59     2.072     1.690  80.21  24
        11    324.4848      2.5190 307.8049125  +6.6802783     5551.525     11514.24     12708.63     90.16969     162.5159     292.9797      2.143     6.77     1158.575     63.60712     623.8494        40     1.837     1.317  -4.63  24
        12     98.5035      2.2786 307.8989104  +6.6728137     1263.973     2466.589     2930.626     89.30405      158.972     288.9304      2.186     7.56     1161.283     63.60712     165.4625        19     1.379     1.159  23.20  24
        13    514.7800   1002.9472 307.6920568  +6.2735023     965.4363     1716.412     1589.403     89.88207     180.4829     360.6429      1.693     6.21     1190.544     63.60712     141.2106        11     1.168     0.927  -9.99   0
        14    748.1875   1021.8336 307.5944156  +6.2734753     1045.386     1672.865     1316.225     89.88207     169.9918     303.5706      1.764     6.61     1190.387     63.60712     144.7659        16     1.349     0.910 -62.67  24
        15    716.1176   1023.7245 307.6076807  +6.2716275     1176.467      1571.76     2170.414      78.0063     142.6616     270.5091      1.175     3.04     1191.157     63.60712     303.1342         9     1.147     0.432  -6.08  24
        16    572.0340   1023.4193 307.6675729  +6.2669564     1289.696     2044.121     2126.409     81.57599     147.4808     276.0051      1.639     4.89     1190.815     63.60712     254.4338        12     1.387     0.737  14.12  24
        17    810.3979   1000.6422 307.5692715  +6.2842951     937.3537     1673.502     1412.713     89.73792     180.1239     360.5352      1.841     5.58     1186.986     63.60712     148.5726        10     1.155     0.781  87.37   0
        18    419.4733   1000.5951 307.7317459  +6.2712949     890.9182     1668.755     1296.729       90.026     179.9801     360.7505      1.867     6.45     1191.801     63.60712     127.4996         9     1.424     0.819  49.66   0
        19    910.3290    994.4830 307.5279444  +6.2901588     7480.226     12978.73     14653.07     90.74221     180.8412     360.8941      1.939     3.87     1186.567     63.60712     892.1718        49     1.760     1.314  80.19   0
        20    266.4174    997.9778 307.7954436  +6.2672646     638.8716     967.3368     299.7858     90.16969     180.3394     360.7864      1.622     3.91     1191.449     63.60712     104.1761         5     0.752     0.637  -4.67   0
        21    884.0165    990.6401 307.5390095  +6.2908718     10392.71     19003.56     21155.29     89.88207     180.3394     360.6429      1.996     3.92     1186.476     63.60712     1282.836        57     1.709     1.467  79.94   0
        22   1005.7417    990.0970 307.4884351  +6.2951370     4230.386     7140.166     7653.722     90.31316     180.4829     361.0375      1.834     3.91     1184.044     63.60712     573.4695        30     1.508     1.083  85.15   0
        23    596.5513    991.6849 307.6584509  +6.2808782     903.0013     1727.207     1972.422     90.45641     180.4829     360.8941      2.206     3.91     1189.621     63.60712     122.3441         9     1.020     0.710  22.72   0
        24    528.2585    989.8615 307.6868956  +6.2793555      2940.24      6072.46     6975.073     90.59942     180.4112     360.8941      2.241     4.80     1190.028     63.60712     333.7522        35     1.638     1.370  77.11   0
        25    637.7068    989.0629 307.6414342  +6.2833316     918.4811     1708.066     1755.717     90.45641     180.4829       360.93      1.963     4.91     1189.396     63.60712     131.1176         9     1.113     0.614  76.33   0
        26    481.3979    986.0425 307.7064999  +6.2793702      1529.66     2714.418     2472.434     89.73792     180.1239     360.5352      1.800     4.50     1190.209     63.60712      194.329        17     1.192     0.994  83.74   0
        27    915.7383    978.1450 307.5262440  +6.2970855     37359.98      65313.2     71174.25     90.59942     180.4112     360.8223      1.903     3.84     1185.515     63.60712     4244.775        76     1.745     1.417  87.38   0
        28    223.1844    976.9264 307.8141216  +6.2745126     1206.863     2374.423     2400.633     89.88207     180.1957     360.7864      2.021     6.88     1190.109     63.60712     152.0375        19     1.371     1.126 -86.07   0
        29    813.6401    972.2085 307.5688784  +6.2961450     1714.683     3159.764     3124.428     89.73792     180.2676     360.5352      1.925     4.70     1185.795     63.60712     214.0979        21     1.365     1.124  74.44   0
        30    761.8413    969.8866 307.5904855  +6.2953816     4948.865     9472.294     10687.35     90.45641     180.4112     360.8941      2.038     4.36     1187.046     63.60712     591.9901        39     1.596     1.323  81.66   0
        31    231.3954    969.9012 307.8109463  +6.2776882     983.6189     1900.972      1498.71     90.16969     180.1239     360.4633      1.936     6.44     1190.021     63.60712     114.9694        14     1.307     1.051 -49.30   0
        32     56.3594    967.4771 307.8837719  +6.2728325     1988.099     3891.884     4300.903     90.31316     180.4829       360.93      2.090     5.82     1186.609     63.60712     237.4209        27     1.626     1.216  81.25   0
        33    950.0067    964.8854 307.5124454  +6.3036990     5655.878     9707.202     10006.03       90.026     180.1239      360.607      1.858     3.99      1184.23     63.60712     682.5695        35     1.567     1.169  79.51   0
        34    923.7736    956.2316 307.5236390  +6.3064018     1693.359     2974.185     3186.684     89.88207     180.1957     360.6788      1.737     5.70      1184.03     63.60712     264.9656        18     1.586     0.833 -85.03   0
        35    256.7433    952.9062 307.8009853  +6.2855535     2871.262      5894.53     6194.316     90.31316     180.4829     361.0734      2.142     5.14     1189.889     63.60712     307.3379        34     1.615     1.389  82.68   0
        36    783.4247    953.2482 307.5820735  +6.3029704     943.8843     1773.512     2350.849       90.026     180.4829     360.7505      2.399     7.07     1185.641     63.60712     124.3221        12     1.541     0.908  86.23   0
        37    644.5223    952.5623 307.6398288  +6.2986319     3240.183     6403.202     6926.475     90.31316     180.5546     360.8582      2.081     5.19     1187.755     63.60712     379.5303        35     1.752     1.280 -89.10   0
        38    993.8033    952.4451 307.4946586  +6.3102900     808.7651     1270.876      1076.92     89.73792     180.1239     360.4633      1.717     3.53     1183.025     63.60712     140.5071         7     0.928     0.561 -56.77   0
        39     25.3483    950.5166 307.8972335  +6.2787975     1539.613     3091.104     3600.541     90.45641     180.4112     360.9658      2.169     5.92     1186.235     63.60712      186.287        22     1.410     1.181  61.31   0
        40    467.3752    951.5224 307.7134906  +6.2931578     772.9323      1418.73     1635.497       90.026     180.3394     360.8223      1.676     4.24     1189.386     63.60712     108.1935         6     1.079     0.475  -9.26   0
        41    876.2693    948.8999 307.5436296  +6.3078518     824.7248     1228.043     1371.588     90.45641     180.6263     360.8223      1.719     3.76     1184.018     63.60712     140.4286         8     1.108     0.705 -63.36   0
        42   1000.1546    945.4697 307.4922524  +6.3133813     680.8068     1425.763     1618.183     90.45641     180.4112     360.8582      2.005     5.78      1182.73     63.60712     100.4348         8     1.618     0.581  87.86   0
        43    947.6158    945.9770 307.5140730  +6.3114282     682.6291     1305.168       1212.8     90.16969     180.2676     360.7505      2.024     3.94     1183.176     63.60712     109.6677         5     0.917     0.485 -87.14   0
        44    569.3622    944.8114 307.6713282  +6.2993292     1110.643     2224.558     2421.861     89.88207     180.2676     360.4992      2.084     6.89     1188.263     63.60712     147.3134        16     1.390     1.063  64.24   0
        45    608.2718    941.6399 307.6552630  +6.3019352     695.3095     1281.027     741.1368     90.31316     180.4829       360.93      1.874     6.57     1188.106     63.60712     113.9288         9     1.254     0.965  20.97   0
        46    288.8658    939.8051 307.7880770  +6.2920372     1095.128     2380.734     3183.069     89.88207     180.1239     360.6429      2.329     7.09     1190.129     63.60712     127.7344        17     1.561     0.934  34.81   0
        47    892.6815    931.8914 307.5373785  +6.3154210     5636.238     10529.47     11174.96     90.16969     180.7696       360.93      1.998     4.16     1182.814     63.60712     611.0959        42     1.690     1.288  85.07   0
        48    755.6465    935.0096 307.5942316  +6.3095785     803.2766     1033.652     1375.396     89.88207     180.3394     360.4633      1.566     4.43     1185.385     63.60712     102.9607         6     0.863     0.646  54.58   0
        49    428.6006    929.1476 307.7303600  +6.3011041     1388.262     3211.512     3944.792     89.59352     179.9801     360.3556      2.427     7.23     1189.165     63.60712     173.2719        23     1.474     1.265 -72.88   0
        50    330.3841    927.5519 307.7712347  +6.2984841     6191.074     13197.84     14569.11     89.88207     180.4829      360.607      2.234     4.96     1189.491     63.60712     631.4683        55     1.902     1.519  77.26   0
        51    250.5259    926.5419 307.8044592  +6.2962329      4775.26     10046.23     11300.12     90.45641     180.4829     360.8582      2.209     4.98     1188.972     63.60712     542.6472        47     1.899     1.404  82.03   0
        52    908.8667    917.1664 307.5311450  +6.3220395     895.0222     1837.156     1842.705     90.31316     180.5546     360.8223      2.202     6.76     1181.821     63.60712     118.9835        11     1.264     1.014 -71.91   0
        53    744.9968    909.9620 307.5994995  +6.3195681     1222.357     2070.578     1588.297      89.4489     180.1957      360.607      1.814     6.46     1184.008     63.60712     151.1897        15     1.368     0.923 -66.68   0
        54    975.9907    905.7805 307.5036263  +6.3289699     1098.498     1916.677     2213.692       90.026     180.1957     360.6788      2.187     5.25     1180.336     63.60712     129.3348        10     0.993     0.784  88.20   0
        55    531.3145    906.2598 307.6884396  +6.3139814     637.0312     1332.277     1581.153     90.45641     180.5546     360.9658      2.387     4.43     1187.257     63.60712     99.51501         5     1.121     0.498 -33.04   0
        56    663.4226    903.2566 307.6336309  +6.3196225      1850.47     3752.943     4240.035       90.026     180.4112     360.6429      2.242     5.60     1184.782     63.60712     206.0245        24     1.486     1.148  54.62   0
        57     59.9441    899.7103 307.8845740  +6.3009364     1930.254     4035.324     4006.492     90.31316     180.4112     361.0017      2.248     5.95     1185.645     63.60712      215.839        31     1.676     1.259  73.11   0
        58    203.9020    898.8320 307.8247725  +6.3061168      1520.03      3097.69     3300.473     90.45641     180.3394     361.0017      2.226     5.17     1187.955     63.60712     202.4824        19     1.448     1.052  81.88   0
        59     77.7928    899.2902 307.8771701  +6.3017076     1176.525     2550.407     2787.224       90.026     180.1239      360.607      2.189     8.02     1185.855     63.60712     132.4791        20     1.450     1.298  86.50   0
        60    657.9559    892.5975 307.6362615  +6.3238424     4656.351     9553.411     11165.25     89.73792     179.9801     360.4633      2.228     4.72     1184.353     63.60712     496.6892        47     1.753     1.462  81.58   0
        61    795.5676    893.3255 307.5790383  +6.3281202     620.9429     1027.005     716.6987     90.31316     180.5546     360.8223      1.563     3.45     1182.236     63.60712      83.0863         5     1.077     0.319  68.40   0
        62     17.9875    891.5050 307.9022891  +6.3029193     787.2084     1443.497     1128.279     90.16969     180.1957     360.6788      1.906     6.06     1184.855     63.60712     94.65588        10     1.136     0.909 -50.73   0
        63    895.7390    888.7269 307.5375555  +6.3333480     2056.476     4151.801     4024.514     90.59942     180.4829     360.8941      2.029     5.66     1180.692     63.60712     218.9574        25     1.543     1.172 -86.66   0
        64    341.1122    885.9123 307.7681803  +6.3160376     9970.195     21837.01     25337.74     90.16969     181.0559     360.9658      2.321     4.88     1188.757     63.60712     966.0112        66     1.952     1.600  84.28   0
        65     31.5814    889.5394 307.8967058  +6.3041864     828.1221     1702.477     1609.546       90.026     180.4112     360.6788      2.147     5.22      1185.01     63.60712      112.907         8     1.046     0.737 -28.37   0
        66     75.8183    886.5907 307.8784202  +6.3068856     911.0246     1954.468     2427.084     90.16969     180.1957     360.6788      2.256     7.50     1185.677     63.60712     108.6918        14     1.479     1.064  61.19   0
        67    212.3801    884.9225 307.8217186  +6.3121443     727.6011     1556.343     1788.651     90.02599     180.1957     360.8223      2.380     4.39     1188.057     63.60712     138.3029         5     1.198     0.462  59.45   0
        68    104.6026    876.8860 307.8667850  +6.3118569     1151.219     2536.561     2588.833     89.73792      180.052     360.5352      2.228     6.37     1186.055     63.60712     181.4933        17     1.333     1.151 -78.51   0
        69    886.2678    870.4211 307.5421064  +6.3405931     1488.353     2619.822     2608.053       90.026     180.4112     360.7505      1.837     4.04     1180.089     63.60712     232.9199        19     1.375     0.945  88.71   0
        70    856.9384    869.9742 307.5543127  +6.3398033     1482.085      2919.07     2782.765       90.026     180.4112     360.7505      1.963     5.48     1180.734     63.60712     166.6674        20     1.437     1.053  85.83   0
        71    820.0910    869.2294 307.5696539  +6.3388863      2304.64     4422.243     4751.079     90.59942     180.1957     360.7864      2.026     5.28     1180.741     63.60712     252.0055        25     1.514     1.178 -79.06   0
        72     88.0443    870.2196 307.8738924  +6.3140553     1498.979     2998.116      3785.65     89.88207     180.3394     360.6788      2.184     5.74     1185.742     63.60712     199.0277        25     1.612     1.139  74.82   0
        73    556.1363    860.9685 307.6796471  +6.3335122     207556.8     452929.2     519197.2     90.16969     180.5546     360.8223      2.305     4.85     1185.257     63.60712     20999.28       197     2.125     1.857  81.39   0
        74    400.4933    863.6424 307.7442501  +6.3272168     4723.937     10480.03     12024.21     90.59942     180.4112     361.0017      2.337     5.23     1187.032     63.60712     467.3262        52     1.860     1.575  78.02   0
        75    343.6318    862.0730 307.7679371  +6.3259663     7423.701     16795.02     19669.59     90.31316     180.4829     360.8941      2.387     5.14     1188.248     63.60712     713.1801        64     1.911     1.699  77.27   0
        76    643.9788    863.5411 307.6430482  +6.3353762      819.023     1442.787     1318.538     90.02599     180.3394     360.6788      1.940     5.59     1182.926     63.60712     106.7651         9     1.095     0.804 -70.74   0
        77    894.1925    857.1253 307.5392584  +6.3463471     4001.612     7981.686     9148.939     90.02599     179.9801     360.7147      2.129     5.27     1179.203     63.60712     477.6267        44     1.753     1.608 -42.09   0
