#   1 NUMBER                 Running object number                                     
#   2 X_IMAGE                Object position along x                                    [pixel]
#   3 Y_IMAGE                Object position along y                                    [pixel]
#   4 ALPHA_J2000            Right ascension of barycenter (J2000)                      [deg]
#   5 DELTA_J2000            Declination of barycenter (J2000)                          [deg]
#   6 FLUX_APER              Flux vector within fixed circular aperture(s)              [count]
#   9 FLUXERR_APER           RMS error vector for aperture flux(es)                     [count]
#  12 FLUX_RADIUS            Fraction-of-light radii                                    [pixel]
#  13 FWHM_IMAGE             FWHM assuming a gaussian core                              [pixel]
#  14 BACKGROUND             Background at centroid position                            [count]
#  15 THRESHOLD              Detection threshold above background                       [count]
#  16 FLUX_MAX               Peak flux above background                                 [count]
#  17 ISOAREA_IMAGE          Isophotal area above Analysis threshold                    [pixel**2]
#  18 A_IMAGE                Profile RMS along major axis                               [pixel]
#  19 B_IMAGE                Profile RMS along minor axis                               [pixel]
#  20 THETA_IMAGE            Position angle (CCW/x)                                     [deg]
#  21 FLAGS                  Extraction flags                                          
         1    686.6392     18.0946 307.6449586  +6.6897338     7315.808     11170.19     11467.54     77.80643     154.8748     310.0269      1.606     4.25     813.0189     54.62556     1013.407        30     1.598     0.849  39.97   0
         2    606.8423     17.3926 307.6781427  +6.6873624     3735.689     5923.745     5832.353     77.19038     154.8131     309.6262      1.613     4.72     813.9183     54.62556     536.9524        24     1.549     0.807  36.76   0
         3    407.0977     13.6801 307.7612721  +6.6822234     6224.327     10021.32     9916.219      77.5606     155.3058     309.9653      1.671     4.56     818.7979     54.62556     882.0319        32     1.698     0.863  38.30   0
         4      7.9970     13.3866 307.9271237  +6.6689737     8032.917     12951.53     13272.65     77.31399     154.6897     308.3592      1.693     4.70     820.6587     54.62556     1066.494        32     1.679     0.889  38.28  16
         5    653.6833     12.3507 307.6588455  +6.6910057     949.1526     1613.223     1666.361     77.68362      154.998     309.9961      1.403     5.29     813.1196     54.62556     164.2806        10     1.532     0.515  32.76   0
         6    303.6133      8.6216 307.8044443  +6.6808496      12829.4     20059.06     21039.28     77.43739     154.8131     309.8112      1.702     4.43     823.3181     54.62556     1846.654        42     1.702     0.934  38.88  16
         7    482.4446     10.4221 307.7300702  +6.6860863     694.0595     1019.798     1007.571     77.19038     154.8748     309.7188      1.732     3.61      815.369     54.62556     135.8241         6     1.015     0.501  35.04   0
         8    398.8073      9.6535 307.7648519  +6.6836082       707.92     1251.338     1788.451     77.19038     154.8131     309.5954      1.857     5.36     819.5403     54.62556     108.5986         9     1.456     0.558  33.19  16
         9     77.1930      8.9642 307.8985193  +6.6731211     2352.092     3884.347     3916.734     77.06658     154.8131     309.6879      1.742     4.99     820.6249     54.62556     329.8779        24     1.680     0.883  38.31  16
        10     68.3877      7.7689 307.9022182  +6.6733190     1517.309     2758.357     2848.291     77.19038     154.7514     307.2424      1.838     6.42     820.5435     54.62556     220.3104        17     1.583     0.733  40.03  16
        11    772.0099      7.1373 307.6098461  +6.6971010      828.505     1240.554     971.4155     77.19038     154.8131     303.2383      1.464     3.98      812.547     54.62556     159.1938        10     1.260     0.531  36.54  16
        12    369.7888      6.5775 307.7770134  +6.6839073      2201.99     3158.495     2865.178     77.31399     154.8131     299.0209      1.582     3.91     822.2302     54.62556     359.1791        19     1.433     0.767  35.29  16
        13    438.1566      6.9956 307.7485889  +6.6860206     555.9431      957.875     639.6502     77.06658     154.6897     302.1974      1.846     4.58     817.0687     54.62556      72.6723         7     1.328     0.449  28.34  16
        14    640.6760      5.5538 307.6644776  +6.6933773     1575.462     1576.325     1701.557     77.56061     155.0596     289.5794      0.754     0.89     813.1536     54.62556     820.5432         5     0.657     0.351  56.12  16
        15    630.7230      2.2789 307.6687230  +6.6943970     10706.79     15140.94     15746.85     77.06658     136.3846     248.0939      1.520     4.79     813.2081     54.62556     1513.718        29     1.558     0.816  30.14  24
        16    965.2214      3.5775 307.5296699  +6.7049989     820.4156     1234.117     1528.564     77.43739       149.67     266.3577      1.794     5.71      809.004     54.62556     90.24371        10     1.197     0.766  45.41  16
        17     48.3247      2.6572 307.9107265  +6.6747555     762.0827     1163.704     1115.292     77.68362     140.8619     253.7262      1.650     5.08     820.1595     54.62556     104.5172        10     1.293     0.564  50.89  24
        18    795.4393      1.9186 307.6002833  +6.7000352     1439.605     1950.445     2608.379     74.03326     131.6827     242.3701      1.429     4.50     812.2843     54.62556     220.3021        12     1.270     0.586  29.37  24
        19    508.3821      1.8979 307.7195764  +6.6904709      1278.83     1800.805     2026.706     73.77485     131.2469     241.9758      1.495     4.94     814.7363     54.62556     200.7153        10     1.221     0.566  32.67  24
        20    232.0309      1.1205 307.8344412  +6.6815488     1187.726     1678.634     1646.387     64.52294     119.7584     229.6665      1.180     2.81     821.1337     54.62556     357.7292         9     1.360     0.321   2.37  24
        21    202.1460    984.7969 307.8139320  +6.2745460      1575.92     2706.161      3006.52     77.06658     154.7514     309.5337      1.799     4.93     843.5106     54.62556     209.3772        21     1.589     0.892  37.96   0
        22    934.7334   1022.9979 307.5084654  +6.2832109     4528.674     6800.073     7158.027     74.41918      132.622     243.7059      1.590     5.04     841.5961     54.62556       569.65        24     1.601     0.894  16.75  24
        23    694.7239   1021.8930 307.6081632  +6.2756819     2466.917     4228.425     4468.008      77.5606     145.7919     259.9718      1.790     4.68     843.2943     54.62556     287.3022        25     1.622     0.988  37.09  24
        24    689.1963   1023.5895 307.6104020  +6.2747975     728.0911     1060.168     1058.377     68.54147     124.0662      234.399      1.348     3.62     843.4296     54.62556     120.5417         7     0.948     0.481   7.29  25
        25    418.0265   1022.6589 307.7230296  +6.2661366     927.9754     1120.502     823.0958     76.69398     137.0133     248.7857      1.407     5.45     846.9065     54.62556     128.1647        11     1.070     0.816  27.01  24
        26    219.4957   1023.3582 307.8054386  +6.2592107     937.8005     1413.001     1422.696     71.27328     127.6322     238.4379      1.585     6.00     844.1597     54.62556     140.9408        12     1.405     0.785   2.23  24
        27     91.1116    984.0910 307.8600585  +6.2711189     497.2995     828.7819     805.7302     77.68362     155.4901     309.9961      1.678     3.82     842.1098     54.62556     98.04004         5     1.007     0.417  44.44   0
        28    601.0939    982.4429 307.6483555  +6.2888449     815.4742     1245.664     854.3189     77.68362     154.9364     310.0269      1.739     5.51     845.0036     54.62556     115.0049        11     1.497     0.572  41.74   0
        29    793.2518    980.1692 307.5686383  +6.2961840     2004.984     3519.245     4081.634      77.5606     155.1212      309.842      1.909     4.87     842.2396     54.62556     229.3438        24     1.617     0.959  30.61   0
        30    741.1198    977.8089 307.5903646  +6.2954230     6034.438     10275.56     11707.36     77.31399      154.628     309.7496      1.847     4.26     842.3718     54.62556     753.1758        40     1.804     1.057  39.08   0
        31    210.2574    976.9699 307.8108258  +6.2780480     1389.425     2389.379     2674.816     77.43739     155.0596     309.7804      1.894     4.23     843.4493     54.62556      192.136        17     1.255     0.981  56.16   0
        32    528.3143    977.5410 307.6787399  +6.2884408     845.2191     1493.939     1303.265     77.68362      154.998     309.9961      1.781     5.68     846.1125     54.62556     99.57025        11     1.266     0.718  40.99   0
        33    929.4686    973.0305 307.5123107  +6.3036606     5675.414     10434.28     11366.87      77.5606      154.998     309.8729      1.979     4.93     840.6192     54.62556      649.116        46     1.918     1.212  42.48   0
        34    175.1114    976.4470 307.8254365  +6.2770873     653.8021     1369.308     1391.703     77.68362     154.8748     310.0577      2.127     6.05     843.0681     54.62556     106.6046         9     1.640     0.628  34.29   0
        35     35.5562    975.1523 307.8834250  +6.2729462     2484.491     4328.957     4447.604     77.68362     154.9364      309.842      1.863     4.84     841.0649     54.62556      312.443        25     1.631     0.948  29.47   0
        36    185.1811    969.1992 307.8214979  +6.2804159     637.5461     1286.527     1180.885     77.31399     154.5662     309.5954      1.926     4.66     843.0168     54.62556     90.14996         7     1.219     0.780 -87.86   0
        37    611.7699    967.1616 307.6444314  +6.2955082      649.233     1140.419     830.1193     77.31399     154.7514     309.7804      1.747     4.12      844.523     54.62556     105.5206         7     1.578     0.307  39.17   0
        38    902.8365    964.4435 307.5236552  +6.3063198     1817.843     3016.718     3307.357     77.43739     154.9364     309.7496      1.901     5.56     840.8477     54.62556     222.7391        19     1.400     0.965  38.36   0
        39    623.9130    960.6667 307.6396054  +6.2985938     4232.126     7086.214     6942.156     77.68362     155.1828     309.9345      1.779     4.34     844.2534     54.62556     524.2068        31     1.659     0.989  36.87   0
        40    236.1586    960.8998 307.8006084  +6.2855476      4174.83     6733.459     6714.964     77.68362     154.8748     310.1193      1.707     4.34     843.6609     54.62556     535.2129        30     1.626     0.976  39.70   0
        41    762.6334    961.1646 307.5819847  +6.3030093     1136.162     1769.365     1300.552     77.31399     154.7514     309.6571      1.633     5.37     842.3162     54.62556      144.856        14     1.395     0.689  43.10   0
        42    445.6629    959.0883 307.7136756  +6.2932983     1118.237     1701.259     1525.256      77.5606     155.1828     309.9345      1.689     5.93     845.5226     54.62556     149.0493        13     1.432     0.692  42.63   0
        43      4.6923    958.3200 307.8968040  +6.2788586     2068.959      3418.84     3236.387     77.43739     155.2443     280.2967      1.691     4.77      840.239     54.62556     275.1779        18     1.435     0.854  38.29  16
        44    855.7457    957.0376 307.5434562  +6.3078109     570.2367     1039.664      152.229      77.5606     155.0596     309.9345      1.750     4.40      841.533     54.62556     87.38336         7     1.400     0.394  58.13   0
        45    272.1141    954.6913 307.7858862  +6.2893131     852.6139     1650.533     2102.265     77.43739     155.4287     310.0269      2.228     5.79     844.2909     54.62556     108.8203        11     1.469     0.642  53.00   0
        46    926.9351    953.1656 307.5140225  +6.3117758     559.4979     1025.639     1015.634      77.5606      154.998     309.9037      1.897     5.98     840.1879     54.62556     86.49634         9     1.323     0.760  54.59   0
        47    548.4899    952.9526 307.6711818  +6.2992628      1545.85     2646.433     2647.456     77.68362     154.8748     310.0269      1.803     5.30     845.4872     54.62556     192.4525        20     1.563     0.866  38.51   0
        48     37.7946    950.5287 307.8833206  +6.2831843     654.2695     1076.834     1346.653     77.31399      154.628     309.8112      1.687     4.29     840.2118     54.62556     105.0632         7     1.145     0.457  50.77   0
        49    267.4297    947.2930 307.7880786  +6.2922100     1352.524     2195.099      1915.66     77.80644     154.7514     309.8112      1.743     4.96     843.9581     54.62556     197.3508        14     1.296     0.808  40.73   0
        50    587.8337    949.7913 307.6549496  +6.3018798      1134.45     1831.121     1228.706     77.19038     154.8131     309.7496      1.753     4.69     844.6625     54.62556     154.6157        15     1.321     0.883  29.61   0
        51    734.5488    943.0861 307.5942485  +6.3095363      792.363     1360.432     1478.892     77.68362     154.8748     309.9653      1.893     4.07     842.4186     54.62556      123.157         8     1.155     0.481  30.36   0
        52    872.0799    939.9142 307.5372422  +6.3154219     6109.237     10510.68     11124.46     77.43739     155.3058     309.9961      1.867     4.67      841.097     54.62556     742.7804        39     1.795     1.073  37.20   0
        53    407.9670    937.1561 307.7300605  +6.3010918     2019.923     3386.106     3806.465     77.31399     154.9364     309.7496      1.749     4.28     844.5166     54.62556      251.029        18     1.389     0.846  44.62   0
        54    309.6046    935.5977 307.7709569  +6.2984477     9013.873     14533.15     14771.55     77.06658     154.5662     309.6571      1.725     4.43     844.1031     54.62556     1208.944        39     1.676     1.002  35.86   0
        55    229.7061    934.5347 307.8041693  +6.2962137     6800.743     10962.39     11079.86     77.68362     155.1212     309.9345      1.754     4.47     843.1627     54.62556     870.0538        36     1.644     1.023  39.47   0
        56    558.0082    928.8049 307.6680343  +6.3095473       1101.3     1844.934     1450.795     77.06658     154.7514     309.7496      1.629     5.25     844.8026     54.62556     160.5458        16     1.679     0.672  38.57   0
        57    741.5426    928.0850 307.5918434  +6.3159610     663.9058     1057.019     1412.258     77.68362      154.998     310.0577      1.646     4.95     842.3644     54.62556     106.6512         7     1.151     0.692  54.25   0
        58    887.6285    924.8291 307.5312865  +6.3221655     798.3365     1597.558     1216.412     77.19038     154.7514     309.6571      1.850     6.16      840.489     54.62556     117.2111        14     1.743     0.611  30.20   0
        59    191.9978    925.0443 307.8201445  +6.2988687     430.1538      541.439     541.2515     77.06658     154.5662     309.5645      1.374     3.26     842.1629     54.62556     77.43689         5     0.626     0.604  89.80   0
        60    120.1919    924.9198 307.8499649  +6.2965155       626.28     1007.736     1001.273     77.31399      154.628     309.7496      1.531     4.61     840.1006     54.62556       83.479         6     1.079     0.559  64.48   0
        61    955.6579    920.9520 307.5031643  +6.3260268     679.4775     1101.917     1445.703     77.68362      154.998     310.0269      1.579     6.21     838.4258     54.62556     109.0455         9     1.310     0.828   8.05   0
        62    724.1144    918.0154 307.5994158  +6.3195369     1565.846     2698.995     3137.851     77.31399     154.7514     309.8112      1.728     4.36     842.5079     54.62556     239.4141        18     1.504     0.728  34.80   0
        63    547.7151    918.7818 307.6726426  +6.3133411     745.9122     1032.778     1530.926     77.31399     154.7514      309.842      1.713     5.14     844.7645     54.62556      124.845         7     1.385     0.539  37.31   0
        64    588.4777    914.8777 307.6558456  +6.3163120     783.1713     1294.002     795.7076     77.92906     155.2443     309.9961      1.739     6.53     844.0559     54.62556      116.457        12     1.706     0.702  32.56   0
        65    955.3085    913.7859 307.5035473  +6.3289731     1036.953     1940.335     2284.741     77.43739     154.7514     309.6879      2.188     6.56     838.2793     54.62556     131.7132        15     1.386     0.872  40.11   0
        66    600.1458    914.5320 307.6510118  +6.3168438      613.759     823.2781     415.3777     77.68362     154.9364     309.8112      1.724     5.25     843.8695     54.62556     91.20337         6     1.550     0.502  48.47   0
        67    509.6686    914.2847 307.6885918  +6.3139278     829.5143     1434.925     1148.174     77.92907     155.2443     309.9345      1.844     3.78     844.9585     54.62556     125.9548         6     1.130     0.364  47.89   2
        68    642.7735    911.2949 307.6334178  +6.3196010     2386.324      3781.51     3852.207     77.80644     154.7514     309.7804      1.693     4.23     843.3586     54.62556     330.8585        22     1.597     0.777  30.12   0
        69     39.2674    907.7488 307.8841423  +6.3008905     2645.609     4375.791     4754.769     77.56061     154.8748      309.842      1.736     4.02     839.0487     54.62556     343.0779        26     1.497     0.989  39.57   0
        70    803.3962    907.9146 307.5668282  +6.3263454     802.2449     1116.406     1156.866     77.19038      154.628     309.6262      1.490     5.46     841.8295     54.62556     100.0602        10     1.195     0.703  19.13   0
        71    182.7765    906.6468 307.8245891  +6.3061534     2294.262     3524.292     3609.706     77.31399      154.998     309.7804      1.650     4.03     841.3799     54.62556     290.3713        20     1.386     0.897  39.14   0
        72     56.7387    907.0206 307.8769121  +6.3017768     1786.752     3010.128     2920.229     77.31399      154.998      309.842      1.770     4.44     839.0411     54.62556     273.7731        23     1.494     0.983  35.28   0
        73    920.9379    906.9525 307.5180477  +6.3306516     768.5421     1249.969     1530.583      77.5606     154.9364     309.9653      1.824     3.97     839.1784     54.62556     123.0229         8     1.044     0.650  59.59   0
        74    774.8763    902.0699 307.5788663  +6.3278086     720.5682     1290.549     1040.277     77.92906     155.1212     309.9037      1.929     6.41     841.9572     54.62556     93.44263        10     1.297     0.890  64.56   0
        75    483.8528    902.8370 307.6996939  +6.3177912     3588.522     3307.514     3185.682      77.5606      154.998     309.9345      0.563     0.95     844.8032     54.62556     2271.781         6     0.559     0.362  65.72   0
        76    217.0036    903.3809 307.8104858  +6.3086471     723.6141     1168.182     1219.119     77.31399     154.5662     309.7188      1.779     5.05     842.1484     54.62556     102.0474         8     1.277     0.564  43.79   0
        77    637.3513    900.5575 307.6360271  +6.3238522      6607.38     10616.42     11253.92     77.68362     154.9364      309.842      1.774     4.44     843.2562     54.62556     861.0398        35     1.680     0.981  36.03   0
