#   1 NUMBER                 Running object number                                     
#   2 X_IMAGE                Object position along x                                    [pixel]
#   3 Y_IMAGE                Object position along y                                    [pixel]
#   4 ALPHA_J2000            Right ascension of barycenter (J2000)                      [deg]
#   5 DELTA_J2000            Declination of barycenter (J2000)                          [deg]
#   6 FLUX_APER              Flux vector within fixed circular aperture(s)              [count]
#   9 FLUXERR_APER           RMS error vector for aperture flux(es)                     [count]
#  12 FLUX_RADIUS            Fraction-of-light radii                                    [pixel]
#  13 FWHM_IMAGE             FWHM assuming a gaussian core                              [pixel]
#  14 BACKGROUND             Background at centroid position                            [count]
#  15 THRESHOLD              Detection threshold above background                       [count]
#  16 FLUX_MAX               Peak flux above background                                 [count]
#  17 ISOAREA_IMAGE          Isophotal area above Analysis threshold                    [pixel**2]
#  18 A_IMAGE                Profile RMS along major axis                               [pixel]
#  19 B_IMAGE                Profile RMS along minor axis                               [pixel]
#  20 THETA_IMAGE            Position angle (CCW/x)                                     [deg]
#  21 FLAGS                  Extraction flags                                          
         1    328.6748     22.1128 307.8045952  +6.6808863     12791.55     19929.54     21078.37     79.67042     159.2778     317.8928      1.669     4.22     872.5938     56.02264     1634.629        41     1.658     0.967  47.18   0
         2    394.9047     20.1237 307.7771420  +6.6839350       2331.6     3597.724     3609.261      79.4179     159.0885     317.8928      1.567     4.42     867.2829     56.02264     336.0786        19     1.439     0.839  46.78   0
         3    655.6557     15.6434 307.6689404  +6.6945400     11122.11     16728.03      18460.2     79.67042     158.9622     317.8296      1.631     4.12      857.311     56.02264     1613.592        37     1.598     0.909  43.82   0
         4    820.3043     15.1395 307.6005371  +6.7002643     1598.215     2436.841     2458.194      79.4179     158.9622     317.9244      1.565     4.58     855.2355     56.02264     253.5037        15     1.442     0.652  47.48   0
         5    890.8085     12.9900 307.5713107  +6.7035109     1243.156     1863.607     2183.381     79.16457     158.7726     317.7348      1.611     4.72     854.0769     56.02264     207.2382        14     1.560     0.579  46.36   0
         6    417.1019     11.1473 307.7682215  +6.6883870     8099.823     12689.03     12934.32     79.54426     158.9622     318.0508      1.648     4.18     865.0531     56.02264     1090.302        35     1.557     1.011  44.61   0
         7    255.6858     12.4433 307.8352511  +6.6824214     6394.056     10544.95      12030.4     79.67043     158.8358     317.8296      1.865     4.16     874.2277     56.02264     859.0441        39     1.647     1.280  28.69   2
         8    647.2620     11.0439 307.6725835  +6.6961573     9170.746     13837.82     15286.51     79.67042      158.899      317.956      1.600     4.08     857.4209     56.02264     1369.684        32     1.527     0.888  44.85   0
         9    676.9843     10.3009 307.6602573  +6.6974606     8176.237     12695.82     14702.98     79.67042     158.7093     317.6083      1.653     4.12     856.3082     56.02264     1190.543        32     1.593     0.911  46.62  19
        10    680.5341      7.7819 307.6588671  +6.6986195     13057.55     20372.69     22304.21     79.29134     158.9622     315.1641      1.661     4.18     856.0992     56.02264      1934.52        36     1.611     0.888  46.00  19
        11    732.8096      9.9236 307.6370717  +6.6994874      1919.12     2958.598     3357.105     79.29134     158.5827       317.64      1.662     4.50     854.8982     56.02264     273.5494        18     1.395     0.823  46.12   0
        12    656.5141      7.1770 307.6688690  +6.6980639     3144.996     5008.466      6990.03     79.67042     158.7726     311.3488      1.973     4.49     856.8719     56.02264     474.0057        28     1.647     1.111  32.81  16
        13    196.3728      7.6051 307.8600608  +6.6824209     994.9974     1915.032     2124.658     79.16457     158.7726     314.2386      2.055     7.66     874.0091     56.02264     159.6854        17     1.736     0.945   8.76  16
        14     63.4480      4.1685 307.9154098  +6.6793580     3050.237     4815.473     4830.496      79.4179     157.8209     280.8919      1.673     4.19     873.6251     56.02264     405.6661        24     1.542     0.865  42.00  16
        15    945.6562      3.7358 307.5488290  +6.7091655     797.0878     1228.121     1282.628     79.79638     154.9307     275.2577      1.473     3.41     852.0847     56.02264     130.3718         7     0.961     0.548  21.36  16
        16    154.4130      2.0280 307.8776848  +6.6833092     4777.526     6492.629     7321.792     76.71625      136.309     250.2601      1.454     4.14     873.6959     56.02264     746.6982        20     1.316     0.810  25.77  24
        17     85.9697      2.0995 307.9061218  +6.6809718     683.4576     1144.966     1424.045     77.49776     137.2635      251.541      1.844     4.94     873.0577     56.02264     101.1935         8     1.193     0.580  16.37  24
        18    552.3162    990.7346 307.6790158  +6.2885209     946.9904     1737.748     1687.329     79.79638     159.2147     317.8928      1.958     5.26      893.571     56.02264     136.4757        11     1.417     0.659  51.36   0
        19    752.8920   1022.4385 307.5946662  +6.2821531     7327.768     10800.21     11065.52     79.79638     143.2778     258.5504      1.593     4.33     888.9938     56.02264     905.4885        29     1.478     0.959  33.38  24
        20    548.3536   1022.9003 307.6795778  +6.2751088     3831.887     5363.658     5761.389     77.49776     137.3366     251.7007      1.505     4.10     894.4221     56.02264     534.8625        22     1.441     0.845  22.23  26
        21    545.6373   1015.4771 307.6809556  +6.2780823     8215.123     12861.35     14203.05     79.54426     159.0254     317.8296      1.748     4.21     894.2722     56.02264     1051.676        37     1.704     0.969  47.76  18
        22    517.8668   1023.3616 307.6922206  +6.2738956     763.9334     846.3923     1108.929      72.9586     131.1265     244.3717      1.075     3.78     894.5903     56.02264     152.8441         7     0.874     0.569  38.92  24
        23    422.9963   1022.2574 307.7316484  +6.2711669     940.4402      1500.27     1155.758     79.03761     145.0889     261.1016      1.605     4.83     894.7974     56.02264     132.1295         9     1.109     0.596  53.11  24
        24    298.5048   1021.9156 307.7833485  +6.2671247     14473.99     21948.77     23142.96     79.67042     149.4535       266.47      1.628     4.09     894.7604     56.02264     1851.273        38     1.570     0.984  39.50  26
        25    303.1209   1019.0197 307.7815297  +6.2684755     860.6093     1697.683     2211.778     79.29134      158.646     301.2497      2.106     5.51     894.8074     56.02264     142.4769        12     1.577     0.542  44.43  18
        26    235.2678    990.3885 307.8106691  +6.2780132     1557.291     2506.675     2638.759     79.16457     158.7726     317.7032      1.779     4.88     894.4325     56.02264     191.5226        18     1.462     0.808  26.67   0
        27    199.3179    990.1099 307.8256049  +6.2769185     1000.821     1459.443     1666.376      79.4179     159.2147     317.8928      1.547     5.17     894.4086     56.02264     127.3019        13     1.308     0.738  56.33   0
        28     60.0638    988.5305 307.8834756  +6.2728805     2757.145     4409.589     4431.002     79.67042     158.9622     317.8928      1.675     4.10     893.9732     56.02264     331.7235        26     1.495     1.029  53.54   0
        29    954.0439    986.6853 307.5123426  +6.3036406     6054.027     10321.39     11281.88     79.67042     158.8358      317.798      1.833     4.32     884.4022     56.02264     828.1429        38     1.698     1.118  42.80   0
        30    209.8653    982.2072 307.8214927  +6.2805359     659.0994     875.5315     971.0518     79.16457     158.7093     317.6716      1.374     2.24     894.3326     56.02264     118.8931         6     0.721     0.545 -50.57   0
        31    927.6467    978.2106 307.5235881  +6.3062573     1799.232     3019.291     2949.373     79.16457     158.7726     317.4818      1.762     4.79       885.11     56.02264      249.211        22     1.629     0.854  41.63   0
        32    648.5179    974.2365 307.6396259  +6.2985572     4526.117     6901.889     7301.424     79.67042     158.9622      317.798      1.672     4.06     890.5331     56.02264     609.6566        25     1.515     0.908  42.51   0
        33    787.1082    974.7005 307.5820630  +6.3030067     1373.305     2334.745     2096.347     79.67042     159.4039      317.798      1.778     4.38     887.9802     56.02264     201.7744        17     1.421     0.841  55.97   0
        34    260.7249    974.3418 307.8006413  +6.2854941     4439.663     6948.358      6798.65     79.79638     158.9622      317.798      1.672     4.08     894.3574     56.02264     610.6549        30     1.578     0.950  43.32   0
        35    997.2021    972.8347 307.4948860  +6.3108004     598.6401     1078.501     873.0967     78.78305     158.7726     317.6083      1.833     6.47     882.3675     56.02264     97.50952         7     1.198     0.981  77.86   0
        36    470.6446    972.6401 307.7135371  +6.2932505     1035.158     1903.697     1811.353      79.4179     158.9622     317.7348      1.901     5.99     893.8229     56.02264     152.7928        14     1.444     0.715  57.46   0
        37     29.4825    971.7076 307.8967420  +6.2787946     2150.794     3380.498      3958.58      79.4179     159.2778     317.9244      1.712     4.73     893.2062     56.02264     269.7068        21     1.551     0.851  43.85   0
        38    880.1723    970.6294 307.5435559  +6.3078003     1014.899     1618.611     1717.254     79.16457     158.7093     317.6083      1.645     4.72      886.248     56.02264       144.89        10     1.104     0.635  35.88   0
        39    972.5585    969.4392 307.5052331  +6.3113791     553.7562     847.8807     770.6332      79.4179     159.0254     317.7032      1.613     4.92     883.1649     56.02264     72.24915         5     1.160     0.591 -59.16   0
        40   1004.4632    967.1150 307.4920627  +6.3134042     861.3572     1675.595     1918.615     79.79638     159.0885      317.798      2.338     6.05     881.7125     56.02264     114.6172         8     1.155     0.891  47.63   0
        41    952.4460    968.1874 307.5136267  +6.3112241     585.2053     664.0641     230.7846     79.03761     158.7726     317.6083      1.392     3.37     884.0416     56.02264      85.1156         5     0.759     0.434  67.12   0
        42    573.0007    966.6855 307.6712370  +6.2991430     1661.261     2493.706     2566.884     78.91043      158.456     317.5135      1.535     4.19     892.4136     56.02264     227.2223        16     1.289     0.816  37.36   0
        43    296.4389    967.7866 307.7860339  +6.2894014     866.8295     1483.612     1581.807     79.16457     158.7726     317.5767      1.900     4.90     894.4244     56.02264     145.9293         9     1.044     0.652  56.66   0
        44    612.5056    963.2556 307.6549489  +6.3018836      1318.28     1788.252     1323.903     79.54426     158.9622     318.0508      1.532     4.05     891.1966     56.02264     194.7682        14     1.315     0.720  47.95   0
        45     62.0004    963.7006 307.8835118  +6.2831961     766.5292     1176.655     1819.577     79.16457     158.5827     317.4185      2.206     5.60      893.317     56.02264      110.688        10     1.321     0.794  24.89   0
        46    292.1567    960.5682 307.7880557  +6.2922374     1365.454     2129.966     2230.613     79.16457     158.9622     317.6716      1.632     5.04     894.3807     56.02264     222.5716        15     1.447     0.704  41.68   0
        47    560.0944    959.0240 307.6768541  +6.3018731     551.7252     929.3586     650.6347     79.79638     158.7093     317.7032      1.566     4.41     892.5644     56.02264     93.19043         6     1.148     0.482  59.85   0
        48    759.3165    957.0842 307.5941952  +6.3093493     854.4182     1443.244     1236.934      79.4179     159.1516     317.9244      1.819     5.37     888.5762     56.02264     112.3711        10     1.567     0.520  30.67   0
        49    896.7737    953.5862 307.5372344  +6.3153916     6609.808      10519.4     10739.59      79.4179     158.7726     317.7664      1.715     4.15     885.5546     56.02264     852.4543        38     1.696     1.030  45.69   0
        50    432.5970    950.7034 307.7300750  +6.3010293     2084.825     3053.807     2955.077      79.4179      158.646     317.5135      1.569     4.49     893.8466     56.02264     302.9295        17     1.363     0.768  48.52   0
        51    334.2837    949.0042 307.7709543  +6.2984277     9481.018     14893.45     15547.81     79.16457     158.5827     317.5451      1.639     4.16     894.2737     56.02264     1318.259        41     1.582     1.060  49.45   0
        52    254.3752    948.0065 307.8041674  +6.2961525       7138.3     11163.75     11419.38     79.16457     158.8358       317.64      1.641     4.06     894.1676     56.02264     923.3549        35     1.593     0.989  45.26   0
        53    582.2341    942.1856 307.6682280  +6.3095672     1159.059      1922.87     1688.186     79.29134     158.7093     317.7032      1.708     5.85     891.4401     56.02264     149.3754        16     1.379     0.982  50.46   0
        54    912.7930    938.7177 307.5310814  +6.3220655     1008.364     1689.711     2275.634     79.29134      158.646     317.6716      1.685     5.40     885.1194     56.02264     131.4714        13     1.324     0.705  39.57   0
        55    144.5383    938.6721 307.8500886  +6.2963091     538.4649     612.0067    -217.7589     79.79639     158.9622     317.8928      1.251     4.34      893.523     56.02264     96.10321         6     1.079     0.497  35.30   0
        56    868.5282    937.3206 307.5495094  +6.3211624     805.6392     1501.312     967.5651     79.92214     159.2147      317.798      1.781     5.44     885.5822     56.02264     125.9085         8     1.407     0.689  26.69   0
        57    411.2914    937.0643 307.7393817  +6.3059445     633.2378        786.1     821.5522     79.67042     159.1516     317.8928      1.276     3.95     893.8895     56.02264     114.8166         6     1.183     0.377  57.92   0
        58    215.9485    937.7695 307.8204686  +6.2990857     423.8423     760.1492     1116.519      79.4179     159.0885     317.7664      1.711     3.86      893.903     56.02264     81.04004         5     0.850     0.503  53.57   0
        59    980.2945    934.4091 307.5031956  +6.3260997     693.3695      1114.37     1405.802     79.29134     158.5827     317.6083      1.724     5.24     881.3244     56.02264      107.559         6     1.501     0.517  36.02   0
        60    572.4727    932.1974 307.6726177  +6.3133634     710.8279     921.3663     427.4101     79.16457     158.5193     317.6716      1.690     5.38     891.4785     56.02264     141.5991        10     1.403     0.581  45.18   0
        61    748.7061    931.3749 307.5994654  +6.3196080      1604.28     2291.859     2465.987     79.79638     158.7093     317.6716      1.505     4.97     888.7399     56.02264     274.3275        17     1.561     0.691  43.11   0
        62    613.2095    928.2141 307.6558362  +6.3163737     810.6274     1318.954     976.1794      79.4179     158.7093     317.7664      1.721     5.90       890.09     56.02264     139.3485        10     1.294     0.756  31.02   0
        63    980.3967    927.4052 307.5033881  +6.3289947     1267.425     1932.329     2345.154     79.03761     158.5827     317.6716      1.613     4.74     881.0733     56.02264     190.3083        16     1.383     0.811  28.11   0
        64    624.5554    928.1913 307.6511256  +6.3167634     529.9826     907.0832     890.2806     79.16457     158.8358     317.5451      1.412     3.32     889.9238     56.02264     116.4337         5     1.184     0.269  34.62   0
        65    533.9076    927.4172 307.6887924  +6.3140433     1187.844     1904.578     1808.988      79.4179     158.7726     317.7032      1.641     5.39      892.322     56.02264     178.7279        14     1.545     0.639  37.59   0
        66    667.1089    924.8531 307.6335678  +6.3195677       2375.1     3752.943     4296.758     79.54426     158.7726      317.956      1.626     4.17       889.33     56.02264     341.5575        20     1.525     0.748  43.52   0
        67     63.8701    920.9994 307.8841807  +6.3008872     2845.551     4847.254     5459.743     79.16457     158.4559       317.64      1.866     4.19      892.344     56.02264     384.6071        27     1.621     0.954  48.47   0
        68    958.3013    923.1511 307.5127061  +6.3300128     649.8843     1055.159     1280.769     79.67042      158.899     318.0192      1.806     4.68     882.5998     56.02264     94.41064         8     1.125     0.552  37.01   0
        69    828.0491    921.0186 307.5668660  +6.3265388     845.1251      1299.34     1326.914     79.16457     159.0254     317.6083      1.583     5.25     886.3177     56.02264     143.9109        11     1.398     0.558  43.10   0
        70     81.5885    920.3321 307.8768465  +6.3017597     1990.131     3120.755     3379.656     79.16457     158.7726     317.7032      1.707     4.67     892.5137     56.02264     300.2099        18     1.470     0.770  53.76   0
        71    945.5479    920.4041 307.5180943  +6.3307208     686.6066     1169.639     1374.923     79.03761     158.7726     317.4502      1.925     5.52     883.3845     56.02264     92.99872         9     1.366     0.629  33.82   0
        72    207.5945    919.9352 307.8245401  +6.3061671     2167.133     3469.743     3089.846     79.16457     158.7093     317.6083      1.635     4.60     893.7463     56.02264     348.8321        17     1.426     0.734  44.54   0
        73    241.5605    916.8342 307.8105414  +6.3085903     808.1602     1254.607       1420.2      79.4179     158.8358       317.64      1.770     5.79     893.9641     56.02264     116.4225        11     1.203     0.786  27.91   0
        74    662.0174    914.1057 307.6360437  +6.3238341     6881.014     10530.83     11656.67     79.54426     158.7726     317.7032      1.608     4.23     889.3434     56.02264     958.7567        30     1.540     0.891  41.47   0
        75    346.0422    915.3123 307.7672090  +6.3127321     992.4924     1707.565     2250.325     79.67042      158.899     317.8612      2.116     4.46     893.7332     56.02264     154.8643        13     1.292     0.698  47.96   0
        76    800.0051    915.2233 307.5787062  +6.3279931     685.9506     1104.881     861.6661     79.16457     158.7093     317.6716      1.541     4.73      886.872     56.02264     96.00012         8     1.247     0.509  23.64   0
        77     22.1222    912.3893 307.9018064  +6.3030342     1260.819     1974.737     2032.815     79.29134     158.5827     317.6716      1.632     5.51     891.9263     56.02264     165.9408        15     1.424     0.767  35.04   0
