#   1 NUMBER                 Running object number                                     
#   2 X_IMAGE                Object position along x                                    [pixel]
#   3 Y_IMAGE                Object position along y                                    [pixel]
#   4 ALPHA_J2000            Right ascension of barycenter (J2000)                      [deg]
#   5 DELTA_J2000            Declination of barycenter (J2000)                          [deg]
#   6 FLUX_APER              Flux vector within fixed circular aperture(s)              [count]
#   9 FLUXERR_APER           RMS error vector for aperture flux(es)                     [count]
#  12 FLUX_RADIUS            Fraction-of-light radii                                    [pixel]
#  13 FWHM_IMAGE             FWHM assuming a gaussian core                              [pixel]
#  14 BACKGROUND             Background at centroid position                            [count]
#  15 THRESHOLD              Detection threshold above background                       [count]
#  16 FLUX_MAX               Peak flux above background                                 [count]
#  17 ISOAREA_IMAGE          Isophotal area above Analysis threshold                    [pixel**2]
#  18 A_IMAGE                Profile RMS along major axis                               [pixel]
#  19 B_IMAGE                Profile RMS along minor axis                               [pixel]
#  20 THETA_IMAGE            Position angle (CCW/x)                                     [deg]
#  21 FLAGS                  Extraction flags                                          
         1    721.5254     14.9463 307.6452988  +6.6898281     8655.081     11268.67     11434.88     78.15002     156.1759     312.2277      1.357     2.45     825.4911     55.04068     1409.711        27     1.104     1.000  75.92   0
         2    641.7640     14.2171 307.6784641  +6.6874611     4445.147     6016.682     5735.265     77.77699     155.9896     312.0414      1.397     2.53     826.1183     55.04068     674.6927        22     1.051     0.990 -70.89   0
         3    343.5677     13.9296 307.8023708  +6.6775854     968.6339      1142.88     1219.159     78.15002     156.1759     312.2898      1.349     3.56     834.8718     55.04068      133.165        10     0.990     0.730  67.55   0
         4    397.2733     12.5062 307.7801051  +6.6799753     808.5216     744.7404     1111.749     78.15002        156.3     312.2588      1.140     3.77     831.4677     55.04068     133.0618         6     0.918     0.445 -89.00   0
         5    441.8823     10.4075 307.7616414  +6.6823379     7355.504     9798.294     10290.73     77.90154     155.8031     312.1346      1.398     2.61     829.7557     55.04068     1126.601        25     1.101     1.015 -68.50   0
         6     42.8462      9.9848 307.9274443  +6.6691036     9598.964     13155.24     13371.64     77.77699     155.9896     312.0103      1.421     2.57     832.4851     55.04068     1582.057        35     1.196     1.139 -46.12   0
         7    689.2098      9.5090 307.6589084  +6.6909920     1111.353     1525.734     1445.114     78.02588     155.8653     312.0103      1.501     5.17     825.5099     55.04068     162.1165        11     1.135     0.788 -57.41   0
         8    517.3270      7.7147 307.7303855  +6.6859785     921.5579     1391.959     1455.147     78.39773      156.486     309.3894      1.610     4.05     827.8675     55.04068     136.6394         9     1.003     0.830 -76.41   0
         9    338.4790      5.3805 307.8047730  +6.6809437     15062.16     20149.04      21390.4     77.77699     155.8653     289.9469      1.423     2.58     834.8718     55.04068     2159.853        38     1.276     1.107 -57.13  16
        10    112.0598      5.5853 307.8988373  +6.6732495     2839.276     3948.424     4065.281     77.77699     156.1139     291.9129      1.414     2.82     832.6312     55.04068     434.3193        16     1.006     0.935  69.64  16
        11    433.3489      6.0203 307.7653345  +6.6838628     791.8861     1401.512     1789.362     77.77699      156.238     296.3623      1.794     3.68     829.7864     55.04068     141.3112         6     0.901     0.619 -18.97  16
        12    103.5269      4.4752 307.9024199  +6.6734206     1648.311     2265.853     2085.579     78.52129      156.424     279.8406      1.497     2.69     832.5455     55.04068     236.7837        12     0.869     0.855 -52.99  16
        13    806.9789      4.1075 307.6101559  +6.6971585     850.9723     1024.617     1334.162     78.15002     154.4909     275.0537      1.156     2.20     824.9474     55.04068     183.9152         8     0.765     0.661  45.02  16
        14    404.6521      3.2194 307.7773519  +6.6840565     2847.254     3957.782     4051.697     77.77699      148.083     263.4604      1.445     2.68     830.8035     55.04068     475.9172        20     1.101     0.971  63.82  24
        15    665.1895      1.0639 307.6691724  +6.6936748     1019.908     1319.905     1675.587     64.11236     119.7815      230.278      1.009     2.95     825.3137     55.04068     338.2469         6     1.073     0.244  -0.63  24
        16    433.0789   1005.7386 307.7318343  +6.2711498     1198.375      1670.21     1711.478     78.39773      156.238     312.2588      1.556     3.54     859.7417     55.04068     179.6163        13     0.998     0.919 -40.29   0
        17    969.8915   1020.7551 307.5084640  +6.2828901     5877.384     10275.38     10505.52     78.27397     155.4293     277.1603      1.824     3.76     854.6688     55.04068     739.6066        39     1.468     1.310  59.25  24
        18      5.2282   1006.1758 307.9094382  +6.2566037     785.3011      1018.57     852.7548     77.77699     156.0517     288.3039      1.313     3.57     854.5328     55.04068     129.6186         7     0.879     0.569 -35.51  16
        19    279.9242   1002.6724 307.7955198  +6.2672801     1062.476     1579.295     1430.947     78.52129      156.424     312.2588      1.734     5.02     859.9803     55.04068     137.9507        12     1.129     0.933  83.80   0
        20    924.4216    999.3306 307.5280583  +6.2902191     8433.807     13690.54     14374.97     77.90154     156.1139     312.2277      1.763     3.43     855.7679     55.04068     1015.971        39     1.400     1.289  40.48   0
        21    555.7456    998.7235 307.6811434  +6.2781535     8941.878     13022.59     14439.39     78.39773     156.1759     312.2588      1.580     2.86     859.6332     55.04068     1262.556        37     1.299     1.195  84.78   0
        22    610.8555    996.1588 307.6583496  +6.2810562     1330.521     1928.385     2069.306     78.15002     156.1759     312.2898      1.506     6.33      859.524     55.04068     232.5384        14     1.547     0.780 -79.20   0
        23    897.9885    995.5636 307.5391588  +6.2908926     11658.42     19374.02     20888.11     77.77699     155.9896     311.9482      1.794     3.41     855.7188     55.04068     1549.915        54     1.541     1.409  12.49   0
        24   1019.8548    994.9436 307.4885825  +6.2952110     4304.701     7366.014      7778.75     78.39773      156.238     287.4283      1.823     3.72     852.1497     55.04068     526.5302        35     1.428     1.290  58.65  16
        25    546.7390    996.0098 307.6849737  +6.2789724     591.0895     758.8027       1620.7     77.65224     156.0517     312.0103      1.495     3.47     859.5486     55.04068     92.53534         5     0.999     0.348 -44.38   2
        26    542.1227    994.6019 307.6869375  +6.2793991     4426.572     6534.697      6857.12     77.65224     155.6786     312.0724      1.575     3.09      859.519     55.04068     556.1063        29     1.278     1.130   4.07   2
        27    651.8095    993.8752 307.6414233  +6.2833685     1696.751      2417.05     2552.249     77.90153     155.8031     312.0724      1.561     3.30      858.975     55.04068     249.7733        17     1.094     0.986 -81.23   0
        28     76.9422    992.9398 307.8801138  +6.2644797     926.6845     1512.299      1442.83     78.39773     156.1139     312.2898      1.900     3.52      855.533     55.04068      141.174         8     0.849     0.653 -51.97   0
        29    806.0742    992.0300 307.5774381  +6.2892843     573.8248     800.0852     897.5576     78.15002     156.1759     312.2588      1.700     5.30     856.4431     55.04068     87.41809         7     1.073     0.740  85.92   0
        30    495.2693    990.9260 307.7065128  +6.2793480     2465.176     3501.768     3327.617     78.39773        156.3     312.2588      1.491     3.39      859.385     55.04068     334.5645        19     1.150     0.951 -37.45   0
        31    929.7615    983.0817 307.5263845  +6.2971053     42301.68     68588.94      72449.4     78.27397      156.238     312.1967      1.743     3.36     855.1288     55.04068     5352.767        73     1.513     1.429  63.37   0
        32      2.7600    982.9668 307.9112458  +6.2661015     3448.464     5124.909     5239.957     78.02588     142.8855     256.8649      1.575     3.27     853.8373     55.04068     436.6874        26     1.227     1.162 -52.89  24
        33    334.7113    984.1395 307.7733982  +6.2767688     643.7729     902.9761     862.0093     78.15002        156.3     312.2898      1.486     3.37     859.6502     55.04068     95.64801         5     0.941     0.349  46.49   0
        34    236.9516    981.4716 307.8140733  +6.2745898     1982.034     2903.178     2928.766     78.27397      156.238     312.2898      1.573     2.96     857.2706     55.04068     289.7748        16     1.056     0.894  -5.99   0
        35    125.0262    980.4416 307.8605735  +6.2712555      728.259     1039.753     1044.508     77.90154     156.1139     312.1035      1.582     3.48     856.0322     55.04068     135.7877         7     1.064     0.530 -62.34   0
        36    775.8382    974.7943 307.5905686  +6.2953902     6852.502     10510.18     11819.89     77.40216     155.9275     312.0103      1.654     3.19     856.6559     55.04068     941.2289        40     1.438     1.285 -69.81   0
        37    636.0417    979.4973 307.6484517  +6.2887769     784.9853     1147.561     915.1734     78.27397     156.0517      312.476      1.371     3.74     858.8031     55.04068     141.8442         6     0.836     0.481 -11.51   0
        38    827.6198    976.8100 307.5690021  +6.2962868     2324.341     3661.673     3621.862     77.90154     155.8653     312.1346      1.637     3.50     855.9443     55.04068      336.582        20     1.133     1.082  44.89   0
        39    245.2589    973.8366 307.8108815  +6.2780205     1598.653     2336.473     2613.338     78.27397     156.1759     312.2588      1.578     3.56     857.3765     55.04068     236.3391        18     1.213     0.967  16.70   0
        40    562.8524    974.0053 307.6790223  +6.2885957     882.9427     1243.955     980.4934     77.65224     155.9275     311.9171      1.400     3.83     858.9288     55.04068     139.5307         8     0.839     0.650 -37.44   0
        41    209.6615    973.2488 307.8256796  +6.2770680     898.6635     1270.626     1400.348     78.27397     156.1139     312.3209      1.624     4.29     856.5112     55.04068     141.3624         9     0.922     0.774  64.37   0
        42     70.1504    971.9095 307.8836424  +6.2729329     2906.713     4427.609     4730.005     78.27397     155.9896     312.4139      1.582     3.03      854.912     55.04068     401.1292        27     1.367     1.078  14.50   0
        43    964.1517    969.8919 307.5125468  +6.3036970     6280.965        10485     10893.98     78.27397     156.0517     312.3829      1.762     3.49     853.6367     55.04068     817.3442        40     1.426     1.319  67.82   0
        44    220.4965    965.8213 307.8214315  +6.2804980     578.4057     868.2438     1024.648     78.15002     155.9896     312.0724      1.700     4.73     856.3599     55.04068     78.84778         6     0.944     0.672  10.74   0
        45    646.0464    964.2032 307.6448108  +6.2954253     685.8759     919.9545     1080.088     77.65224     155.9275     311.9171      1.438     4.15     858.3615     55.04068     118.0286         7     1.176     0.418 -56.99   0
        46    937.9800    961.7996 307.5236837  +6.3061653     2049.267     3169.002     3168.405     77.90154     155.8031     311.9482      1.625     3.80     854.1344     55.04068     254.2957        21     1.250     1.041  40.61   0
        47    270.7578    957.6553 307.8008400  +6.2855563       4719.6     6735.577     6888.835     78.15002     156.1139     312.2898      1.533     2.86     857.7657     55.04068     681.5668        27     1.246     1.065  66.03   0
        48    797.5425    958.1340 307.5821150  +6.3029928     1421.344     2072.266     1943.332     78.39773     156.1139     312.2898      1.491     3.46     856.1302     55.04068     204.7733        13     1.064     0.844 -55.85   0
        49    658.6000    957.4549 307.6398249  +6.2986309     5053.908       7360.2     7789.944     77.52731     155.8031     311.9171      1.558     2.89     858.1143     55.04068     703.5233        28     1.229     1.101 -50.67   0
        50   1008.2081    957.0427 307.4946841  +6.3104699     676.6663     1014.661     835.7418     77.77699     155.9896     312.0103      1.540     5.39     852.1846     55.04068     88.38428         8     0.969     0.844  18.18   0
        51     39.4314    955.1087 307.8969618  +6.2788353     2517.841     3679.867     4194.022     78.39773     155.9896     312.2588      1.646     2.91     853.8311     55.04068     343.5858        19     1.134     0.978 -86.72   0
        52    480.9257    955.6177 307.7136534  +6.2934438     1305.687     1910.568     2050.334     77.77699     155.9275     312.1656      1.593     2.95     858.4089     55.04068     230.2714        13     1.015     0.829  74.67   0
        53    890.0979    953.8137 307.5438312  +6.3078653     878.6937     1536.015     1291.654     78.15002     155.9275     312.0103      1.831     6.04     854.6307     55.04068     121.9695        12     1.499     0.685  27.28   0
        54    961.6470    951.3417 307.5142068  +6.3112717     745.1869     1096.402     881.3266     78.27397     156.1759     312.3829      1.631     5.48     853.1946     55.04068     94.12921         9     0.997     0.851  45.66   0
        55    307.0831    951.2903 307.7859732  +6.2894028     966.7667     1367.731     1860.914     78.02588      156.424     312.3519      1.563     4.88     858.2466     55.04068     144.9655        11     0.963     0.907 -30.43   0
        56    583.2676    950.0141 307.6713513  +6.2991831      1801.83     2701.288      2444.45     77.77699     156.0517     312.1656      1.530     3.62     858.2525     55.04068     303.2516        19     1.207     1.084  -3.70   0
        57   1014.7617    948.4843 307.4922490  +6.3142215     660.4176     1300.125      1081.36     78.27397     156.1139     312.1967      1.908     4.82     851.9279     55.04068      86.3241         8     1.559     0.423  88.04  16
        58    622.6442    946.3824 307.6551245  +6.3019996     1295.035     1727.447     1820.208     77.90154     156.0518     312.0103      1.440     3.11     858.0681     55.04068     183.5654        11     0.927     0.768 -86.04   0
        59     71.5899    946.8992 307.8838881  +6.2833058     799.3175     1152.222     1319.405     78.02587     155.8031     312.0724      1.677     3.92     854.3771     55.04068     111.0198         9     1.075     0.573  27.82   0
        60    302.4069    943.9377 307.7881619  +6.2922812     1673.655     2221.296     2942.345     77.65224     155.9896     312.0414      1.400     2.87      857.906     55.04068     276.5337        13     0.934     0.880 -65.12   0
        61    569.9166    942.0234 307.6771625  +6.3020351     626.7884     1009.964     933.2957     78.15002     155.9275     312.1967      1.693     4.43     858.0271     55.04068      96.2984         7     1.296     0.431  25.53   0
        62    769.2193    940.3035 307.5944716  +6.3094080     976.0288     1125.694     1307.915     78.15002     155.9896     312.0414      1.273     3.21     856.2769     55.04068     164.4141         8     0.846     0.682  19.90   0
        63    906.7580    936.7114 307.5374859  +6.3154814     7267.525      11058.6     11388.91     78.27397     156.1139     312.2898      1.647     3.25     853.8607     55.04068     880.0456        36     1.310     1.257 -47.92   0
        64    115.4411    936.1092 307.8660468  +6.2892343     590.9943     797.5183     1073.362     78.27397     156.1759     312.3209      1.602     4.52     854.8881     55.04068     99.08679         5     0.875     0.663 -48.60   0
        65    442.7890    933.8872 307.7302168  +6.3011371     2166.605     3217.335      3889.58     77.90154     155.9275     312.1035      1.646     3.18     857.9883     55.04068     294.6785        19     1.128     0.997 -74.00   0
        66    611.7624    933.9266 307.6600602  +6.3067778     680.7254     901.6749     284.0495     78.15002      156.238     312.3209      1.398     4.02     857.7915     55.04068     92.38629         7     0.727     0.696 -81.38   0
        67    344.3530    932.3168 307.7711380  +6.2984857     10601.89      14653.2      16011.2     78.27397     156.1759     312.2588      1.486     2.73     857.9751     55.04068     1445.259        34     1.207     1.139 -19.37   0
        68    264.4251    931.2357 307.8043582  +6.2962503     7914.514     10887.44      11153.9     77.90154     155.9896     312.0103      1.460     2.79     856.5056     55.04068     1094.343        31     1.196     1.109 -57.05   0
        69    776.4938    924.8702 307.5919680  +6.3160224     763.2786     1035.073      387.601     78.27397      156.238     312.2588      1.650     5.75     855.9755     55.04068     96.88403         9     1.169     0.797  62.26   0
        70    592.8351    925.6041 307.6681979  +6.3095803     1209.815     1789.792     1483.805     77.40216     156.0517     312.0414      1.493     3.30     857.6254     55.04068     174.3136        11     1.017     0.733 -29.12   0
        71    922.8826    922.1980 307.5312761  +6.3220108     1051.531     1555.053     1943.077     77.65224     155.8031     312.0103      1.563     3.91     853.1558     55.04068       146.98        12     1.087     0.859  73.04   0
        72    879.2352    921.4515 307.5494238  +6.3208632     706.1409     1313.656     1043.127     78.15002     156.1759     312.1656      1.812     4.94     854.0436     55.04068      99.7442         7     1.278     0.541 -65.93   0
        73    226.4570    921.3056 307.8204557  +6.2990750     652.2943      1018.19     743.2265     78.15002     156.1759      312.445      1.583     3.89      855.422     55.04068     109.9722         7     0.890     0.625 -20.83   0
        74    155.0270    921.6293 307.8501003  +6.2965422     558.5722     691.7263     933.9006     77.77699     155.9896     312.0724      1.312     3.43     855.0074     55.04068     106.4932         5     0.804     0.424 -19.82   0
        75    421.8456    919.9653 307.7393799  +6.3061826     730.5751     920.8824       1324.3     77.90154     156.1139     312.1346      1.504     3.31     857.6907     55.04068     122.6365         7     0.882     0.715  -8.30   0
        76    852.3098    915.3665 307.5608070  +6.3224768     708.8868     896.3322     896.7576     78.39773     156.0518     312.2588      1.355     3.19     854.4595     55.04068     116.0565         7     0.830     0.656 -67.25   0
        77    582.4628    915.5360 307.6728421  +6.3133897     824.3726     984.6796     847.4736     78.27397     156.1759     312.2898      1.321     4.52      857.507     55.04068     126.3212         8     0.938     0.694  39.22   0
