#   1 NUMBER                 Running object number                                     
#   2 X_IMAGE                Object position along x                                    [pixel]
#   3 Y_IMAGE                Object position along y                                    [pixel]
#   4 ALPHA_J2000            Right ascension of barycenter (J2000)                      [deg]
#   5 DELTA_J2000            Declination of barycenter (J2000)                          [deg]
#   6 FLUX_APER              Flux vector within fixed circular aperture(s)              [count]
#   9 FLUXERR_APER           RMS error vector for aperture flux(es)                     [count]
#  12 FLUX_RADIUS            Fraction-of-light radii                                    [pixel]
#  13 FWHM_IMAGE             FWHM assuming a gaussian core                              [pixel]
#  14 BACKGROUND             Background at centroid position                            [count]
#  15 THRESHOLD              Detection threshold above background                       [count]
#  16 FLUX_MAX               Peak flux above background                                 [count]
#  17 ISOAREA_IMAGE          Isophotal area above Analysis threshold                    [pixel**2]
#  18 A_IMAGE                Profile RMS along major axis                               [pixel]
#  19 B_IMAGE                Profile RMS along minor axis                               [pixel]
#  20 THETA_IMAGE            Position angle (CCW/x)                                     [deg]
#  21 FLAGS                  Extraction flags                                          
         1    182.4564     28.9780 307.8656354  +6.6672423     3320.683     9269.715     11558.54     93.55247     187.4782     374.7698      2.692     8.68      1257.64     66.09872     431.9709        54     2.558     1.561 -47.10   3
         2    711.4556     19.3727 307.6454076  +6.6887544      2735.98     6745.454     8239.872     93.55247     187.6273     374.8072      2.543     8.61     1226.679     66.09872     320.6288        41     2.296     1.267 -31.32   3
         3    710.2290     15.8701 307.6460373  +6.6901599     2017.774     3515.651     4023.138     93.70179     187.5527      374.919      1.902     5.90     1226.569     66.09872     275.4662        17     1.626     0.760 -21.40   3
         4    631.2358     18.4034 307.6788872  +6.6865001     1357.244     4081.775      5643.44     92.95277     187.4036     374.7325      3.068    10.66     1228.693     66.09872     184.7184        37     2.088     1.665  -5.03   2
         5    431.3852     13.9604 307.7623619  +6.6817113     1496.016     6760.482     9258.198     93.55247      187.329     374.7325      3.218     9.31     1244.333     66.09872      233.061        58     2.260     2.095 -59.05  16
         6     33.4507     15.2782 307.9282216  +6.6679381     2946.891     7367.586     10024.95     93.99973     187.6273     374.9936      2.874     8.63      1259.68     66.09872     338.5956        53     2.456     1.832 -39.99  18
         7     32.0108     11.3340 307.9289560  +6.6695184     1846.917     3256.834     4124.791      93.4029      187.329     374.8072      2.039     5.82     1259.432     66.09872      229.343        13     1.422     0.672  15.55   3
         8    328.1904      8.9643 307.8055557  +6.6803486     3150.686     13719.31     18958.69      93.4029     187.2543     374.7325      3.219     9.32     1254.578     66.09872     481.5082        81     2.464     2.210 -32.52  16
         9    654.9891      3.1868 307.6694978  +6.6935686     3500.237     9928.241     11812.98     93.70179     176.8879     315.7278      2.646     8.40     1228.165     66.09872     404.1331        49     2.225     1.474  -8.30  24
        10    416.0349      1.2472 307.7691925  +6.6864507     977.8612     1390.558     1184.971     80.19494     147.5883     280.5079      1.445     5.28     1247.434     66.09872     249.5259        10     1.596     0.529  -4.90  24
        11    254.8884      1.8509 307.8363581  +6.6808499     1880.752     3555.216     3069.863      88.7989     157.9303     292.4164      1.942     7.50     1257.894     66.09872     283.3811        21     1.802     0.873  -4.51  24
        12    601.2452    998.6814 307.6582740  +6.2807825     804.5361      2048.96     1577.979     93.99973     187.5527     374.9563      2.278     7.34     1286.969     66.09872     117.7941         9     1.542     0.978 -56.07   0
        13    960.0785   1022.6780 307.5079705  +6.2827272     5220.045     8200.112     8847.216      93.4029     165.8749     300.8995      1.710     4.40     1283.726     66.09872     599.6559        27     1.594     0.946 -11.91  24
        14    719.7928   1021.1433 307.6081283  +6.2754290     2009.109     3777.375      4169.96      93.4029     183.7117     326.3537      2.051     5.66     1286.875     66.09872     218.1304        24     1.433     1.228 -11.97  26
        15    715.7172   1023.2248 307.6097560  +6.2744349     915.7383     1353.493     2231.006     87.84916     156.6861     290.5939      1.750     5.50     1286.966     66.09872     151.8141         8     1.184     0.722   3.60  27
        16    442.8373   1022.1756 307.7234733  +6.2658368     710.0789     1233.285     1120.722     93.55247      172.567     309.5566      1.764     4.42     1287.304     66.09872     81.72693         6     1.174     0.472 -63.57  24
        17    244.7612   1023.2728 307.8059520  +6.2588130     787.6191     1242.858     1095.259     87.21025     155.8809     289.7266      1.646     4.45      1287.64     66.09872     139.5839         8     0.947     0.638   6.71  24
        18    532.4908    997.3051 307.6869641  +6.2790749     2097.399      5476.08     6683.146     93.99973     188.1481     374.9936      2.519     6.69     1287.651     66.09872     281.5834        38     1.852     1.461 -20.62   0
        19   1009.8604    997.3890 307.4880807  +6.2948094     4009.064     7257.285     8622.919      93.2531     187.4036     374.6579      2.020     4.19     1281.199     66.09872     466.6251        37     1.634     1.335 -11.98   0
        20    642.4816    995.9152 307.6411879  +6.2832888     869.1787     1970.641     2688.674     93.70179     187.9251     375.0682      2.551     6.57     1286.199     66.09872     121.5514        10     1.432     0.846  19.98   0
        21    484.6374    992.5434 307.7070611  +6.2794560     851.0165     2335.621     3147.041     93.99973     187.6273     374.9936      2.898     9.87     1287.547     66.09872     138.3818        15     1.811     1.500 -84.13   2
        22    919.7971    985.5013 307.5260034  +6.2967482     32410.09     63635.46     69059.14     93.70179     187.2543     374.6206      2.061     4.51     1283.598     66.09872     3618.613        75     1.840     1.499 -35.56   0
        23    226.9153    984.1521 307.8147117  +6.2743717     952.7134      2209.04     2910.606     93.99973     187.5527     375.0309      2.585     7.59     1286.559     66.09872     120.5126        15     1.550     1.041  13.73   0
        24    818.0216    979.2810 307.5686153  +6.2959577     1632.084     3327.316     3826.363     93.70179     187.1796      374.919      2.209     5.72     1283.464     66.09872     200.8755        21     1.300     1.254 -47.06   0
        25    765.9443    977.2942 307.5903790  +6.2950581     3863.719     8911.675     10858.47     93.85088     187.5527     375.2173      2.407     5.27      1283.95     66.09872     417.5348        46     1.812     1.539 -43.28   0
        26     60.7549    974.8380 307.8842478  +6.2726939     1552.563     3755.526      3689.15     93.70179     187.4782     374.8817      2.304     7.10     1283.304     66.09872      202.755        30     1.603     1.483 -32.66   0
        27    954.1028    972.3406 307.5121534  +6.3033134     5031.909     9816.064      10397.3     93.70179     187.5527     375.1427      2.050     4.74     1282.333     66.09872     542.1819        39     1.725     1.284 -47.10   0
        28    237.3850    975.8633 307.8106309  +6.2781415     716.7194     1281.043      1550.76      93.4029     187.4036     374.8072      2.481     4.73     1286.366     66.09872     106.8787         7     0.971     0.695 -37.27   0
        29    927.9161    963.7311 307.5233534  +6.3060045     1495.928     2786.954     2957.954     94.29673     187.8507     375.0309      2.033     7.72      1282.58     66.09872     173.0024        24     1.731     1.203 -28.26   0
        30    260.3054    963.2711 307.8015089  +6.2841014     1207.895     2091.574      2709.83     93.99973     187.6273     374.9936      1.852     5.18     1286.321     66.09872     166.3127        12     1.492     0.583  20.34   3
        31    261.5561    960.2072 307.8010916  +6.2854079     2192.195     4540.168     4448.394      93.4029     187.2543     374.6206      2.167     6.36     1286.299     66.09872     220.0192        26     1.789     1.089  15.54   3
        32    787.8544    960.5093 307.5818163  +6.3027119     916.8155     2055.021     2569.046     93.85088      187.329     375.1427      2.490     8.07     1282.557     66.09872      127.792        15     1.500     1.214  39.15   0
        33    648.9216    960.1099 307.6397130  +6.2982848     2503.823     6357.816      7042.32     93.70179     187.8507     375.0682      2.431     6.46       1284.6     66.09872     292.0377        39     1.741     1.546 -21.10   0
        34     30.3310    957.9579 307.8974949  +6.2786505     1194.463     2717.929     2835.827     93.85088     187.4782     375.0682      2.354     6.85      1283.12     66.09872     152.0535        19     1.647     1.071  27.84   0
        35    469.9684    958.1502 307.7143347  +6.2931698     599.8438       1390.1     1369.897     93.70179     187.5527      374.919      1.891     5.01     1286.685     66.09872     125.1902         6     1.463     0.485 -47.38   0
        36    880.3707    956.1671 307.5434171  +6.3075590     773.6721     1208.868     1374.355      93.4029     187.2543     374.6952      1.534     5.22      1282.37     66.09872     102.1742         7     1.142     0.673  28.26   0
        37    572.7970    951.7123 307.6717119  +6.2992332     740.7477     1513.801     1180.741      93.2531     187.1049     374.6952      2.081     6.01     1285.823     66.09872     93.20898         8     1.391     0.730 -57.59   0
        38   1003.1642    952.1919 307.4923902  +6.3132497     620.8377     1348.347     1619.824      93.4029      187.329     374.6952      2.384     3.37      1280.95     66.09872     107.7103         5     0.969     0.339 -45.47   0
        39    612.6288    947.8640 307.6552468  +6.3021402       665.12     1413.158     1695.988     93.70179     187.6273      374.919      2.186     5.27     1284.779     66.09872     106.2681         7     1.438     0.546  15.79   0
        40    294.1276    946.7307 307.7879785  +6.2920531     663.4151      1032.58     1853.963     94.14835     187.7018     374.9936      1.772     3.94      1286.68     66.09872     90.84705         6     1.251     0.354 -60.63   0
        41    759.7183    942.6310 307.5941412  +6.3091639     635.7466     1184.034     1261.656     93.85088     187.4036     374.9936      1.745     4.48     1282.092     66.09872     107.3984         5     1.295     0.441  42.21   0
        42    896.8311    939.2885 307.5371272  +6.3150709     4730.519     9820.755     10374.85     94.14835      187.329      374.919      2.139     4.89     1281.514     66.09872     554.2634        40     1.690     1.411 -35.43   0
        43    334.6879    935.3085 307.7714674  +6.2981149     4519.637     12553.91     14928.99     93.99973     188.0738     375.1427      2.646     6.17      1286.62     66.09872     507.6573        67     2.000     1.938 -35.10   0
        44    434.2354    936.3577 307.7299586  +6.3009830     1006.392      2039.51     2083.677     93.70179     187.5527     374.8072      2.228     6.05     1286.425     66.09872     129.3658        12     1.125     0.914  63.43   0
        45    254.7901    934.3952 307.8047847  +6.2958400      3271.04     8982.177      10624.5      93.4029     187.2543     374.8445      2.666     6.28     1285.645     66.09872      401.015        55     2.023     1.731 -45.31   0
        46    582.4582    927.3926 307.6685080  +6.3095938     662.6183     1208.273     1892.262      93.2531     187.4036     374.6952      1.630     3.52      1284.77     66.09872     94.68933         5     1.098     0.326 -20.30   0
        47    913.0153    923.6528 307.5309105  +6.3220604     749.0762     1456.232     1857.385      93.2531     187.5527     374.6579      2.518     4.42     1280.726     66.09872     111.8307         6     0.903     0.616 -41.64   0
        48    749.3730    917.1537 307.5993103  +6.3193410     1085.986     2469.711     4207.409     93.55247     187.6273     374.8817      3.827     7.95     1280.872     66.09872      156.587        15     1.619     1.171 -74.64   0
        49    535.5044    913.5022 307.6885396  +6.3137743     634.1765     1273.723     1362.202     93.99973     188.2224     374.8072      1.614     4.58     1285.238     66.09872     91.70605         6     1.238     0.482  83.35   0
        50    980.1928    912.7297 307.5032884  +6.3287856     918.2767     1704.816     2453.268      93.4029     187.1049     374.8817      1.883     6.41      1279.19     66.09872     125.8804        13     1.429     0.809 -14.02   0
        51    667.4401    910.6853 307.6336653  +6.3193033     1380.413     3219.999     4018.565     93.99973     187.4782     374.9563      2.572     8.17     1282.142     66.09872     163.7467        21     1.576     1.184  -0.40   0
        52     64.6844    907.5229 307.8848954  +6.3006158     1623.061     4206.464     4501.142     94.14835     187.9251     375.1054      2.465     8.48     1282.896     66.09872     205.9701        34     1.927     1.534   0.39   0
        53    209.3351    906.2473 307.8246757  +6.3059514     998.2013     2332.792      2725.58     93.85088     187.4782     375.0682      2.717     9.61     1284.461     66.09872      128.291        19     2.309     1.115 -41.60   2
        54     82.1536    905.8108 307.8776757  +6.3019038     847.3504     1923.363     2752.906      93.4029      187.329     374.6206      2.240     6.54     1282.909     66.09872     115.6187        11     1.543     0.779  16.92   0
        55    662.1835    900.0062 307.6362157  +6.3235385     3563.517     9167.724     11159.69     93.55247     187.2543     374.8072      2.546     6.05     1281.782     66.09872     410.1848        50     1.959     1.642 -33.54   0
        56    345.2795    893.6736 307.7684639  +6.3156558     6986.743     20999.29      25890.8     94.29673     187.8507     375.0309      2.800     6.68     1285.426     66.09872     822.5347        76     2.171     1.974 -47.10   0
        57     35.1256    898.7928 307.8975062  +6.3032365     533.4828      1360.87     1347.739     93.55247     187.0302     374.8445      2.319     5.63     1282.691     66.09872     99.34058         6     1.398     0.638  14.86   0
        58    899.7795    895.7123 307.5373656  +6.3331598     1778.866     3950.371      4573.38     93.85088     187.2543     374.8817      2.359     6.75     1278.969     66.09872     195.7142        32     1.864     1.322 -26.37   0
        59    109.0235    884.1675 307.8672158  +6.3117330     997.3601     2284.983     1782.333      93.4029     187.4036     374.7698      2.321     7.16     1282.885     66.09872     132.5963        12     1.350     1.065 -13.77   0
        60    889.9730    878.0815 307.5420452  +6.3401155     1166.149     2786.066     2686.936     93.85088      187.329      374.919      2.458     8.86      1277.84     66.09872     160.1382        20     1.722     1.274 -58.39   0
        61    860.8614    877.3776 307.5541986  +6.3394455     1141.662     2622.403      2730.62     93.55247     187.4782     374.8817      2.202     7.11     1277.768     66.09872      146.228        16     1.487     1.237 -15.40   0
        62    824.4527    876.8173 307.5693876  +6.3384749     1751.506     4498.671     5344.851      93.4029     187.6273     374.6579      2.457     8.04     1277.685     66.09872     204.8914        34     1.800     1.428 -31.49   0
        63    560.2574    868.5594 307.6797447  +6.3331494     144558.8     420917.8     504921.5     93.99973     187.5527     375.0309      2.694     6.59     1283.076     66.09872     15507.79       182     2.298     2.029 -33.74   0
        64    406.3085    870.3567 307.7438261  +6.3273067     2810.301     5556.681     7354.794     93.99973     187.5527     375.1054      2.479    10.42     1284.139     66.09872     348.6376        31     2.741     1.105 -61.67   3
        65    403.6808    869.6699 307.7449441  +6.3275031     2691.935     4919.636     6588.463     94.29673     187.9251     375.0309      2.202     8.54     1284.156     66.09872     326.9723        25     2.288     0.890 -56.20   3
        66    347.8257    869.8547 307.7682093  +6.3255743     5216.385        15900     19489.55     93.55247     187.6273     374.8072      2.771     6.83     1284.604     66.09872     576.4755        73     2.162     1.921 -27.13   0
        67    665.9860    865.7921 307.6357858  +6.3377904     1597.675     4583.197     5473.607     93.55247     187.2543     374.8072      2.498     7.78     1280.112     66.09872     188.1992        36     1.777     1.575 -54.60   0
        68    898.2707    864.3802 307.5390491  +6.3460463     3253.798     7671.832     9688.732     93.55247     187.4036      374.919      2.553     5.63     1276.963     66.09872     343.6611        42     1.798     1.462 -27.97   0
        69    641.0123    859.6451 307.6463988  +6.3395023     1659.592     4048.753     5619.706      93.4029      187.329     374.6579      2.817     7.24     1280.757     66.09872     242.4568        36     1.861     1.644  -9.15   0
        70     92.0502    877.3538 307.8745184  +6.3139816     1163.047     2707.448     3732.251     93.99973     187.4036     375.0309      2.921     8.16     1282.539     66.09872     161.7955        17     1.969     0.945   5.37   0
        71    633.9681    852.8763 307.6495623  +6.3420639     930.5736     1815.823     2822.754     93.85088     187.5527      374.919      2.142     7.24     1280.555     66.09872     149.2941        14     1.810     0.812   3.83   3
        72    634.2015    856.4295 307.6493451  +6.3406046     1000.779     2109.692     3467.543      93.4029      187.329     374.7698      3.307     4.93     1280.761     66.09872     146.4785        10     1.206     0.689  78.35   3
        73    631.6863    856.0588 307.6504056  +6.3406744     877.1818     1970.574      3015.55     93.99973     187.5527     375.1427      2.684     6.25     1280.838     66.09872      139.702         9     1.525     0.719  65.37   3
        74    917.3329    852.0289 307.5315222  +6.3517747     2107.162     4548.149     5078.214     93.70179     187.5527     374.9563      2.234     5.40      1276.19     66.09872     248.8025        32     1.622     1.372 -36.22   0
        75    376.2499    847.8813 307.7571103  +6.3355892     1048.242     3114.442     4563.513     93.99973     187.6273     375.0309      3.070     9.21     1283.796     66.09872     119.3107        22     2.003     1.181  44.66   2
        76    512.3247    837.1486 307.7007773  +6.3445307      1385.26     3297.446     4380.355     93.99973     187.6273     374.9936      2.911     6.46     1281.149     66.09872     182.3412        18     1.613     0.931  20.71   2
        77    560.3073    833.3193 307.6809143  +6.3477006     2325.343     4852.707     7262.361     93.70179     187.8507     375.0682      2.987     6.62      1280.42     66.09872     266.7274        24     1.621     1.351  -9.35   3
