#   1 NUMBER                 Running object number                                     
#   2 X_IMAGE                Object position along x                                    [pixel]
#   3 Y_IMAGE                Object position along y                                    [pixel]
#   4 ALPHA_J2000            Right ascension of barycenter (J2000)                      [deg]
#   5 DELTA_J2000            Declination of barycenter (J2000)                          [deg]
#   6 FLUX_APER              Flux vector within fixed circular aperture(s)              [count]
#   9 FLUXERR_APER           RMS error vector for aperture flux(es)                     [count]
#  12 FLUX_RADIUS            Fraction-of-light radii                                    [pixel]
#  13 FWHM_IMAGE             FWHM assuming a gaussian core                              [pixel]
#  14 BACKGROUND             Background at centroid position                            [count]
#  15 THRESHOLD              Detection threshold above background                       [count]
#  16 FLUX_MAX               Peak flux above background                                 [count]
#  17 ISOAREA_IMAGE          Isophotal area above Analysis threshold                    [pixel**2]
#  18 A_IMAGE                Profile RMS along major axis                               [pixel]
#  19 B_IMAGE                Profile RMS along minor axis                               [pixel]
#  20 THETA_IMAGE            Position angle (CCW/x)                                     [deg]
#  21 FLAGS                  Extraction flags                                          
         1    609.1018     34.7571 307.6752510  +6.6716485     5794.418     13018.69     17420.95     93.00603     185.4225     371.2876      2.647    11.29     1217.123     65.39998     617.6667        52     2.832     1.254  65.06   3
         2    237.9367     24.4912 307.8301103  +6.6635742     3034.777     6851.565     9775.428     93.00603     185.7175     371.1401      4.164    13.30      1244.71     65.39998     307.4258        61     3.187     2.402 -28.14   2
         3    414.5120     27.2433 307.7565114  +6.6683021     6882.188     14525.08     18056.49     93.00603     185.4225     371.0663      2.329     9.61      1230.27     65.39998     728.1924        45     2.468     1.193  51.54   3
         4    417.8524     24.6718 307.7552075  +6.6694753     6838.041      14330.3     19186.71     92.85876     185.5701     371.0663      2.611    11.76      1230.19     65.39998     782.7136        52     2.953     1.303  44.75   3
         5    225.3311     22.8979 307.8354117  +6.6638134     1049.052     3405.859     5718.831     93.00603     185.7175     371.0294      4.226    10.29     1245.111     65.39998     146.7103        25     2.302     1.283 -73.05   2
         6    667.3307     13.8003 307.6517153  +6.6822339     638.3047     1299.477     2121.205     92.41551     184.9791     370.8081      1.843     3.93     1215.107     65.39998     83.22498         6     1.101     0.402  76.20   0
         7    153.6177      7.6085 307.8657815  +6.6677442     2672.663     11654.35     15548.11     92.71125     185.2748     366.8373      3.148     9.47      1247.29     65.39998     430.2606        72     2.302     2.133 -79.29  16
         8    496.1125      4.2957 307.7233150  +6.6804889     748.3585     1923.177     3419.068     93.00603     185.3487     329.9479      2.350     6.02     1221.725     65.39998     105.9547         8     1.744     0.584 -40.44  18
         9    898.7614      4.5664 307.5556768  +6.6936987     1682.797     5181.202     5510.988     92.71125     185.3487     333.4963      2.636     8.46      1209.82     65.39998     192.4417        41     1.851     1.670  77.37  24
        10    699.2148      5.7361 307.6387128  +6.6866205     781.1255     1637.095     2037.213     92.41551     185.4225     348.8217      2.533     5.18     1214.308     65.39998     103.2316         7     1.089     0.697  58.02  16
        11    500.2159      4.7599 307.7215910  +6.6804331     883.6514     2060.874     3180.675     92.41551     185.3487     336.2348      3.254     7.01     1221.404     65.39998     113.5162        12     1.482     0.928 -77.61  16
        12    434.0261      4.5745 307.7491523  +6.6783145     629.8642      1415.59     1709.597     92.41551     185.3487     333.7424      2.699     4.55     1230.048     65.39998     93.38403         5     1.023     0.575 -73.24  16
        13    963.8907      2.1709 307.5286421  +6.6968378     881.3914     1549.344     1185.879     91.07285     161.4307     294.7152      1.888     6.88     1203.981     65.39998     118.2885        10     1.396     0.952  -3.86  24
        14    271.1013    987.5612 307.7837970  +6.2668090     8062.957     20204.86      25058.4     93.00603     185.4225     371.2876      2.584     5.72     1278.271     65.39998     967.3459        73     2.028     1.961 -26.40   0
        15    768.5497   1020.6757 307.5757578  +6.2696035     4208.129     8944.646     9413.153     93.00603     185.0531     330.2382      2.148     5.16       1278.1     65.39998      443.592        41     1.583     1.529  65.83  24
        16    557.7650   1022.9315 307.6633632  +6.2617005     84903.51     146890.7     155544.6     90.16663     160.0684     293.1787      1.855     5.20     1281.259     65.39998      9539.54        59     1.896     1.227   2.45  27
        17    559.6509   1016.5847 307.6627921  +6.2643850     42168.31     98255.34     110727.2      92.2673     185.6438     370.7342      2.333     5.62     1280.844     65.39998     4280.274        89     1.957     1.706  11.91  19
        18    786.2064    987.2665 307.5695340  +6.2839895     824.5925     1704.524     1973.149     92.41551     185.2748     370.8081      2.408     5.89     1275.986     65.39998     123.6359         8     1.184     0.826  33.61   0
        19    886.3819    981.1512 307.5280666  +6.2898234     6324.064     13007.08     14057.44     92.41551     185.6438     370.8081      2.109     4.68     1274.562     65.39998     674.8267        46     1.633     1.500  81.62   0
        20    860.0062    977.4437 307.5391632  +6.2904846      8396.15     18265.52     20831.79     92.41551     185.2009     370.6604      2.248     4.92      1274.65     65.39998      943.785        57     1.758     1.623  80.94   0
        21    981.6918    976.7164 307.4885663  +6.2947993     3836.181     7358.766     7233.169     92.71125     185.9385      371.177      1.987     4.47     1271.867     65.39998     431.7592        34     1.498     1.349  77.40   0
        22    573.4307    977.6873 307.6583681  +6.2809111     849.6934     2111.481      2037.11     93.15308     185.3487     370.9557      2.528     6.72     1278.233     65.39998     102.9401        10     1.262     1.003 -89.66   0
        23    504.3953    976.7229 307.6871181  +6.2790235     2261.748     5671.574     6212.225      92.5635     184.9791      370.845      2.403     6.32     1278.544     65.39998     246.6656        38     1.669     1.589 -83.58   0
        24    612.7339    975.0060 307.6421086  +6.2833196     702.6964     1567.145     1984.787     92.41551     185.2748     370.8081      2.448     5.86     1277.518     65.39998     118.2782         7     1.151     1.090  14.06   2
        25    457.8499    973.0562 307.7066035  +6.2789961     1128.583     2803.035      3046.19     93.00603     185.5701     371.0663      2.293     8.53     1278.053     65.39998     136.7549        18     1.559     1.303 -29.89   0
        26    891.7924    964.8960 307.5263608  +6.2967177     29940.17     63246.96     69475.09     92.71124      185.127     370.7711      2.184     4.65     1273.099     65.39998     3075.539        83     1.813     1.668  70.57   0
        27    200.3621    964.3173 307.8140063  +6.2740622     951.1702     2125.747     2883.661     93.00603     185.4963     370.9926      2.836     8.07     1277.851     65.39998       134.52        15     1.681     1.130 -63.77   0
        28    789.3696    958.9767 307.5691675  +6.2957817     1567.913     3471.641     3756.471     92.41551     185.4225      370.845      2.260     5.92     1274.332     65.39998     193.5322        27     1.471     1.419 -87.29   0
        29    737.9846    956.7797 307.5906174  +6.2949916     3958.701     9450.981     11231.57     92.71124     185.3487     370.9188      2.421     5.71      1274.55     65.39998     438.8658        46     1.777     1.595 -83.73   0
        30    208.5463    955.9799 307.8108834  +6.2777785     761.5952     1769.077     1955.202     92.41551     185.5701     370.8081      2.210     6.57     1277.851     65.39998     107.3987        10     1.558     0.777  50.05   0
        31     32.8938    954.2391 307.8840073  +6.2726569     1665.676     3843.755     4183.692     93.15308     185.4963     371.1401      2.300     5.78     1276.069     65.39998      251.889        28     1.521     1.417  24.04   0
        32    926.1254    951.7344 307.5125192  +6.3032880     5078.634     10279.35     11908.78     93.15308     185.5701     371.0294      2.161     4.83     1270.949     65.39998     555.0837        44     1.633     1.504 -79.01   0
        33    899.7071    943.3419 307.5237908  +6.3058837     1556.761     2891.949     2907.009     92.85876     185.4963      371.177      1.968     6.14      1270.93     65.39998     171.4102        18     1.481     1.149  63.58   0
        34    620.6448    939.5926 307.6400082  +6.2982120     2363.908     6232.697      6503.27     92.41552     185.3487     370.6604      2.412     6.15      1275.29     65.39998     299.2559        42     1.750     1.692 -37.86   0
        35    231.6664    941.2946 307.8017616  +6.2846134     1338.008     1748.276     2352.941     93.00603     185.7175     371.0294      1.847     4.19     1277.758     65.39998      194.084        12     1.148     0.900  69.31   3
        36    233.9893    939.2846 307.8008631  +6.2855209     2319.669     4938.673     5349.459      92.5635     185.2748      370.845      2.364     7.07     1277.717     65.39998     273.2211        30     2.108     1.180  43.12   2
        37    758.9537    940.4005 307.5824441  +6.3024514      816.811     1628.686     1833.895     92.11884     185.2009     370.5127      1.981     4.98     1273.412     65.39998     127.4706         8     1.237     0.647 -54.15   0
        38      2.4833    937.8887 307.8972098  +6.2783993     1108.929     1883.723      1900.79     92.71124     166.3578      300.692      1.909     7.64     1275.791     65.39998     154.2998        15     1.591     1.082  88.88  24
        39    444.6913    937.8173 307.7132638  +6.2931183     562.6806      1081.13     1152.576     92.71124     185.2748     370.9188      2.168     5.41     1276.518     65.39998      104.662         5     1.249     0.662  15.97   0
        40    544.6180    931.8002 307.6718973  +6.2989147     822.7405     1775.129     1417.802      92.5635      185.053     370.6604      2.174     5.99     1275.574     65.39998     107.7106         8     1.904     0.531  70.63   0
        41    976.1870    931.2581 307.4923789  +6.3133987     626.0572     1188.444     1561.289      92.2673     185.4963     370.6973      2.080     3.05     1268.588     65.39998     98.60925         5     0.825     0.635  49.65   0
        42    265.4310    926.0244 307.7882314  +6.2920432     833.2587     1817.057     2474.601     92.41551     185.4225     370.8081      2.118     5.09      1277.23     65.39998      133.504         8     1.577     0.465  48.49   0
        43    868.8538    918.7041 307.5374522  +6.3150445       4407.9     10063.61     10779.54     92.85876     185.5701     371.3245      2.268     5.20     1270.462     65.39998     539.2794        45     1.716     1.556  62.32   0
        44    405.5023    916.4359 307.7302863  +6.3006525     1061.688     2774.334     3483.755     93.00603     185.4225     371.2139      2.595     8.99     1276.412     65.39998     145.9965        19     1.646     1.372 -76.40   0
        45    306.6036    914.5901 307.7714897  +6.2981339     4331.478     12395.49     15106.64     92.41552     185.2009     370.8819      2.638     6.57     1276.886     65.39998     552.8127        57     1.934     1.814  51.67   0
        46    225.7555    915.7640 307.8050819  +6.2949644     1964.286     3044.425      3647.89     92.71125     185.4963     370.9188      1.805     5.58     1277.353     65.39998     240.2449        15     1.544     0.713  22.93   3
        47    227.2629    912.7884 307.8045553  +6.2962437     3354.957      7321.48     8837.266     92.41551     185.3487     370.8081      2.316     6.62     1277.271     65.39998     402.9622        38     2.005     1.255  33.67   3
        48    885.7598    902.3001 307.5309690  +6.3223797     613.4158     1111.991     1709.916     93.00603     185.4225     371.2876      1.558     4.91     1269.106     65.39998     95.48181         6     1.432     0.477  24.77   0
        49    720.0563    896.2872 307.6001070  +6.3193909     1010.416     2296.176     3079.405     93.00603     185.4225      371.177      2.594     6.59     1271.106     65.39998     114.4089        12     1.602     0.761 -88.72   0
        50    951.6071    892.8680 307.5038908  +6.3284488     870.3463      2095.43     2433.588     92.41551     185.2748     370.8819      2.581     8.49     1267.578     65.39998     98.56116        14     1.756     1.145 -83.07   0
        51    639.5220    889.6707 307.6338331  +6.3194611     1327.924     3312.115     3370.218      93.2999     185.8649     370.9926      2.397     9.24      1272.25     65.39998     148.1909        28     1.851     1.497  -1.13   0
        52    505.8461    891.5552 307.6893808  +6.3142572     557.0834      1452.81     1825.906     93.00603     185.5701     370.9557      1.855     3.44     1275.254     65.39998     82.10693         5     1.253     0.273 -55.03   0
        53     36.5067    886.8749 307.8847821  +6.3006066     1434.903     4114.656     4678.482     92.85876     185.7175     370.9926      2.644     7.37     1273.538     65.39998     207.0355        36     1.853     1.583 -57.64   0
        54    179.7357    885.3579 307.8252520  +6.3059968     1226.435     2987.735     3282.027     93.00603     185.4963     371.0663      2.367     7.79     1276.403     65.39998      174.547        21     1.735     1.219 -23.78   0
        55     54.7924    886.1951 307.8771985  +6.3014960     1111.455     2250.742     3082.759      92.2673     185.2748      370.845      2.642     6.04      1274.09     65.39998     177.2523        14     1.535     0.897  57.57   0
        56    634.1180    879.4045 307.6364263  +6.3235237     3390.294     9391.627      10806.2     92.41551      185.127     370.6973      2.521     6.52     1272.024     65.39998     360.5758        49     1.798     1.739  73.28   0
        57    871.8220    875.2850 307.5376733  +6.3330808     1706.001     3464.846     4499.475     92.85876     185.2009     370.9557      2.425     5.55     1268.114     65.39998     200.3147        25     1.527     1.251  28.99   0
        58    317.3642    872.8391 307.7684211  +6.3157397     6902.934     20769.39     25281.96     92.71124     185.4225     370.8081      2.735     6.56     1276.414     65.39998     822.3289        73     2.064     1.955  64.44   0
        59     81.8776    863.5852 307.8666957  +6.3117377     1005.499     2075.518     1997.895      92.5635     185.2009      370.845      2.285     6.92     1274.273     65.39998      133.462        13     1.199     1.121  30.22   0
        60     65.2039    856.4188 307.8738740  +6.3141436     1335.183     2911.735     3930.863      92.5635      185.053     370.8081      2.733     8.50     1273.146     65.39998     195.0935        19     1.718     1.174  66.48   2
        61    860.8177    857.0187 307.5428641  +6.3402641     1066.123     2223.352     2312.623     92.71124     185.2748     370.9557      1.962     6.05      1267.26     65.39998     142.9385        12     1.693     0.609  76.79   2
        62    796.4087    856.4130 307.5696810  +6.3383875     1694.491     4037.014     4258.101      92.5635     185.2748     370.9188      2.343     8.06     1268.789     65.39998     204.9933        32     1.751     1.396  47.14   0
        63    833.1487    856.0899 307.5544066  +6.3397344     1012.809     2459.955     2504.591     93.00603     185.3487      371.177      2.448     8.87      1267.94     65.39998      163.272        19     1.611     1.362 -31.16   0
        64    532.2872    847.9106 307.6798495  +6.3331642     141470.5     427340.1     513634.4     92.71124     186.0856      371.177      2.710     6.58     1273.605     65.39998     16141.34       193     2.270     2.108  72.39   0
        65    376.7786    850.5884 307.7444542  +6.3269035     3157.576     9636.814     11701.71      92.5635     185.2748     370.8819      2.750     7.26     1275.214     65.39998     458.1836        58     2.109     1.813  62.58   0
        66    319.8119    849.1419 307.7682019  +6.3256109     4955.088     15982.03     19847.88      92.2673     185.4963     370.6973      2.809     7.04     1275.748     65.39998     663.8643        71     2.155     1.932  78.90   0
        67    870.3678    843.4908 307.5393446  +6.3461684     3181.408     7413.565     8816.621     93.15308     185.3487     371.0663      2.437     5.95     1266.192     65.39998     359.6493        46     1.833     1.677  -3.39   0
        68    638.2040    843.7969 307.6359233  +6.3383698     1585.338     4116.124     5117.828      92.2673      185.053     370.8081      2.705     7.11     1269.665     65.39998     228.0823        25     1.862     1.206  36.10   2
        69    611.6843    840.9473 307.6470522  +6.3386695     1100.576     1935.078     3012.937     93.00603     185.4963     371.2139      2.307     6.37     1270.316     65.39998     145.7078        12     1.245     0.993  36.12   3
        70    613.1244    838.0490 307.6465505  +6.3399146     1626.603     3292.756     4319.659     92.85876     185.6438     371.0294      2.360     7.48     1270.007     65.39998     183.1654        23     1.878     1.064  21.68   3
        71   1003.7469    837.7570 307.4840447  +6.3529368     3006.434     6364.853     6532.784     93.00603     185.5701     371.0294      2.118     5.16      1263.71     65.39998     307.4023        35     1.534     1.469 -74.77   0
        72    801.0370    838.1451 307.5683685  +6.3460876     859.4577     2100.869     2431.517     92.85876     185.5701     371.0663      2.427     9.18     1267.572     65.39998     133.7881        16     1.709     1.376 -70.88   0
        73    927.5946    835.7812 307.5157940  +6.3512419     491.1259     1180.923     1441.376      92.5635      185.127     370.8081      1.748     3.69     1264.444     65.39998     76.78174         5     1.530     0.256  48.83   0
        74    605.7721    834.2982 307.6497354  +6.3412208     886.5912     3141.949     4176.595     93.15308     185.2748     370.9926      2.812     9.95     1269.877     65.39998     160.0433        22     1.740     1.588 -72.35   0
        75    889.3969    831.4906 307.5318300  +6.3517542     1901.911     4351.836     4563.691     92.41552     185.2009     370.7342      2.207     5.87     1264.937     65.39998     224.9338        32     1.650     1.415  42.27   0
        76    349.1940    827.4308 307.7567105  +6.3355554     1186.389     2692.873     3774.047      92.2673     185.2748     370.7711      3.094     8.75     1274.559     65.39998      153.767        19     1.751     1.221  84.51   2
        77    483.9887    817.3188 307.7009727  +6.3442026     1264.113     3668.089     4233.228      92.5635     185.2748      370.845      2.575    10.51     1272.341     65.39998     180.9406        30     1.890     1.672 -18.52   0
