#   1 NUMBER                 Running object number                                     
#   2 X_IMAGE                Object position along x                                    [pixel]
#   3 Y_IMAGE                Object position along y                                    [pixel]
#   4 ALPHA_J2000            Right ascension of barycenter (J2000)                      [deg]
#   5 DELTA_J2000            Declination of barycenter (J2000)                          [deg]
#   6 FLUX_APER              Flux vector within fixed circular aperture(s)              [count]
#   9 FLUXERR_APER           RMS error vector for aperture flux(es)                     [count]
#  12 FLUX_RADIUS            Fraction-of-light radii                                    [pixel]
#  13 FWHM_IMAGE             FWHM assuming a gaussian core                              [pixel]
#  14 BACKGROUND             Background at centroid position                            [count]
#  15 THRESHOLD              Detection threshold above background                       [count]
#  16 FLUX_MAX               Peak flux above background                                 [count]
#  17 ISOAREA_IMAGE          Isophotal area above Analysis threshold                    [pixel**2]
#  18 A_IMAGE                Profile RMS along major axis                               [pixel]
#  19 B_IMAGE                Profile RMS along minor axis                               [pixel]
#  20 THETA_IMAGE            Position angle (CCW/x)                                     [deg]
#  21 FLAGS                  Extraction flags                                          
         1      1.5220     50.5781 307.9374316  +6.6540461     1267.427     1462.383     1537.412     69.58546     125.7327     236.4821      1.100     3.29     831.7847       54.685     259.9806        10     1.125     0.564 -66.57  24
         2    627.4016     19.9843 307.6784048  +6.6875364     4586.352     5692.669     5423.301     77.39812     154.7962     310.0249      1.191     2.25     821.4271       54.685     892.8813        19     1.084     0.735 -65.28   0
         3    427.5036     16.3769 307.7615858  +6.6823786     7804.719     9643.971     9933.419     77.76815     154.9198     310.0866      1.199     2.48     826.5673       54.685     1454.775        25     1.152     0.855 -66.42   0
         4     28.4469     16.1261 307.9274012  +6.6691706     10512.72     13738.32     13987.75       77.645     155.2284     310.2409      1.333     2.64     826.8579       54.685     1751.298        33     1.261     0.943 -57.26   0
         5    503.1425     13.4231 307.7302556  +6.6861151     1108.447     1197.821     1596.036     77.39812     155.1667     310.0558      1.102     2.58     821.5051       54.685     210.3702         9     0.986     0.546 -61.93   0
         6    324.0641     11.3625 307.8047334  +6.6810038     16081.82     20486.72     21460.18       77.645      155.105     310.3026      1.285     2.43     829.9515       54.685     3128.563        35     1.214     0.943 -54.12   0
         7    418.9684     12.1465 307.7652737  +6.6838411     1003.585     1212.828     1535.586       77.645     155.2284     310.1483      1.182     2.78     827.5182       54.685     197.9181         8     0.949     0.568 -81.57   0
         8     97.5819     11.7075 307.8988247  +6.6733051      3120.22     3961.703      4359.06       77.645     154.9198     310.1175      1.273     2.42     828.7673       54.685     514.5381        17     1.156     0.736 -57.09   0
         9    279.8160     11.8820 307.8231013  +6.6793144     457.3788     776.6794     777.8298     77.39812      154.858     310.1175      1.682     4.26     829.8227       54.685     77.97064         6     1.246     0.415 -28.81   0
        10     88.8187     10.6773 307.9025003  +6.6734377     1822.177     2402.295     2593.445     77.27438     154.9198     310.2101      1.285     2.96     828.4124       54.685     361.5304        12     1.152     0.620 -58.38   0
        11    792.7595      9.7512 307.6100355  +6.6972498     1139.474     1400.867     1506.979       77.645     155.1667     310.1792      1.186     2.65     820.2083       54.685     199.9014         9     0.835     0.665 -61.28   0
        12    458.5264      9.7294 307.7489176  +6.6861558      645.527     772.4719     835.9739     78.01386       155.29     310.2409      1.155     3.42     823.5533       54.685     131.5431         5     0.753     0.449 -68.73   0
        13    390.2894      9.2300 307.7772876  +6.6840904     2804.018     3341.687     3135.015     77.89111     154.9198     310.2101      1.145     2.16     828.7543       54.685      536.004        15     1.068     0.674 -48.72   0
        14    651.0552      4.6701 307.6690869  +6.6946452     13479.57     17010.27     17621.28     77.76815      155.105     280.2946      1.257     2.32     821.0539       54.685     2833.501        29     1.206     0.833 -58.17  16
        15    985.4729      5.4429 307.5300996  +6.7054127     909.1414     1174.812     1384.636       77.645     155.2284     288.9356      1.464     5.26     818.4371       54.685     131.6088        11     1.177     0.723 -73.97  16
        16     69.1568      5.9251 307.9108290  +6.6747428     729.9523     1098.077     1866.403       77.645     155.2284     293.6661      1.416     3.33       827.27       54.685     133.3983         6     0.907     0.452 -56.51  16
        17    815.7183      3.7363 307.6006957  +6.7004945     1984.301     2974.844      3425.38     77.89111     151.4212     268.6498      1.575     3.20     820.1155       54.685     338.4294        14     1.156     0.692 -66.54  24
        18    528.8061      4.4382 307.7198920  +6.6906783     1695.514     2180.362     2330.472     76.90197     154.9198      277.274      1.238     2.43     821.5021       54.685     352.0168        11     0.951     0.652 -68.83  16
        19    251.1146      1.9467 307.8353594  +6.6824595     7808.273     9299.696     9521.827     74.50017     132.1885     243.2641      1.230     2.48     829.4666       54.685     1603.535        21     1.200     0.794 -20.84  24
        20    886.1458      1.9725 307.5714893  +6.7035568     1691.081     2036.759     2248.092     74.50017     132.4055        243.5      1.233     2.34     820.6262       54.685     362.5972        10     0.877     0.672 -41.20  24
        21    773.6255      1.7136 307.6182540  +6.6999339      534.528     746.2062     1321.572     72.15105     128.5923     239.3779      1.265     3.75      819.922       54.685      108.351         5     0.921     0.438  43.70  24
        22    642.2241      1.3156 307.6728684  +6.6957369     4366.118     4729.162      5259.59     67.20695     122.6506     233.1403      0.907     2.05     820.9543       54.685     1323.177        11     0.922     0.518  -7.36  24
        23    427.6882      1.9466 307.7619914  +6.6883428     703.4328     846.6829      910.531     74.50016     132.1161     243.2247      1.140     2.55     826.7844       54.685     139.9395         5     0.846     0.462  87.40  24
        24    412.1953      1.3367 307.7684493  +6.6880788     4692.959     5020.747     5167.524     66.92158     122.8844     233.3455      0.896     1.85     828.1436       54.685     1505.815        11     0.872     0.556  -2.84  24
        25    671.8310      1.1234 307.6605723  +6.6967995     1381.492      1651.31     1845.968     64.59315     120.0482     229.9581      0.823     1.92     820.9543       54.685     525.9641         7     0.905     0.327  -2.60  24
        26    813.8439    982.5549 307.5689103  +6.2962734     2222.667         3401     4060.728     77.76815     155.1667     310.2101      1.827     3.69     851.0688       54.685      295.787        22     1.219     1.110 -49.31   0
        27    956.5467   1023.7712 307.5082908  +6.2839798     994.5632     1107.837     877.9803     66.20274     121.9463     231.6993      0.949     2.24     849.5702       54.685     301.0331         7     0.900     0.401  -8.98  24
        28    731.6954   1023.1205 307.6016691  +6.2768005     855.8336      1046.31     567.6581     73.72544     131.3898     242.3576      1.278     3.58     855.2101       54.685     130.6305         7     0.758     0.640 -73.89  24
        29    715.9171   1023.5232 307.6082067  +6.2761110      1648.69     1982.209     1487.592      69.4478     125.6566     235.9149      1.167     3.11     855.3168       54.685     363.0957        11     1.012     0.691  -5.14  24
        30    362.4202   1022.2955 307.7550124  +6.2648734      2088.97     2874.552     2803.957       77.645     141.3541     254.3411      1.491     3.20     855.1664       54.685     323.6497        19     1.180     0.937 -29.12  24
        31    548.2789    980.3554 307.6792462  +6.2883705     1020.226     1443.078     1659.541     77.76815     155.1667     310.2409      1.599     5.60     855.0812       54.685     146.5842        11     1.239     0.746 -50.87   0
        32    231.4947    979.8878 307.8107863  +6.2780230     1636.816     2356.739     1921.885     77.76815     155.5363     310.3026      1.521     3.53     852.9569       54.685     238.4681        16     1.212     0.822 -46.34   0
        33    195.7045    979.8060 307.8256482  +6.2768638      864.054      1275.17     1629.911     77.52166      154.858     310.0558      1.615     4.16     851.6968       54.685     157.7881         9     1.081     0.765 -41.07   0
        34    950.1621    975.5652 307.5125419  +6.3036733     6427.291     10895.89     11483.59     77.52166     155.0433     310.0249      1.854     3.92     849.2175       54.685      721.726        43     1.565     1.323 -68.41   0
        35     56.4868    977.9819 307.8835083  +6.2729727     2884.434     4313.455     4172.028     77.52166     154.9198     310.1175      1.603     3.56     848.6031       54.685     391.7704        21     1.231     1.001 -61.50   0
        36    206.2976    972.3846 307.8214984  +6.2802812     559.9136     714.4994     685.3792     77.76815     154.9198     310.0249      1.209     3.88      851.802       54.685     99.45245         6     0.883     0.488 -41.96   0
        37    923.8146    967.4960 307.5237496  +6.3061332      1924.86     3210.704     3587.882     77.52166     154.9198     310.0249      1.896     4.93     849.5211       54.685      233.142        23     1.444     1.101 -54.69   0
        38    632.2362    970.0391 307.6447310  +6.2954183     698.7956      942.305     845.9225     77.52166     155.0433     310.0558      1.475     4.85     854.3024       54.685     94.03882         8     0.930     0.810 -28.11   0
        39    783.4962    963.7720 307.5821354  +6.3030232     1400.275     2120.616     2441.861     77.89111     154.9198     310.2101      1.619     4.84     851.7025       54.685     195.8593        19     1.402     1.009 -84.43   0
        40    256.8782    963.7424 307.8007873  +6.2855351     4893.567     6884.507     7389.351     77.76815      155.105     310.2101      1.484     3.07     852.5461       54.685     691.7396        24     1.279     0.926 -56.66   0
        41    644.6936    963.3032 307.6397829  +6.2986130     4953.524     6834.885     6829.941     77.76815     155.7208     310.1483      1.493     2.92     853.9418       54.685     712.5106        28     1.317     0.987 -51.41   0
        42    467.0068    961.6501 307.7136138  +6.2933928     1183.305     1503.589     1515.148     77.27438     154.9198     309.9014      1.374     2.88     854.5682       54.685     218.3983        10     0.927     0.712 -61.28   0
        43     25.6927    961.1270 307.8968577  +6.2789036     2268.997     3116.982     3332.394       77.645       155.29     310.2717      1.480     3.06     847.6525       54.685     338.2507        18     1.044     1.013 -61.38   0
        44    876.3665    959.7781 307.5437071  +6.3077491     999.0323     1582.415     1751.521     77.27438     154.9816     310.0249      1.658     4.71     850.1591       54.685     134.4006        13     1.109     0.946 -88.35   0
        45    292.6026    956.9481 307.7861821  +6.2895305     985.0661     1406.877     1237.264     77.15044      154.858     309.8396      1.491     4.62     852.7508       54.685     125.8328        14     1.085     1.041  59.05   0
        46    948.0580    956.5488 307.5140468  +6.3114557     775.6989     1157.162     1065.132     77.76815     155.1667     310.2409      1.583     5.30     849.0161       54.685     124.6606         9     1.014     0.781 -13.62   0
        47    569.3633    955.7966 307.6713105  +6.2992113     1696.158     2352.227     2036.189     76.90197     155.0433     310.0249      1.371     3.33     854.6058       54.685     242.7946        13     1.044     0.862 -77.36   0
        48   1000.2505    955.0860 307.4924240  +6.3137864     727.7582     1519.868     1611.952     77.76815     155.0433     310.3026      2.324     4.56     848.3351       54.685     114.1885         8     1.408     0.420 -70.08   0
        49    608.6040    952.2284 307.6551364  +6.3019878     1365.827     1662.635     1897.819     77.27438     154.9816     310.0866      1.288     2.67     854.0633       54.685     268.3013        13     1.009     0.801 -37.19   0
        50     57.9874    953.1071 307.8837185  +6.2832932     913.5193     1260.766     1925.741     77.52166     154.9198     310.0558      1.527     4.90     847.9056       54.685     132.1099         9     0.888     0.767 -37.45   0
        51     53.6296    951.7023 307.8855748  +6.2837277     608.4863     750.0813     1432.055     77.89111     154.9198     310.2717      1.168     2.73     847.8066       54.685     113.8564         5     0.700     0.471  78.19   0
        52    288.4221    950.2043 307.7881432  +6.2921757     1707.325     2315.407     2202.601     77.39812     154.9198     310.0249      1.439     2.96     852.4819       54.685     263.8981        15     0.995     0.929 -38.02   0
        53    556.0157    948.0621 307.6771102  +6.3019615     666.5577     844.8372     336.0448     77.27438      155.105     310.0558      1.381     5.65     854.6439       54.685     129.8561         7     1.121     0.803  19.69   0
        54    755.5277    945.8520 307.5943443  +6.3094954     858.9174     1415.454     1644.646       77.645     155.1667     310.2717      1.768     3.80     852.2464       54.685     133.9283         9     0.971     0.785 -57.33   0
        55    892.8052    942.4420 307.5374574  +6.3154517     6966.965     10884.62     11220.47     77.15044      154.858     309.9632      1.675     3.50     849.6218       54.685     851.5903        34     1.421     1.152 -47.50   0
        56    130.9473    943.9988 307.8537322  +6.2894887     521.7961     831.9357     676.9244     77.15044     154.7962     309.8087      1.671     3.71     849.0338       54.685     82.67474         5     0.644     0.615  -0.10   0
        57    428.7498    939.8897 307.7302241  +6.3011054     2468.922      3229.02     3519.508     77.76815     154.9816     310.3643      1.410     2.94      853.158       54.685     378.7743        15     1.098     0.792 -58.78   0
        58    330.3630    938.2687 307.7711284  +6.2985006     10786.05     14565.36      15265.1       77.645     155.1667     310.3334      1.440     2.79     852.4376       54.685     1616.078        31     1.295     0.967 -48.62   0
        59    597.7679    939.2593 307.6600677  +6.3069829     591.6183     888.6281     761.2556     77.52166     155.2284     310.2101      1.625     3.90     853.8703       54.685     80.32678         5     0.954     0.457 -45.57   0
        60    250.4167    937.2471 307.8043558  +6.2962596     8049.168     11085.45     11235.92     77.27438      155.105      309.994      1.459     2.87     851.3355       54.685     1217.493        28     1.283     0.962 -48.87   0
        61    168.7785    935.3622 307.8383142  +6.2943164     585.4988     729.2642     395.3789     77.39812     154.9198     310.0249      1.293     3.52     849.5811       54.685     105.2357         5     0.804     0.445 -15.73   0
        62    578.4666    931.3688 307.6683448  +6.3095999     1259.472     1494.903     1376.452     77.52166     155.1667     310.1792      1.249     2.84     854.0312       54.685      226.237        11     0.910     0.812 -33.05   0
        63    762.8030    931.1174 307.5918136  +6.3158206     757.6831     1044.294     1125.392     77.15044     154.7962     309.9323      1.688     4.40     851.7252       54.685     133.5628        10     1.015     0.734 -26.75   0
        64    908.6569    927.5998 307.5313684  +6.3221050     1129.509     1562.199     1509.852     77.02631     154.7344     309.9323      1.698     4.81     849.1221       54.685     158.2952        12     1.196     0.749 -43.98   0
        65    141.2142    927.5298 307.8500207  +6.2966310     622.1516     985.1221     387.3419     77.27438      155.105     310.1483      1.779     4.48      848.921       54.685     94.90454         6     0.938     0.607 -70.48   0
        66    864.7349    926.9163 307.5496287  +6.3209329     591.8914     1208.312     1191.883     77.89111     155.4132     310.3026      2.175     4.25     849.9109       54.685     95.32086         6     1.251     0.411  35.42   0
        67    568.5690    921.3604 307.6727879  +6.3134037      858.791     985.7331     451.9329     77.39812     154.9816     310.0866      1.483     5.13     853.9518       54.685     128.5203         8     0.880     0.845 -85.76   0
        68    744.8917    920.4205 307.5996066  +6.3196435     1942.334     2773.427     2853.785       77.645     154.9816     310.0866      1.525     3.27     852.0144       54.685     274.5895        16     1.035     1.001 -43.53   0
        69    976.3380    916.3226 307.5036396  +6.3290012     1346.501     1828.796      3121.23     78.01386     155.2284     310.2409      1.745     5.78     847.9438       54.685     174.3811        14     1.194     0.918 -10.19   0
        70    620.5657    916.9119 307.6513462  +6.3169672     737.6292     819.9327     792.9315     77.76815      155.105     310.2409      1.247     4.39     853.0862       54.685     108.7792         7     0.899     0.609   9.13   0
        71    609.1248    917.2014 307.6560870  +6.3164678     960.8365     1259.162     838.2239     77.15044     154.6107     310.1175      1.343     4.18      853.228       54.685     140.2184         8     0.956     0.646 -27.15   0
        72    529.9387    916.4695 307.6889909  +6.3141397     1335.515     1549.352     1264.186     77.89111     155.1667     310.2717      1.281     2.85     854.1069       54.685     201.7761        11     0.951     0.726 -74.09   0
        73    663.4371    913.9824 307.6336426  +6.3195999     2804.259     3876.012     4379.947     77.39812     155.0433      309.994      1.456     3.10     852.5686       54.685     425.2708        20     1.245     0.925 -60.37   0
        74     60.1679    910.3232 307.8842464  +6.3010309     3200.826     4645.485     4563.946       77.645     155.1667     310.1792      1.547     3.52      846.748       54.685      424.762        23     1.383     0.892 -59.88   0
        75    824.3853    910.3375 307.5669340  +6.3264417     905.9089     1163.079     1568.031     77.27438     155.0433     310.0558      1.371     3.83     850.3647       54.685     131.8424         8     0.841     0.755  86.92   0
        76    560.9424    910.5700 307.6763143  +6.3176057     601.0715     814.0754     403.0173     77.52166     155.2284     310.1483      1.393     4.72     853.8026       54.685     94.59106         5     0.980     0.644 -87.39   0
        77    203.6246    909.3936 307.8247151  +6.3062005     2517.815     3309.862     2659.235     77.27438     154.9816     310.0558      1.395     2.90     849.7963       54.685     392.8749        16     1.159     0.797 -51.08   0
