#   1 NUMBER                 Running object number                                     
#   2 X_IMAGE                Object position along x                                    [pixel]
#   3 Y_IMAGE                Object position along y                                    [pixel]
#   4 ALPHA_J2000            Right ascension of barycenter (J2000)                      [deg]
#   5 DELTA_J2000            Declination of barycenter (J2000)                          [deg]
#   6 FLUX_APER              Flux vector within fixed circular aperture(s)              [count]
#   9 FLUXERR_APER           RMS error vector for aperture flux(es)                     [count]
#  12 FLUX_RADIUS            Fraction-of-light radii                                    [pixel]
#  13 FWHM_IMAGE             FWHM assuming a gaussian core                              [pixel]
#  14 BACKGROUND             Background at centroid position                            [count]
#  15 THRESHOLD              Detection threshold above background                       [count]
#  16 FLUX_MAX               Peak flux above background                                 [count]
#  17 ISOAREA_IMAGE          Isophotal area above Analysis threshold                    [pixel**2]
#  18 A_IMAGE                Profile RMS along major axis                               [pixel]
#  19 B_IMAGE                Profile RMS along minor axis                               [pixel]
#  20 THETA_IMAGE            Position angle (CCW/x)                                     [deg]
#  21 FLAGS                  Extraction flags                                          
         1    191.4180     20.3038 307.8648314  +6.6679528     9254.552     16203.21     16869.91     78.09965     155.8891     311.8713      1.873     5.81     826.9729     55.00521     1417.164        40     1.926     0.913  33.48   0
         2    937.0337     17.9243 307.5551989  +6.6939554     3434.939     6441.229     6510.146     78.09965     156.0753     312.0265      1.920     6.20     822.0121     55.00521       486.15        30     1.889     0.892  36.28   0
         3    535.5436     18.3453 307.7219591  +6.6803329     2610.783     4583.313     4688.553     78.34719     156.1373     312.0885      1.838     5.73     823.5009     55.00521     417.2614        22     1.720     0.742  36.14   0
         4    738.0333     16.6131 307.6379063  +6.6878377     1685.107     3064.338     2811.127     77.72685      155.827     311.9644      1.736     5.49     822.0674     55.00521      346.899        19     1.819     0.681  35.26   0
         5    473.6060     16.6749 307.7477427  +6.6789426     1651.414     2649.541     2620.545     77.85132     155.5782     311.9023      1.819     4.34     823.9047     55.00521     327.1727        20     1.582     0.789  34.77   0
         6   1001.7426     14.3525 307.5284383  +6.6975920     1570.324     2797.217      2277.36     78.22352     156.0753     312.1816      1.805     5.00     819.3389     55.00521       258.75        17     1.607     0.747  28.84   0
         7    796.4893     13.4899 307.6137289  +6.6910843      461.212     963.7177     1567.923     78.22352     156.5708     312.1505      2.920     4.23     821.9398     55.00521     77.58588         6     1.243     0.410  45.00   0
         8    721.1634     10.7172 307.6451116  +6.6897061     6323.102     11227.96     11679.34     78.22352     156.0132     312.0265      1.846     6.09     821.7898     55.00521     1085.883        34     1.938     0.832  32.43  16
         9    641.3793     10.0164 307.6782765  +6.6873213      3304.28     5476.937     5853.962     77.97558     155.8891     311.9644      1.792     5.72     821.9988     55.00521       515.92        23     1.799     0.700  32.58  16
        10    343.5183      9.8822 307.8020059  +6.6773738     843.1891     1514.633     1673.199     78.09965     156.3232     312.1505      1.885     5.82     830.4951     55.00521     157.4572        12     1.923     0.496  24.44  16
        11    441.5499      6.2386 307.7614089  +6.6821733     5515.496     9552.271     10204.25     77.97559     156.0753      298.321      1.908     5.91     825.1404     55.00521     833.9513        33     1.898     0.850  31.67  24
        12     42.5717      5.8660 307.9271419  +6.6688937     7191.563     12685.56     13316.45     77.97559     156.0132     294.6965      1.878     5.54     827.9866     55.00521     1025.208        36     1.945     0.867  30.68  16
        13    688.0950      4.9036 307.6590429  +6.6909976     868.6688     1382.679     1841.156     78.22352     156.6326     284.4317      1.705     3.73     821.5625     55.00521     167.1196         6     0.942     0.425  48.98  16
        14    517.2153      3.0624 307.7300858  +6.6860256     727.2137     1442.461     1624.216     77.72685     146.2104     260.9265      2.039     4.96     823.3201     55.00521     134.4519         9     1.585     0.439  36.53  16
        15    396.5698      7.5563 307.7800482  +6.6801177     726.3953     1281.773     1553.007     77.85132     156.0753     308.1549      1.989     5.36     827.5754     55.00521     121.3411         8     1.425     0.568  55.33  16
        16    338.7175      1.8520 307.8042703  +6.6805268     9379.854     13819.39     14682.93     73.89556     131.6453     243.2997      1.551     5.99      830.653     55.00521     1660.857        27     1.626     0.763  15.62  24
        17    112.0772      1.8754 307.8984074  +6.6728850     1914.206     3033.322     3415.293      74.4178     132.0858     243.6178      1.698     6.46     826.0336     55.00521     420.3372        19     1.675     0.699  21.17  24
        18    808.1278      1.3224 307.6093021  +6.6964960     406.0858     530.9429     527.9099     68.17096      124.151      234.588      1.129     3.48     821.4141     55.00521     95.05933         5     0.818     0.428  15.66  24
        19    103.7105      1.3627 307.9018999  +6.6728145     680.8117     847.1846     1108.479     68.45442     124.6181     235.1651      1.216     4.11     825.8824     55.00521     134.6537         7     1.046     0.462   8.17  24
        20    611.1389    991.9260 307.6578978  +6.2810164     1032.671     2004.844     2528.978     78.47067     156.0753     312.0575      2.136     6.91     855.1049     55.00521     135.6685        17     1.737     0.770  31.57   0
        21    761.8307   1022.2477 307.5943364  +6.2735474     1128.677     2010.766     2219.823     77.85132     142.7255     256.5862      1.972     5.73     854.3339     55.00521     162.9617        17     1.464     0.955  36.46  24
        22    584.4709   1023.7339 307.6679000  +6.2669934     966.3427     1123.511     1489.915     67.16945     123.1331     233.8026      1.066     2.59     855.4788     55.00521     249.3644         7     0.945     0.419   9.61  24
        23    542.2309    990.4268 307.6865488  +6.2793250     3255.406     6436.188     7424.012     77.72686      155.827     311.9023      2.193     7.16     855.0886     55.00521     435.0337        39     2.229     1.057  26.58   0
        24    651.1910    989.8035 307.6413449  +6.2832346     1169.578     2216.105     2732.784      77.6022     155.7648     311.9023      2.139     5.10      855.071     55.00521     153.4331        20     1.480     1.065  34.82   0
        25    495.1366    987.0022 307.7062104  +6.2791587     1741.672     3479.747      3398.23      77.6022      155.827     311.8402      2.011     6.92     854.8242     55.00521     214.0418        26     1.873     0.906  30.81   0
        26     75.5708    988.2292 307.8803058  +6.2645459     746.7851      1128.09     1521.552     77.72686      155.827     311.8092      1.813     5.71     849.8541     55.00521     99.91675        10     1.253     0.734  -0.02   0
        27    929.5654    978.8577 307.5261663  +6.2970660      32092.2      64576.9     72687.86     78.09965     156.0753     312.0885      2.170     5.85     852.2598     55.00521     3824.189        80     2.186     1.289  33.75   0
        28    334.5572    979.8811 307.7730980  +6.2767058     569.8311     1060.731     1054.705     78.22352     156.0753     312.0265      2.056     6.29     854.7925     55.00521     97.22516         6     1.305     0.887  66.78   0
        29      2.8897    978.9322 307.9107836  +6.2659337     2235.325     4070.178     3960.978     78.34719     144.4115     258.6532      1.858     7.48     849.4735     55.00521     334.3904        24     1.758     0.891  39.04  24
        30    236.7605    977.0659 307.8137826  +6.2745797     1379.963     2565.935     2581.718     78.22352     156.0132     312.1816      1.994     6.29     853.4228     55.00521     237.7547        20     1.977     0.751  37.12   0
        31    636.1426    975.6426 307.6480654  +6.2885755     702.4536     1456.071     1097.057     78.09965     156.0132     312.0885      1.972     6.53     854.8449     55.00521     120.7437        11     1.564     0.765  46.88   0
        32    124.8515    976.3735 307.8602523  +6.2710991     671.5097     1022.013     1358.584     77.85132     156.1993     311.9644      1.712     5.51     850.5811     55.00521     116.1567         7     1.195     1.014  22.05   0
        33    827.7214    972.9222 307.5686378  +6.2961116     1677.357     3354.997     3791.178     78.47067     156.3232     312.1816      2.150     6.94     853.0335     55.00521      212.366        26     1.864     0.912  36.48   0
        34    775.6909    970.5309 307.5903144  +6.2953581     5171.644      10222.5     11975.31     78.22352     156.1993     312.0265      2.127     5.78     853.5198     55.00521     635.5161        46     2.069     1.203  34.05   0
        35    209.5947    969.5954 307.8253089  +6.2767492     752.1791     1366.795     1096.855      77.6022     155.7648     311.9333      1.931     6.47     852.5602     55.00521     99.74719        12     1.343     0.874  57.17   0
        36    561.9047    969.4495 307.6790866  +6.2886433     744.7892     1380.722     1436.091     78.09965     155.9512     312.2126      1.964     6.46     854.9291     55.00521     113.6044        13     1.600     0.732  27.07   0
        37    245.2038    969.5787 307.8105302  +6.2779540     1097.582     2030.121     2302.433     77.85132     155.7648     311.8402      1.937     6.19     853.4099     55.00521     175.1599        17     1.602     0.745  27.75   0
        38     69.9191    967.7457 307.8833417  +6.2728099     2095.334     4076.578       3929.3     78.22352     156.0753     312.1195      2.057     6.99     849.4808     55.00521     266.8365        26     2.009     0.846  32.27   0
        39    963.9131    965.5358 307.5123544  +6.3037123     4953.089     9940.304     11450.46     78.22352     156.2613     312.0575      2.191     5.93     850.9982     55.00521     535.7498        45     2.091     1.159  32.96   0
        40    645.8911    960.1637 307.6445379  +6.2952912     734.2094     1079.686     904.1624     78.34719     156.0132     312.0885      1.575     3.24     854.5782     55.00521     116.3009         8     0.904     0.733  71.56   0
        41    937.8989    957.5061 307.5234207  +6.3061577     1455.384     2930.287     3088.387     78.22352     156.5708     311.9023      2.102     7.54     851.3647     55.00521      170.939        23     1.834     0.921  31.93   0
        42    658.4623    953.2597 307.6395512  +6.2985620     3728.167      6841.89     7373.488     78.22352     156.0132     312.0885      1.922     6.42     854.4525     55.00521     454.1953        31     1.917     0.909  33.25   0
        43    270.5040    953.4562 307.8005717  +6.2854595     3542.099     6690.659      7106.28     78.09965     156.0132     312.2436      1.995     6.08     853.6062     55.00521     466.0869        34     1.942     0.940  32.75   0
        44    797.1196    953.6140 307.5819859  +6.3030577     1158.119     2059.538     2538.391     77.85132      155.827     311.8713      1.831     6.47     852.8993     55.00521     140.9751        15     1.768     0.666  24.68   0
        45     39.3144    950.8824 307.8966121  +6.2787388     1782.868     3315.032     3446.289     77.97559     156.3232     312.1505      1.896     5.76     848.8791     55.00521     228.0325        26     1.815     0.898  33.14   0
        46   1007.7703    951.7206 307.4946113  +6.3108793     573.4861     933.1621     970.1315     78.09965     156.0753     312.0265      1.803     4.82     850.0781     55.00521     82.11066         7     1.192     0.552  21.69   0
        47    480.4939    951.6388 307.7134748  +6.2932639     817.9621     1465.402     1393.367     78.34719     156.0132     312.1505      1.982     5.84     854.6844     55.00521     121.1295        12     1.677     0.573  27.44   0
        48    890.1558    949.7496 307.5434974  +6.3077639     706.2296     1312.822     1189.249     78.34719     155.9512     312.0885      1.947     6.05     851.9143     55.00521      94.2785        10     1.738     0.593  32.82   0
        49    582.9974    945.5292 307.6711338  +6.2992238     1397.727     2662.216     2945.615     77.72685     155.7026     311.9023      2.021     6.79     854.5851     55.00521     184.2013        20     1.754     0.789  33.40   0
        50   1014.2328    945.1450 307.4921483  +6.3138093     518.9645     1164.386     809.9964     78.09965     156.0132     312.0265      2.363     5.81     850.0661     55.00521     77.28394         7     1.437     0.661  51.12   0
        51    960.4869    946.1970 307.5144226  +6.3115803     530.3889     771.5154     1041.425      77.6022     155.7026     311.8092      1.825     3.69     850.7223     55.00521     85.05981         5     1.022     0.383   6.51   0
        52    622.0717    941.9433 307.6550353  +6.3020137     1060.571     1980.803     1994.626     78.34719     156.0132     312.0265      1.949     6.34     854.3093     55.00521     134.2597        15     1.820     0.621  37.03   0
        53     70.1802    941.9542 307.8841026  +6.2834640     721.4357     1162.674     1466.547     77.85132     156.0132     311.9333      1.903     5.09     849.0041     55.00521     84.03375         8     1.071     0.683  -9.56   0
        54    301.8728    939.6416 307.7880166  +6.2922162     1209.056     2267.593     2487.297     78.09965     156.1373     312.0885      1.997     8.57     853.8011     55.00521     167.0079        23     2.142     0.958  34.73   0
        55    306.3577    946.9002 307.7859111  +6.2893709     803.2362     1489.119     1488.016     78.22352     155.9512     312.2746      2.038     6.19     853.9798     55.00521     125.8256        12     1.397     0.772  32.91   0
        56    769.5955    935.9916 307.5940004  +6.3094107     780.2044     1304.755     856.0654      77.6022     155.7648     311.9023      1.820     5.07     853.0743     55.00521     135.2183         9     1.351     0.539  19.40   0
        57    906.5925    932.4924 307.5372516  +6.3154365     5366.034     10195.24     11024.09     77.85132     155.7648     311.8713      2.024     5.57     851.1002     55.00521     667.8379        46     2.031     1.152  29.08   0
        58    144.2682    933.8563 307.8536256  +6.2893017     429.8603     756.3138      657.123     78.34719     156.0132     311.9954      1.656     6.41     849.7348     55.00521     74.19946         7     1.441     0.801  54.41   0
        59    442.4612    929.8619 307.7299921  +6.3009758     1670.611     3126.679      3113.17     78.22352     156.0753     312.0885      1.942     7.09     854.4357     55.00521     222.4832        22     1.979     0.719  33.15   0
        60    344.0774    928.1642 307.7708850  +6.2983721     7539.525     14317.35      15323.6     78.09965     156.1373     312.0885      1.991     6.23     853.6417     55.00521     1047.301        43     1.960     1.016  35.22   0
        61    264.1490    927.0717 307.8040970  +6.2961360      5663.33     10557.79     10857.39     78.22352     156.0753     312.0885      1.994     5.73     852.7266     55.00521     779.0826        36     1.935     0.955  32.58   0
        62    592.2151    921.5634 307.6681114  +6.3094250     937.6456     1760.981     1881.509     77.85132     155.8891     311.8402      1.987     6.38     854.2051     55.00521     144.4118        14     1.904     0.601  43.87   0
        63    988.9774    912.9590 307.5037065  +6.3262514     779.7174     1434.391     1773.764     77.85132     155.8891     311.8402      2.030     5.38     849.5117     55.00521     103.7039        12     1.264     0.979  39.12   0
        64    758.8798    910.8255 307.5992908  +6.3194398     1307.995     2321.283      2876.93     77.97559     155.8891     312.0575      1.899     6.33      852.927     55.00521     183.9596        17     1.910     0.589  30.82   0
        65    921.8102    917.5687 307.5314336  +6.3221050     869.3855     1385.516     1920.892     77.72686      155.827     311.9023      1.973     6.06     850.5606     55.00521     111.0358        12     1.605     0.643  41.04   0
        66    989.4606    905.6125 307.5037513  +6.3292999     865.4778     1724.516     2632.247      77.6022     155.8891     311.7471      2.327     7.54     849.1556     55.00521     133.2524        17     1.689     0.942  37.52   0
        67    621.7654    906.6483 307.6563456  +6.3165718     673.9617     1210.769     1256.094     77.97559     156.0753     311.9954      1.684     4.76     853.8572     55.00521     101.2206         8     1.332     0.483  40.69   0
        68    543.7608    906.2792 307.6887365  +6.3141090     916.1782     1483.934     1602.966     78.09965     156.1373     312.0575      1.649     5.87     854.2162     55.00521     139.5302        12     1.462     0.664  34.89   0
        69    677.1365    903.9491 307.6334521  +6.3195412     1982.057     3881.962     4458.462     78.22352     156.0132     312.0885      2.018     6.60     853.5336     55.00521      266.175        25     1.833     0.843  32.19   0
        70     73.6312    900.2087 307.8840772  +6.3008104      2289.53     4584.197     4951.586     77.72686     155.8891     311.8713      2.047     5.77     847.7581     55.00521     288.6638        31     1.854     1.009  32.33   0
        71    838.0190    901.1553 307.5667640  +6.3260789     519.8353     1038.696     602.3376     77.85132     155.9512     311.8402      2.070     4.35     851.7681     55.00521     91.02197         6     1.312     0.411  23.71   0
        72    217.1553    899.0463 307.8245453  +6.3061227     1862.281     3521.343     3733.248     78.22352     156.0132     312.0265      1.931     6.40     851.1944     55.00521     237.0001        26     1.904     0.881  36.26   0
        73     90.9190    899.3642 307.8769302  +6.3017415     1574.697     3056.415     3293.315     78.09965     156.1373     312.0575      2.147     5.88     848.0955     55.00521     235.4696        22     1.852     0.795  30.25   0
        74      9.5984    908.2322 307.9103835  +6.2953406     600.4186     1193.689     1073.724      77.6022     155.8891     311.8092      1.962     6.99     846.7924     55.00521     91.62634        11     1.594     0.858  28.56  16
        75    955.0806    899.1724 307.5182377  +6.3308100     672.8184     1215.884     1417.312     78.09965     155.8891     312.0575      1.892     4.34      849.626     55.00521     82.68457         5     1.045     0.513 -38.89   0
        76    356.4728    895.4927 307.7668382  +6.3122738     654.3901     1132.006     1141.326     78.09965     156.1993     312.0885      1.843     5.02     852.9346     55.00521     102.4528        10     1.754     0.406  33.83   0
        77    250.6290    895.3491 307.8107758  +6.3087748      735.587      1079.37     1235.793     77.85132     156.1993     311.9644      1.750     5.50     851.9853     55.00521     124.5768        10     1.339     0.637  32.49   0
