#   1 NUMBER                 Running object number                                     
#   2 X_IMAGE                Object position along x                                    [pixel]
#   3 Y_IMAGE                Object position along y                                    [pixel]
#   4 ALPHA_J2000            Right ascension of barycenter (J2000)                      [deg]
#   5 DELTA_J2000            Declination of barycenter (J2000)                          [deg]
#   6 FLUX_APER              Flux vector within fixed circular aperture(s)              [count]
#   9 FLUXERR_APER           RMS error vector for aperture flux(es)                     [count]
#  12 FLUX_RADIUS            Fraction-of-light radii                                    [pixel]
#  13 FWHM_IMAGE             FWHM assuming a gaussian core                              [pixel]
#  14 BACKGROUND             Background at centroid position                            [count]
#  15 THRESHOLD              Detection threshold above background                       [count]
#  16 FLUX_MAX               Peak flux above background                                 [count]
#  17 ISOAREA_IMAGE          Isophotal area above Analysis threshold                    [pixel**2]
#  18 A_IMAGE                Profile RMS along major axis                               [pixel]
#  19 B_IMAGE                Profile RMS along minor axis                               [pixel]
#  20 THETA_IMAGE            Position angle (CCW/x)                                     [deg]
#  21 FLAGS                  Extraction flags                                          
         1    710.6445     21.7625 307.6456084  +6.6896540     4330.617     9594.047     10729.09     90.21231     180.5682     360.9211      2.273     5.41     1122.508     63.63719      434.046        46     1.870     1.473  37.38   0
         2    630.7590     21.1548 307.6788475  +6.6872348     2233.142     4879.299     5225.798     90.35585     180.5682     360.8492      2.174     5.45     1124.303     63.63719     253.0956        35     1.769     1.306  50.42   0
         3     32.1738     17.1317 307.9278795  +6.6688182      4713.35     11674.85     13487.07     90.06855     180.4246     360.9211      2.469     5.70     1154.142     63.63719     498.4358        52     1.850     1.680  42.15   0
         4    431.1188     17.4746 307.7619867  +6.6820718     3401.111     8429.494     9310.904      90.7851     180.8551     361.1005      2.464     6.30     1134.191     63.63719     330.3959        47     1.907     1.594  38.42   0
         5    327.8045     12.3332 307.8051209  +6.6807309     6579.901     17132.74     20625.84     89.92455      180.209     360.8133      2.581     5.96     1144.617     63.63719     659.0909        68     2.057     1.802  40.87  16
         6    101.4180     12.5516 307.8992450  +6.6730381     1462.114     3531.854     4354.236     89.92455       180.64     360.8133      2.546     7.82     1153.532     63.63719     181.1069        28     1.828     1.312  33.46   0
         7    393.4748     10.5522 307.7778751  +6.6836682     1156.573     2877.046     2302.469     90.35585       180.64     361.0287      2.250     6.91     1137.843     63.63719     151.4834        13     1.575     0.849 -74.14   2
         8     92.6464     11.0723 307.9029426  +6.6733539     802.8731     1861.718     2042.529     90.49915       180.64     361.0287      2.279     7.17     1153.473     63.63719     107.3016        13     1.287     1.118 -10.14   0
         9    654.6856      5.7682 307.6694205  +6.6943874     6181.412     14800.79     16315.55     90.49916     180.3528     339.6486      2.365     5.88     1123.624     63.63719     628.1421        59     1.928     1.641  40.32  19
        10    646.3748      2.0509 307.6730026  +6.6956444     4655.764      8230.08     8732.452     87.44037     155.4207     284.7307      1.903     5.49     1123.557     63.63719     526.8591        32     1.895     1.057   7.44  27
        11    818.8511      5.4921 307.6011642  +6.6999847     1054.284     2179.214     2270.118     90.35585     180.4246     336.8903      2.010     7.15     1117.373     63.63719      119.071        15     1.571     0.911  55.55  16
        12    532.0834      5.4801 307.7204116  +6.6904052      763.629     1879.685     2098.562     90.35585     180.8551     336.6594      2.361     7.27     1126.139     63.63719     109.7296        10     1.343     1.103 -72.11  16
        13    254.9976      3.0908 307.8357094  +6.6821036     3328.004     8077.643     9133.852     89.78033     169.3084      302.217      2.355     5.95      1150.55     63.63719     357.9612        42     1.866     1.472  -2.63  24
        14    889.5558      3.1342 307.5718422  +6.7033169     965.6844     1863.789     1789.201     90.49915     169.9196     303.2017      1.996     5.76     1116.303     63.63719     133.2235        12     1.302     0.818  56.78  24
        15    416.3156      2.4058 307.7686548  +6.6877971     4010.739     7396.739     7787.619     89.92455     160.5071     291.1219      1.970     6.08     1136.385     63.63719     398.2333        34     1.845     1.145   7.39  24
        16    677.0023      1.7577 307.6602767  +6.6967892     3378.462     6382.151     7262.522      83.4982     150.3347     279.2157      2.092     8.36     1123.161     63.63719     492.3162        30     2.226     0.878  -1.62  24
        17    731.9379      1.1768 307.6374523  +6.6988646     605.8267     997.1447     1130.816     76.02448     140.6252     268.5218      1.806     4.09     1120.547     63.63719     128.5963         6     1.252     0.381   0.44  24
        18    226.6552    988.1946 307.8139394  +6.2744332     1277.826     2513.294     3019.987     89.92455     180.3528     360.6696      2.343     5.49     1186.397     63.63719      183.064        15     1.465     0.864  38.38   0
        19    734.2195   1023.6953 307.6018476  +6.2767593     527.8759     538.4073     118.9951     78.04317      142.729     270.9241      1.191     3.91     1181.899     63.63719      109.509         6     1.086     0.404  12.61  24
        20    718.5940   1023.8960 307.6083331  +6.2761549     915.5076     1158.181     932.4679     74.64835     138.9566     267.1186      1.287     3.53     1181.973     63.63719     225.2643         6     1.194     0.301   2.65  24
        21    333.8926    467.4742 307.7870961  +6.4930215     5839.624     16129.54     33840.48     90.49915     180.7117     360.9929     97.592    83.59     1160.698     63.63719     941.3497      2412   102.515     1.891  67.15  19
        22    243.7610    251.3557 307.8319216  +6.5792270     4642.263     15277.32     34942.95     90.21231     180.5682     360.9211     43.934    53.80     1152.265     63.63719      735.458      1044    45.388     1.769  67.18  19
        23    188.6590    120.6792 307.8592836  +6.6313285     4101.592     13392.95     30962.68     90.64224     180.5682      360.957     65.866    61.45     1153.627     63.63719     649.1409      1257    65.042     1.611  67.12  19
        24    437.2175    713.6448 307.7357813  +6.3948452     6240.285      15441.3     35795.02     90.06855     180.4246     360.7415     24.685    37.03     1174.979     63.63719     905.1394       548    25.519     1.492  67.31   3
        25    408.4406    644.2959 307.7500977  +6.4225142     5418.558     15331.06     33123.62     90.49916     180.4246     361.2082     20.776    32.92     1171.976     63.63719     848.3651       407    22.475     1.338  67.77   3
        26    534.2142    945.6225 307.6875972  +6.3023119     7112.981      17131.4      35501.7     90.21231     180.3528     360.9211     43.925    47.97     1183.648     63.63719     1134.091      1006    48.708     1.311  67.15  19
        27    490.6503    841.4766 307.7092344  +6.3438546     5682.233     15242.39     33691.42     90.35585       180.64     361.0287     16.237    28.65     1180.316     63.63719     928.7832       320    17.400     1.310  67.54   3
        28    468.6349    789.3870 307.7201520  +6.3646245      6070.81     16475.88     36456.32     89.92455     180.3528     360.8492     18.157    32.10      1178.11     63.63719     1004.597       417    19.618     1.458  66.26   3
        29    365.5996   1022.5718 307.7550420  +6.2648974     1335.123     1834.301     1692.369     89.92455     160.7491     291.1664      1.506     3.82     1186.984     63.63719     189.7683        15     1.195     0.866  26.68  24
        30    114.5411    987.4786 307.8605443  +6.2709660     479.7481     736.6003     274.0975     90.64224     180.5682      360.957      1.026     3.99     1186.695     63.63719      101.479         5     1.050     0.434 -15.00   0
        31    816.9897    983.4245 307.5688195  +6.2961482     1868.974      3323.08      3025.47     90.06855     180.3528     360.8852      1.877     5.63     1177.556     63.63719     255.3943        19     1.565     0.902  38.10   0
        32    765.1787    981.2672 307.5904206  +6.2953105     5496.003     10066.95     10979.76     90.06855     180.5682     360.9929      1.942     4.53     1178.997     63.63719     644.1613        36     1.647     1.200  40.01   0
        33    234.7621    980.5160 307.8108325  +6.2778755     1201.298     2176.983     2272.052     90.49916     180.4964      360.957      1.890     5.07     1186.381     63.63719     151.6503        15     1.273     0.888  44.88   0
        34    199.6618    980.5117 307.8254161  +6.2766997     765.6959     1324.668     1036.912     90.49916     180.7834     361.1005      1.934     4.18      1186.31     63.63719     128.3577         9     1.123     0.918   5.26   0
        35     59.7801    978.2767 307.8836094  +6.2729258     2351.313     3986.147      4155.76     90.06855      180.209     360.9929      1.782     4.57      1186.87     63.63719     265.3903        20     1.381     0.969  47.37   0
        36    953.3599    976.2559 307.5123979  +6.3036531     6139.241     9890.951     10497.08     90.49916       180.64     361.0646      1.764     4.55     1174.932     63.63719     686.2478        30     1.536     1.022  36.15   0
        37    635.9680    970.1777 307.6444846  +6.2955749     635.8341     1136.233     786.7786     89.92455     180.3528     360.8133      1.572     4.26     1181.254     63.63719     127.5059         6     1.237     0.419  35.55   0
        38    926.8472    967.9410 307.5236955  +6.3062031     1986.924     3094.912      2992.07     90.49915     180.5682     361.1723      1.668     4.93     1175.267     63.63719     258.2325        17     1.392     0.817  30.50   0
        39    260.1246    964.3499 307.8008449  +6.2854007     3463.751     6151.302     6563.805     90.49915       180.64     361.0287      1.921     4.47     1186.344     63.63719      436.233        29     1.568     1.114  48.59   0
        40    647.8336    963.9818 307.6397643  +6.2985296      3646.72     6829.985     7670.603     89.92455     180.3528     360.8133      1.975     4.74      1180.66     63.63719     439.2469        32     1.699     1.104  39.85   0
        41    785.9789    964.1801 307.5823563  +6.3030596     1019.635     1703.844     1469.197     90.21231     180.4964     360.9211      1.755     5.92      1177.63     63.63719     139.1819        12     1.435     0.688  35.88   0
        42    996.9908    963.7286 307.4946915  +6.3102784     747.7512     1213.119     1270.244     89.92455     180.0651     360.8492      1.799     5.29     1172.938     63.63719     105.3755         7     1.163     0.680  33.92   0
        43    469.9681    962.7033 307.7137120  +6.2931102     880.6222     1459.642      1439.99     90.64223     180.4246     361.1364      1.707     5.35     1184.761     63.63719     124.6183         7     1.050     0.785  21.52   0
        44     28.9015    961.6194 307.8970065  +6.2787653     1901.711     3013.059     3505.458     90.49915     180.4246     360.7415      1.676     5.23      1187.01     63.63719     243.5295        18     1.542     0.916  21.05   0
        45    879.4800    960.4182 307.5436320  +6.3077308     868.2257     1552.194     1146.963     90.06855      180.209     360.9211      1.930     5.54     1175.571     63.63719      113.947         9     1.302     0.665  26.32   0
        46    295.7090    957.5621 307.7862909  +6.2893962     707.0344     1373.613     1488.362     90.64224     180.4964     361.0646      2.021     7.66     1186.291     63.63719     120.3855        11     1.836     0.894  24.77   0
        47    951.1936    956.9968 307.5139489  +6.3115328     624.2025     865.3929     339.4189     89.78033      180.209     360.8852      1.507     5.59     1173.885     63.63719     95.55518         6     1.449     0.608  25.02   0
        48    572.9061    956.3884 307.6711550  +6.2991607      1283.24     2089.436     2033.361     90.21231      180.209     360.8133      1.822     6.43     1183.089     63.63719     140.5643        14     1.449     0.836  35.22   0
        49   1003.4012    956.4538 307.4922735  +6.3134955     745.2073      1314.98     1224.088     89.78033      180.209     360.5618      1.884     4.33     1172.523     63.63719     109.4426         8     0.950     0.668  -1.00   0
        50    611.5408    952.4625 307.6552350  +6.3020730     967.8227     1483.166     879.3651     90.49916     180.4964     361.0646      1.739     5.77     1181.511     63.63719     122.6359        10     1.293     0.774  21.89   0
        51    291.8320    950.6652 307.7881363  +6.2921138     1031.908     2368.222     3028.842     90.35585       180.64     360.9929      2.418     7.82     1186.295     63.63719     139.3319        17     1.459     1.173 -56.47   0
        52    760.2440    947.2090 307.5936242  +6.3092081     592.9131     1138.954      726.851     89.92455     180.4246     360.7415      1.666     3.74     1177.933     63.63719      86.2074         5     1.201     0.335 -11.51   0
        53    935.8328    946.5000 307.5206865  +6.3153552     1236.747     1126.548      342.974     90.49916     180.4246     361.2082      0.691   -20.51     1173.596     63.63719     771.6981         5     0.755     0.368  60.21   0
        54    896.0583    943.2079 307.5373253  +6.3153892     6052.567     10542.54     10876.54     89.78033     180.4246     360.7774      1.830     4.58     1174.115     63.63719     693.9246        38     1.660     1.160  40.50   0
        55    432.0789    940.4753 307.7302100  +6.3010195     1470.364     2588.855     2785.803      90.7851     180.8551     361.1364      1.937     6.07     1184.568     63.63719     207.6569        21     1.578     0.954  43.38   0
        56    333.7346    938.9412 307.7711246  +6.2983589     7216.311     14087.47     15926.29     90.64223     180.4964     361.0646      2.132     4.56     1185.889     63.63719     885.3319        47     1.819     1.302  37.13   0
        57    253.6261    937.8403 307.8044470  +6.2961278     5492.782     10529.56      11448.4     90.06855     180.3528     360.8133      2.044     4.80     1186.287     63.63719     634.9261        43     1.827     1.276  44.06   0
        58    583.2194    932.1990 307.6676902  +6.3094929     567.9888     1021.676     554.4415     90.06855     180.0651     360.7056      1.820     3.96     1181.813     63.63719     101.2937         5     0.841     0.534  58.65   2
        59    911.5526    928.3938 307.5313878  +6.3220222     1020.462     1608.217     1765.029     89.92455     180.3528     360.6337      1.712     5.12     1172.769     63.63719     129.8619        10     1.131     1.007  14.28   0
        60    867.8133    927.1665 307.5496045  +6.3210712     812.6034      1509.98     1669.642     89.92455     180.2809     360.9211      2.208     5.02     1173.673     63.63719     109.3522         8     1.032     0.691  62.30   0
        61    748.1927    921.5826 307.5994996  +6.3193867     1317.694     2645.932     2967.849     90.06855     180.2809     360.8492      2.044     7.35     1177.191     63.63719     175.5381        19     1.696     0.976  38.59   0
        62    979.3296    917.1838 307.5036028  +6.3289084      1149.17     1778.108     2233.808     89.92455     180.4964     360.9211      1.675     6.44     1170.674     63.63719     143.0319        13     1.357     0.862  26.45   0
        63    533.8324    917.0264 307.6887262  +6.3141060     801.6081     1502.875      2604.65     89.92455     180.2809     360.8133      2.294     4.74     1182.256     63.63719     98.40125         7     0.889     0.717  31.91   0
        64    666.7457    914.6551 307.6335779  +6.3195276     1877.264     3734.882     4228.476      90.7851     180.5682     361.0287      2.150     5.21     1177.711     63.63719     237.3344        24     1.613     1.085  27.13   0
        65     63.4225    911.1198 307.8843856  +6.3007750     2250.845     4428.246     4644.212     90.06855      180.209     360.9929      2.094     4.71      1185.38     63.63719     310.1282        29     1.643     1.149  44.66   0
        66     81.2038    910.4015 307.8770221  +6.3016690     1431.037      2628.93     2490.409     89.78033     180.0651     360.7415      1.885     5.57     1185.105     63.63719      207.752        20     1.464     1.071  27.56   0
        67    206.9035    909.8211 307.8248139  +6.3061289     1729.995     3237.547     3212.386     90.35585     180.3528     360.8133      1.990     5.23     1185.949     63.63719     221.5272        22     1.430     1.152  47.50   0
        68    944.9045    910.1461 307.5181457  +6.3306676     770.1771     1242.924     892.2177     90.35585     180.5682     361.3158      1.697     3.99     1170.949     63.63719     110.8674         6     0.780     0.584 -46.15   0
        69    827.1973    910.0904 307.5670596  +6.3267675     809.7008     1365.879     1516.056     89.78033      180.209     360.7415      1.695     5.11     1174.335     63.63719     99.15002         9     1.046     0.705   9.98   0
        70    661.2699    903.8220 307.6362205  +6.3238175     5375.649     10294.56     11000.65     90.06855     180.4964     360.9929      1.977     4.64      1177.22     63.63719     613.4193        43     1.760     1.269  39.65   0
        71    241.1730    906.2822 307.8106953  +6.3087397     726.8816     1137.656     254.2892     90.35585     180.3528      360.957      1.663     4.13     1185.978     63.63719     106.5099         6     0.746     0.652 -72.07   0
        72    798.2502    904.5634 307.5792753  +6.3280840     622.4784     938.1612     673.5525     90.21231     180.4964     360.8852      1.570     4.79     1175.239     63.63719     122.2087         6     0.963     0.676  86.67   0
        73     21.0281    901.5732 307.9023257  +6.3032917     741.2161     1670.772     1738.498     89.92455     180.3528     360.8492      2.117     4.38     1185.244     63.63719     114.6222         7     1.106     0.577  19.60   2
        74    899.0898    900.0316 307.5375256  +6.3333174     2368.197     4186.529     4893.863     90.64223     180.3528     360.9929      1.942     4.78     1171.545     63.63719     278.5999        24     1.504     1.017  38.26   0
        75    344.3996    897.1379 307.7681146  +6.3159758     11509.88     23266.15     25857.05     89.63587     180.2809     360.6696      2.134     4.62     1185.208     63.63719     1376.464        60     1.890     1.427  41.83   0
        76     34.8061    900.5882 307.8966346  +6.3041615     817.2499     1753.917     2173.909     90.06855     180.3528     360.9211      2.392     6.55      1185.04     63.63719     95.84607        12     1.643     0.734  16.04   0
        77     79.1190    898.3743 307.8782983  +6.3065645      912.905     1600.393     1335.807     90.35585     180.3528     361.0646      1.764     5.39     1184.452     63.63719     117.9407        10     1.083     0.889   1.23   0
