#   1 NUMBER                 Running object number                                     
#   2 X_IMAGE                Object position along x                                    [pixel]
#   3 Y_IMAGE                Object position along y                                    [pixel]
#   4 ALPHA_J2000            Right ascension of barycenter (J2000)                      [deg]
#   5 DELTA_J2000            Declination of barycenter (J2000)                          [deg]
#   6 FLUX_APER              Flux vector within fixed circular aperture(s)              [count]
#   9 FLUXERR_APER           RMS error vector for aperture flux(es)                     [count]
#  12 FLUX_RADIUS            Fraction-of-light radii                                    [pixel]
#  13 FWHM_IMAGE             FWHM assuming a gaussian core                              [pixel]
#  14 BACKGROUND             Background at centroid position                            [count]
#  15 THRESHOLD              Detection threshold above background                       [count]
#  16 FLUX_MAX               Peak flux above background                                 [count]
#  17 ISOAREA_IMAGE          Isophotal area above Analysis threshold                    [pixel**2]
#  18 A_IMAGE                Profile RMS along major axis                               [pixel]
#  19 B_IMAGE                Profile RMS along minor axis                               [pixel]
#  20 THETA_IMAGE            Position angle (CCW/x)                                     [deg]
#  21 FLAGS                  Extraction flags                                          
         1    156.6892     20.5067 307.8657861  +6.6675453     3305.702      11628.5     16748.29     94.35655     188.7877     376.4919      3.276     8.54     1268.206     66.34963     425.4169        78     2.474     2.119 -41.87   0
         2    499.1282     20.8855 307.7230325  +6.6787443     800.6172     1808.633      3758.02     94.50573     188.5637     376.4545      3.752     4.39      1242.43     66.34963     129.8674         7     1.119     0.499 -52.96   0
         3    899.9766     18.6768 307.5560105  +6.6928960     1483.552     4103.026     6539.531     93.90759      188.115     376.3797      3.262    11.00     1229.865     66.34963     200.7119        25     1.936     1.741  -8.15   2
         4    966.3146     11.6551 307.5285930  +6.6979802     764.6604     2181.805     3201.268     94.35655     188.2647     376.6042      3.075     4.42     1225.591     66.34963     129.4135         5     0.820     0.678 -15.36   3
         5    965.5088     15.8625 307.5287871  +6.6962169     835.3007     1607.247     3263.075     94.35655     188.4143     376.5293      3.392     7.09     1225.954     66.34963     94.75085        11     1.498     0.939  -6.28   2
         6    686.3005     12.1055 307.6453062  +6.6885579     2391.374     5897.562     7754.625     94.35655     188.8623     376.2299      2.598     8.86     1235.799     66.34963     236.8987        41     2.309     1.332 -25.44  19
         7    685.3745      8.5925 307.6458109  +6.6899774      1832.12     4107.224      5554.35     93.75745      188.115     376.2299      2.618     6.04     1235.776     66.34963     197.7212        20     1.682     1.010 -18.65  19
         8    608.0079      9.6639 307.6780256  +6.6869783     1087.614     3367.277     5145.113     93.75745     187.9651     376.2299      3.341     8.03     1236.854     66.34963     148.1659        16     1.816     0.994 -77.75  18
         9    407.3285      7.5091 307.7617519  +6.6812258     1913.192     5263.847     7428.386     94.20714      188.489       371.52      3.071    11.95     1253.469     66.34963     213.6204        54     2.568     1.994  -8.90  18
        10    406.2455      3.9917 307.7623226  +6.6826418     1348.315     2380.688     3213.946     93.75745     185.5513     329.6929      1.829     5.82     1253.915     66.34963     174.5917        12     1.270     0.750 -87.52  19
        11      7.8120      6.3803 307.9283214  +6.6684267      2582.64     9085.848     12807.27     93.90759     187.8902     358.3961      3.148     8.45     1273.924     66.34963     354.6024        67     2.430     1.938 -44.87  24
        12    303.0794      2.8584 307.8053651  +6.6796895     3940.477     10058.24     12079.46     94.50573     173.8715     311.5919      2.538     9.81     1264.399     66.34963     423.2634        49     2.435     1.331 -11.05  24
        13     77.6371      3.1990 307.8993251  +6.6720623     817.8972     2009.448     2874.326     93.30561     177.8764     317.1485      2.836     7.73     1269.304     66.34963     102.2286        15     2.085     0.802 -31.82  24
        14    370.2324      1.7770 307.7774096  +6.6823625     647.1135      1094.94     832.6658     87.70207     157.2808     291.6487      1.529     3.80      1256.63     66.34963     91.69128         5     0.934     0.444 -44.79  24
        15    507.4237    989.4807 307.6868057  +6.2791889      1954.36     5321.649     6545.407     93.90759     187.8902     376.3797      2.727     8.12     1302.106     66.34963      211.011        40     2.038     1.494 -36.58   0
        16    695.8657   1023.7897 307.6071565  +6.2712521     1396.677     2120.736     2903.133     79.97264     147.4814     280.7209      1.546     4.57     1299.773     66.34963     377.1179        11     1.532     0.406   1.45  24
        17    552.1135   1023.6046 307.6670382  +6.2665803     1268.478     2175.845     2286.234     82.57265     150.6005     284.1624      1.780     5.31     1303.474     66.34963     247.1409        13     1.671     0.477  -3.82  24
        18    574.3618    990.0236 307.6589059  +6.2811778     652.8981     1370.746     2037.545     93.90759     187.9651      376.155      3.088     4.20     1300.607     66.34963     95.67542         5     0.803     0.626   3.42   0
        19    461.0103    985.6636 307.7062670  +6.2792294     990.0059     2482.458     3341.638     93.75745     188.0401     376.2299      2.739    10.31      1301.89     66.34963     128.5624        19     1.814     1.634 -73.38   0
        20    894.7709    977.8943 307.5258527  +6.2967567     28759.52     61248.71     68758.12     94.50573     187.9651     376.3048      2.246     5.16     1295.985     66.34963     3107.888        81     2.040     1.532 -35.07   0
        21    203.6145    976.2299 307.8137960  +6.2745966     870.3016     2171.642     2967.181     93.90759     187.9651     376.3422      3.014     8.08      1300.58     66.34963     99.13489        18     2.030     0.900   4.09   0
        22    792.6570    971.6756 307.5685973  +6.2959582     1257.455     3190.072     3627.699     94.35655     188.1898     376.3422      2.463     9.29     1296.207     66.34963     153.7834        25     1.826     1.318 -44.69   0
        23    740.9918    969.6758 307.5901855  +6.2950796     3683.533     8987.235     10570.03     93.90759     187.6651     376.1925      2.473     6.45     1297.399     66.34963     402.4714        48     2.018     1.518 -39.89   0
        24     35.5204    967.8243 307.8840933  +6.2724859     1223.724     3230.111     3758.378     93.90759     188.0401     376.4171      2.586     9.38     1299.851     66.34963     139.2942        24     1.830     1.342 -36.69   0
        25    210.9042    967.5963 307.8110525  +6.2784022     741.2231     1482.794     1669.995     94.05748     187.8902     376.0427      2.279     5.04     1300.494     66.34963     97.78687         7     0.970     0.740 -44.92   0
        26    929.0804    964.5330 307.5120110  +6.3034024     4671.018     9897.043     10122.87     94.50573     188.5637     376.4171      2.207     5.33     1295.307     66.34963     494.4019        45     1.895     1.367 -40.79   0
        27    902.5839    956.2554 307.5233269  +6.3059468     1228.961     2636.729     2585.221     93.60709     188.1898     376.0801      2.263     6.07     1294.955     66.34963     221.8088        20     1.682     1.039 -37.10   0
        28    623.4099    952.5721 307.6397406  +6.2982583     2427.496     6068.338     6716.165     93.90759     188.0401     376.2674      2.482     6.57     1298.173     66.34963     311.6682        44     1.901     1.598 -36.23   0
        29    236.1739    953.0412 307.8010207  +6.2852484     2114.316     5727.919     6462.793     93.90759      188.115     376.2299      2.581     6.98     1300.482     66.34963     237.7648        43     1.903     1.606 -24.31   0
        30    762.3874    953.4362 307.5818209  +6.3024892     730.2072      1605.35     1763.539     93.75746     188.0401     376.0801      1.829     4.10     1296.209     66.34963     114.2701         7     1.593     0.301 -14.58   0
        31      5.0945    949.4709 307.8973892  +6.2790507     887.5129     2073.723     2375.378     94.20713     188.3395     345.8337      2.546     6.65     1299.347     66.34963     103.0793        11     1.462     0.849  69.91  18
        32    547.4005    944.6153 307.6716705  +6.2990311     834.7197     1768.499     2021.723     93.90759     187.8902     376.1176      1.821     3.82     1299.584     66.34963     146.6039         5     1.186     0.352 -38.15   0
        33    979.1879    943.4821 307.4918470  +6.3137421     698.7815     1323.625     832.1078     93.90759     187.9651     376.2299      2.186     4.64     1293.712     66.34963     97.99841         6     0.921     0.664  82.60   0
        34    586.2988    943.0487 307.6555206  +6.3009634     609.2137     1329.484     1507.344     94.35655     188.1898     376.6416      1.786     5.60     1298.649     66.34963     96.99304         6     1.339     0.659  43.79   0
        35    269.2345    938.7376 307.7877350  +6.2922489     526.2735     884.7735     1547.003     94.20714     188.3395     376.3797      1.616     3.76     1300.622     66.34963     103.2185         5     1.301     0.312 -31.49   0
        36    871.6655    931.5284 307.5370390  +6.3151356     4352.011     9806.642     10846.99     94.35655     188.3395     376.4919      2.272     5.68     1294.013     66.34963     476.5754        45     1.909     1.422 -34.59   0
        37    309.6664    927.5307 307.7712736  +6.2982151     4382.648     12048.32     14892.09     94.35655     188.3395     376.4171      2.737     6.74     1300.558     66.34963     467.9071        64     2.167     1.790 -27.34   0
        38    405.9271    929.6340 307.7311064  +6.3005351     1018.253     2398.153     3685.815     94.20713     188.1898     376.3797      3.159     6.19       1300.1     66.34963     138.6631        10     1.062     1.015  79.89   2
        39    229.6270    926.5760 307.8046448  +6.2959558     2913.547     8767.872     10731.05     93.75745      188.115     376.2299      2.758     7.05     1300.155     66.34963     355.0446        56     2.085     1.747 -33.67   0
        40    723.2959    910.1281 307.5995654  +6.3190771     971.3055     2157.758     2835.393     94.20714     188.4143     376.4171      2.720     7.70     1294.429     66.34963     115.6903        16     1.725     0.962  50.28   0
        41    955.1498    904.8464 307.5031607  +6.3288998     825.9222     1812.789     2467.205     94.35655      188.115     376.4919      2.395     6.15     1291.586     66.34963      123.134        11     1.373     0.972  10.81   0
        42    642.0530    902.6331 307.6336610  +6.3194889     1156.108     2620.785     2780.689     94.20713     188.1898     376.3422      2.352     8.22     1295.822     66.34963     138.9845        19     1.640     1.151 -69.17   0
        43     39.4985    899.9687 307.8847411  +6.3006276     1154.268     3211.795      3475.51     94.35655     188.0401     376.5667      2.644    10.24     1297.726     66.34963     158.6393        25     1.942     1.505 -44.71   0
        44    183.1270    898.4944 307.8249657  +6.3060051     1119.889     2842.021     3263.245     94.20713     188.3395     376.4171      2.446     8.53     1299.385     66.34963      138.446        19     1.669     1.324  12.13   0
        45     57.8806    899.5989 307.8770970  +6.3013909     1004.797     2031.866     2247.522     93.45647     187.6651      376.155      2.183     6.48     1297.836     66.34963     123.4426        11     1.222     0.964 -52.24   0
        46    637.1132    892.4949 307.6360611  +6.3235108     3207.727     8738.263     10260.19     94.35655     188.7131     376.4919      2.640     7.20      1295.14     66.34963     329.9885        55     2.083     1.798 -34.91   0
        47    874.6558    888.6469 307.5372379  +6.3329359     1445.237     3768.766     3828.056     94.35655     188.2647     376.4919      2.490     7.65     1291.166     66.34963     190.3422        31     1.874     1.288 -30.98   0
        48    320.2886    885.7783 307.7682633  +6.3158021     6822.611     19745.69     25238.55     94.35655     188.0401     376.3048      2.844     6.84     1299.661     66.34963     664.6205        78     2.264     1.897 -31.09   0
        49     81.8661    875.3057 307.8679313  +6.3122155     1685.095     2489.675     3397.898     94.35655     188.4143     376.4171      1.323     5.64     1297.251     66.34963     1058.543        10     1.362     0.657  13.38   0
        50    864.8719    870.2637 307.5419330  +6.3402021     1197.807     2577.338     2614.321     94.35655     188.2647     376.4545      2.290     8.21     1289.917     66.34963     150.7952        21     1.882     1.037 -34.02   0
        51     67.5046    870.0153 307.8740930  +6.3139223      1124.84     3073.534      3722.95     94.05748     187.9651     376.1925      2.763     8.82     1296.941     66.34963     118.7218        23     1.804     1.202  70.81   0
        52    799.5858    868.6906 307.5691829  +6.3386993     1527.331     3764.252     4595.202     94.05748     188.0401     376.2299      2.604     8.17     1290.242     66.34963     192.8544        29     1.983     1.243 -23.65   0
        53    835.3624    868.5905 307.5542825  +6.3399202     947.8744     1904.748      2806.34     93.45647     188.0401     376.0801      3.160     5.35     1290.031     66.34963     106.4486        10     0.984     0.821 -48.95   0
        54    535.2244    860.9014 307.6795719  +6.3331854     136571.5     402584.7     506850.4     94.50573     187.9651     376.1925      2.839     7.07     1296.078     66.34963     13996.13       198     2.444     2.098 -36.95   0
        55    379.5700    863.5767 307.7443213  +6.3269305     3088.923     9082.068     11605.67     93.75746      188.115     376.2299      2.892     7.73     1298.928     66.34963     329.3901        56     2.167     1.741 -30.28   0
        56    322.8533    862.1274 307.7679961  +6.3256500     5039.027     15288.01     19496.36     94.20713     188.1898     376.3797      2.897     7.12     1299.164     66.34963     521.5068        76     2.251     2.006 -41.91   0
        57    640.8293    857.8732 307.6356821  +6.3379254     1589.307     4522.385     5114.791     94.20713     188.2647     376.3797      2.619     8.73     1292.879     66.34963     192.7576        37     1.890     1.545 -38.22   0
        58    873.3040    856.7805 307.5388746  +6.3460459     2828.184     6945.602     8285.635     94.20714     188.0401     376.1925      2.534     6.20     1288.994     66.34963     299.9049        47     1.969     1.502 -29.72   0
        59    615.6201    851.9291 307.6463844  +6.3395464      1499.09     4471.775     6575.944     93.90759      188.115     376.3422      3.639     8.52      1292.53     66.34963     225.9882        44     1.974     1.791  -8.28   0
        60   1006.6821    850.7935 307.4835123  +6.3529095      3065.29     6484.258     7528.761     93.90759     187.7402     376.1925      2.222     5.49     1286.231     66.34963     357.7286        39     1.866     1.317 -43.68   0
        61    802.6071    849.7869 307.5685616  +6.3466025     766.9071     1791.628     2457.401     93.90759     188.0401     376.3048      3.193     5.85      1288.89     66.34963     114.2372         9     1.187     0.812   7.61   2
        62    607.4013    849.4585 307.6498916  +6.3402947     869.9423     2564.052     4459.156     93.60709     187.8902     376.0801      3.591     8.76     1292.432     66.34963     126.8966        15     1.796     1.194  51.69   3
        63    892.2522    844.2215 307.5314041  +6.3518547      1776.54     4172.576     4801.968     93.75745     188.2647     376.1925      2.436     5.75     1287.974     66.34963     235.5261        30     1.633     1.387 -59.85   0
        64    352.5887    840.5517 307.7563403  +6.3355414     1077.846     2473.629     3592.715     93.60709      188.115     376.0427      2.639     6.05     1298.665     66.34963     156.3636        14     1.593     0.685 -63.43   2
        65    349.9518    839.4557 307.7574759  +6.3359064     851.5471     1672.583     2916.454     94.35655     188.2647     376.5293      2.815     4.45     1298.634     66.34963     134.1357         5     0.986     0.571 -77.89   3
        66    487.0092    830.4084 307.7006880  +6.3441782     1189.842     3555.105     4112.361     93.75745     188.0401     376.2674      2.704    10.24     1294.648     66.34963     140.5632        31     1.895     1.544 -16.59   0
        67    534.0657    826.4753 307.6812183  +6.3473581     2464.242      7291.12     10651.41     94.50573     188.2647     376.3422      3.189     8.59     1293.941     66.34963     320.0642        62     2.455     1.855 -19.06   0
        68    504.2747    820.5726 307.6938282  +6.3488095     7588.267     23061.56     29076.28     94.20714     188.1898     376.3797      2.874     7.40     1293.889     66.34963     745.6855        78     2.316     1.924 -32.65   0
        69    917.7211    818.2391 307.5216690  +6.3634194     2141.816     4509.383     4942.092     94.20714     188.3395     376.4171      2.183     6.18     1285.845     66.34963     234.3322        28     1.691     1.223 -41.76   0
        70    297.5346    809.4516 307.7803276  +6.3465550     1272.313     3702.862     5016.941     94.35655     188.1898     376.4171      3.024    10.84     1298.419     66.34963     135.5493        30     1.956     1.672 -51.70   0
        71    762.3364    804.9304 307.5868507  +6.3637912     24628.44      67940.2      82878.2     94.35655     188.2647     376.4919      2.689     6.60     1286.347     66.34963     2578.521        99     2.302     1.868 -38.61   0
        72    219.3778    781.9046 307.8138194  +6.3553346     733857.8      2568662      3492046     94.35655     188.0401     376.2299      3.141     8.27     1296.135     66.34963     63814.26       598     2.807     2.527 -66.83   4
        73    685.5717    796.7760 307.6191058  +6.3646239     29989.82     100223.8     158084.5     93.75745      188.115     376.2299      3.525    10.85     1288.322     66.34963     3648.391       186     3.510     2.309  23.38   0
        74    887.5240    800.1015 307.5348601  +6.3699119     4341.891     11060.78     13406.09     93.90759     188.4143     376.4171      2.562     6.60     1284.869     66.34963     443.5511        54     2.123     1.556 -44.91   2
        75    884.4915    791.4200 307.5364159  +6.3733958     3456.011     8722.882     10247.08     94.20714     187.9651     376.2674      2.515     6.77     1284.539     66.34963     364.6554        51     2.102     1.559 -38.20   2
        76    329.3886    797.3248 307.7674688  +6.3526164     7409.872     23739.48     30765.07     93.90759     187.8902     376.1925      2.975     7.66     1297.609     66.34963     719.6729        87     2.373     2.041 -40.17   0
        77    391.2484    795.1185 307.7417740  +6.3555763      7935.31     25534.66     33277.23     94.35655     188.2647     376.4545      2.987     7.89     1296.373     66.34963     812.9448        86     2.366     2.066 -31.35   0
