#   1 NUMBER                 Running object number                                     
#   2 X_IMAGE                Object position along x                                    [pixel]
#   3 Y_IMAGE                Object position along y                                    [pixel]
#   4 ALPHA_J2000            Right ascension of barycenter (J2000)                      [deg]
#   5 DELTA_J2000            Declination of barycenter (J2000)                          [deg]
#   6 FLUX_APER              Flux vector within fixed circular aperture(s)              [count]
#   9 FLUXERR_APER           RMS error vector for aperture flux(es)                     [count]
#  12 FLUX_RADIUS            Fraction-of-light radii                                    [pixel]
#  13 FWHM_IMAGE             FWHM assuming a gaussian core                              [pixel]
#  14 BACKGROUND             Background at centroid position                            [count]
#  15 THRESHOLD              Detection threshold above background                       [count]
#  16 FLUX_MAX               Peak flux above background                                 [count]
#  17 ISOAREA_IMAGE          Isophotal area above Analysis threshold                    [pixel**2]
#  18 A_IMAGE                Profile RMS along major axis                               [pixel]
#  19 B_IMAGE                Profile RMS along minor axis                               [pixel]
#  20 THETA_IMAGE            Position angle (CCW/x)                                     [deg]
#  21 FLAGS                  Extraction flags                                          
         1    428.8995     57.3986 307.7560040  +6.6697508      9383.03     28474.79     35766.46     90.59235     181.6197     363.3842      2.791     6.88     1164.939     64.10977     1034.786        85     2.197     1.975 -65.48   0
         2    417.2271     25.9008 307.7619263  +6.6823754     2705.921     7935.374     9555.398     91.17122     181.6197     363.6375      2.721     7.40     1166.862     64.10977      260.473        53     1.960     1.823 -63.27   0
         3     18.2937     25.6465 307.9279465  +6.6691511     4400.749     11497.05     13583.58     91.02685     181.8368     363.8544      2.624     6.03     1183.805     64.10977     517.6354        63     2.138     1.757 -71.14   0
         4    313.8284     20.8519 307.8051264  +6.6810119      5528.19     16253.47      20569.1     90.88224     182.0537     363.6013      2.753     6.64     1179.279     64.10977     597.5813        72     2.191     1.888 -63.06   0
         5    379.6947     20.6441 307.7777233  +6.6832956     920.6184     2464.628     3452.504     91.17122     181.9091     363.8544      3.022     7.73     1171.408     64.10977      118.856        14     1.511     1.108  35.37   2
         6    632.2846      9.5724 307.6729792  +6.6962843     4339.628     11735.31     14630.87     91.31536     181.6197     363.5652      2.689     6.63     1157.856     64.10977     426.5061        62     2.103     1.775 -60.90  19
         7    640.7457     14.0881 307.6693056  +6.6947001     5202.972     14258.12     17739.93     91.17122     181.7645     363.8544      2.729     6.95     1157.801     64.10977     475.5992        69     2.178     1.876 -77.45   3
         8    641.4787      5.5121 307.6692898  +6.6982678     1534.799     4160.899     5763.077     90.88225     182.1981     339.5083      2.940     8.39     1157.646     64.10977     171.5146        30     1.651     1.481 -79.28  19
         9    805.7613     14.0441 307.6006320  +6.7002028     891.6423     2196.453     2302.703     90.88224     181.8368     363.5651      2.166     4.65     1153.904     64.10977     102.2263         8     1.280     0.480 -66.42   0
        10    241.2181     11.1231 307.8356724  +6.6826068     2908.676     8108.819     10412.99     90.59235     181.6197     363.6736      2.738     7.05     1181.834     64.10977      321.668        59     2.180     1.821 -46.06  16
        11    402.1542      9.7539 307.7687450  +6.6885440     3438.375      10077.8     11856.52     91.17122     181.7645      363.746      2.681     6.95      1169.24     64.10977     346.9775        60     2.051     1.861 -82.81  16
        12    875.6589     11.1418 307.5716397  +6.7037222     860.0908     1938.869     1628.155     91.17122     181.9091      363.746      2.135     8.04     1151.748     64.10977     120.9575        14     1.594     1.133  35.90   0
        13    664.2438      7.1492 307.6597604  +6.6983486     8012.581     21403.47     31382.41     91.31536     181.8368     356.1827      3.126     7.87     1157.331     64.10977     814.2191        99     2.811     1.881 -44.74  24
        14    716.7383      8.2455 307.6378766  +6.6996410     965.9291     2321.843     2389.223     91.02685     181.7645     363.2394      2.690     9.39     1155.782     64.10977     128.3557        14     2.193     1.122 -33.96  18
        15     49.0831      3.3431 307.9158911  +6.6793964     1643.655     3969.002     3872.581     91.17122     173.6984     308.9213      2.385     8.28     1182.611     64.10977     184.1309        28     1.780     1.377 -53.43  24
        16    139.1834      1.8924 307.8784462  +6.6830102      1929.95     3356.665     3852.478     86.27946     153.9489     283.8955      1.838     6.73     1182.066     64.10977     258.5796        20     1.676     0.899  -2.10  24
        17    185.6049    987.9489 307.8257382  +6.2771584     742.6085     1326.054     991.8913     90.44705     181.6921     363.2756      1.812     5.77     1211.379     64.10977     94.33716         8     1.091     0.858  13.79   0
        18    738.4950   1020.8083 307.5947217  +6.2819921     6365.482     11467.07     12336.92     90.88224     180.4573     321.5627      1.918     4.09     1210.001     64.10977     698.3062        40     1.637     1.275 -65.00  24
        19    534.0789   1021.3858 307.6797053  +6.2749585     3020.405     5837.333     6531.849     90.73741     176.1794     313.1918      2.081     5.15     1212.299     64.10977     306.1407        35     1.665     1.335 -84.52  27
        20    531.2718   1013.6017 307.6811350  +6.2780814     6046.491     11834.62      13433.7     90.59235     181.4023      363.529      2.063     4.47     1212.099     64.10977     612.2346        48     1.720     1.482 -88.94  19
        21    504.0964   1022.6774 307.6921293  +6.2734271     979.1375     1471.004     1524.693     90.00975       160.72     291.7551      1.666     4.89     1212.279     64.10977     157.4277        13     1.101     1.081  -5.90  24
        22    284.3440   1020.2347 307.7835891  +6.2671140     10865.45     21474.49     24126.47     91.02685     181.9091     329.8409      2.144     4.50     1213.832     64.10977     1108.463        66     1.944     1.551 -53.13  24
        23    939.4667    984.6776 307.5123625  +6.3035881      6125.04     10298.88     10952.98     91.31536     181.9814     363.6736      1.847     3.87     1207.836     64.10977     797.9752        33     1.474     1.173 -72.37   0
        24    634.0803    972.4669 307.6397695  +6.2984968     3340.123     6488.586     6951.346     91.31536     182.1981     363.7098      2.066     5.12     1210.067     64.10977     353.8892        36     1.623     1.374 -59.62   0
        25    246.2506    973.0590 307.8010240  +6.2853348     2863.855     6295.548     6782.687     91.17122     181.9091     363.7098      2.280     5.53     1212.109     64.10977     290.5818        38     1.741     1.388 -76.33   0
        26    983.0082    972.2005 307.4946743  +6.3101862     577.1712     842.4216     1073.819     90.44705     181.5473     363.4928      1.644     4.60     1205.627     64.10977     96.30688         5     1.211     0.497 -70.40   0
        27    456.5251    971.2787 307.7136450  +6.2930801     863.8132     1862.905     1861.875     91.45928     182.1981     363.8183      2.303     7.14     1211.082     64.10977     109.6887        12     1.561     0.915 -82.25   0
        28    221.1324    990.0000 307.8108958  +6.2774970     738.7204     1437.134     1569.834     90.30152     181.3298     363.3842      1.930     3.59     1212.432     64.10977     123.0118         5     0.862     0.468  24.27   3
        29     15.1053    970.2488 307.8972337  +6.2787737     1583.259     2790.776     2990.974     91.02685     181.7645     363.8906      1.808     4.50     1210.239     64.10977     195.5056        18     1.276     1.025  66.33   0
        30    865.9482    969.4688 307.5434469  +6.3074347     755.7198     1365.329     1739.169     91.02685     181.7645     363.6375      1.956     4.22     1207.478     64.10977     99.33875         6     0.955     0.533  74.13   0
        31    989.4717    965.1370 307.4922235  +6.3133189     990.5779     1785.791     2236.402     91.17122     181.9091     363.7821      2.210     6.00     1204.899     64.10977     123.8571        11     1.403     0.722 -78.53   2
        32    558.4803    965.2698 307.6714502  +6.2989564     1182.153      2387.97     2440.467     91.45928     182.2703      363.746      1.960     7.71     1210.701     64.10977     116.4015        19     1.379     1.205  45.33   0
        33    913.3627    976.2265 307.5235020  +6.3062147      1801.95     3078.549     2905.408     90.73741     181.6921     363.4928      1.843     4.85     1207.718     64.10977     230.2275        21     1.545     0.911 -85.10   0
        34    282.4932    965.6492 307.7862038  +6.2896055     673.6761      1445.64     2454.036     91.02685     181.7645     363.8544      2.035     3.42     1212.285     64.10977     92.51428         5     1.097     0.308  20.26   0
        35    597.9358    960.9297 307.6551890  +6.3020620     781.9851     1325.408     1112.516     91.17122     181.9814     363.7098      1.918     5.80     1210.466     64.10977     121.5079         7     1.115     0.851 -52.33   0
        36    277.8162    959.3600 307.7883613  +6.2920480     1031.367     2214.003     2893.305     90.59235     181.6921     363.4928      2.533     6.78     1212.033     64.10977      120.652        13     1.348     0.958  85.89   0
        37    882.1264    951.5965 307.5373196  +6.3153559     5628.034     10002.38     10483.16     90.59235     181.4023      363.529      1.886     3.93      1206.58     64.10977     666.9193        37     1.587     1.219 -68.41   0
        38    418.2418    949.0740 307.7303143  +6.3009794     1506.846     3037.771     2933.581     91.02685     181.9814      363.746      2.086     6.59     1211.112     64.10977     164.1738        23     1.625     1.099 -62.19   0
        39    319.9872    947.4246 307.7712285  +6.2983860     6359.491     13418.57     15291.89     90.88224     181.6921     363.6375      2.245     4.84     1211.708     64.10977     628.0511        52     1.816     1.511 -65.23   0
        40    240.0074    946.2896 307.8045254  +6.2961868     4558.184     9816.317     11061.15     90.59235     181.5473     363.4204      2.240     4.99     1211.076     64.10977      461.406        49     1.796     1.551 -81.01   0
        41    568.4053    941.1627 307.6681356  +6.3092471     885.8986     1586.058     1263.065     90.15575     181.6197     363.4204      2.082     5.92     1209.943     64.10977     122.5461         9     1.058     0.933 -69.24   0
        42    897.9795    936.6409 307.5312294  +6.3220610     978.4787     1532.107     964.8452     90.73741     181.6921     363.4928      1.746     5.76     1205.794     64.10977      126.153        10     1.031     0.906 -19.18   0
        43    853.7768    935.3818 307.5496543  +6.3211153     661.9167     1229.727     1002.817     90.88224     181.8368     363.6375      1.860     5.54     1205.917     64.10977     108.0822         8     1.674     0.516 -59.67   0
        44    733.9137    930.0897 307.5996798  +6.3193235      1191.45     2471.644     2556.795     90.88224     182.4146     363.8544      2.171     6.47     1207.871     64.10977     149.0298        16     1.376     1.019 -70.48   0
        45    558.1797    930.2123 307.6727571  +6.3134314     540.4684     1122.457       577.09     90.88224     181.5473     363.6013      2.062     4.64     1209.666     64.10977     93.55493         5     1.294     0.472 -29.02   0
        46    965.7509    925.0944 307.5034327  +6.3290782     1139.756     2153.714     2875.721     91.02685     181.7645     363.8544      2.334     5.30     1203.174     64.10977     149.5045        12     1.220     0.871 -60.72   0
        47    652.9001    923.0959 307.6336062  +6.3195216     1747.146     3295.086     4404.884     91.17122     182.4866      363.529      2.381     5.56     1208.107     64.10977     199.2251        23     1.459     1.152 -86.20   0
        48     49.7489    919.8172 307.8845372  +6.3007687     2086.422      4453.84       4896.7     90.59235     181.9814     363.4566      2.174     5.45     1209.469     64.10977     232.4814        29     1.630     1.203 -67.54   0
        49    193.1494    918.5103 307.8249504  +6.3061001     1423.095     3237.888     3774.566     91.17122     181.6921     363.8544      2.253     8.89     1209.878     64.10977      136.882        27     1.615     1.365 -51.15   0
        50     67.3548    918.9208 307.8772465  +6.3017277     1394.075     2990.038     3315.946     91.17122     181.9091     363.7098      2.223     5.44     1209.317     64.10977     164.4402        25     1.490     1.312 -61.44   0
        51    930.8575    918.6086 307.5181620  +6.3306017     594.3685     1295.573      1393.95     90.44705     181.8368     363.3842      2.025     4.78     1204.477     64.10977     81.40808         6     1.172     0.551 -66.07   0
        52    647.4932    912.4086 307.6362148  +6.3237577     4584.067     9498.042     10543.84     90.73741     181.5473     363.4928      2.162     4.83     1207.623     64.10977     467.4279        43     1.710     1.453 -73.63   0
        53     20.4983    910.1345 307.8970286  +6.3037910     715.6207     1359.029     1478.079     91.17122     181.9814      363.746      1.977     6.79     1209.172     64.10977       113.37         9     1.300     0.996 -40.45   0
        54      8.3663    910.9616 307.9020455  +6.3030435     801.3769     1568.904     1421.778     90.88224     181.6921     363.2032      2.233     5.57     1209.277     64.10977     118.2323         8     1.292     0.677 -31.38  16
        55    885.1013    908.3925 307.5375344  +6.3333059     2319.323     4090.962     4015.868     90.88224     181.4748     363.4928      1.850     4.53     1203.978     64.10977     261.5758        22     1.350     1.100 -56.80   0
        56     65.4300    907.4224 307.8784365  +6.3064140     940.7252      2105.64     2299.633     90.44705     181.6197     363.4928      2.225     8.25     1208.861     64.10977     99.01404        17     1.740     1.092  75.18   0
        57    330.5744    905.6995 307.7682358  +6.3159787     10226.43     22367.57     26497.52     91.31536     181.6197     363.6013      2.370     5.04     1210.849     64.10977     993.5194        64     1.895     1.640 -70.40   0
        58    201.6614    903.6285 307.8219143  +6.3125330     702.3177      1622.56     2673.745     90.73741     181.9091     363.6375      2.513     3.88     1209.928     64.10977     118.7904         5     1.065     0.405  15.51   2
        59     94.1603    896.4879 307.8668597  +6.3118922     1008.822     2521.868     2589.164     91.17122     181.8368      363.746      2.445     8.06     1208.404     64.10977     121.0823        15     1.586     1.146  85.09   0
        60    809.4833    889.3060 307.5696243  +6.3386836     2256.018     4587.938     4623.743     90.88225     182.3424     363.8544      2.117     5.97     1203.953     64.10977     249.0573        27     1.663     1.155 -67.48   0
        61    875.4901    889.9716 307.5421506  +6.3405985      1657.52     2836.662     2806.451     91.31536     181.6197     363.6013      1.896     3.98     1202.843     64.10977     244.9344        19     1.254     1.032 -53.33   0
        62    846.0535    889.4097 307.5544118  +6.3398542     1526.282      2787.01     3339.016     90.44705     181.8368     363.3842      2.061     4.86      1203.24     64.10977     180.5667        18     1.238     1.044 -81.96   0
        63     77.3650    889.9885 307.8740641  +6.3140161      1533.69      3354.66     3662.514     90.59235     181.6921     363.4928      2.160     6.35     1208.203     64.10977     213.9189        21     1.484     1.177 -26.43   0
        64    545.6091    880.7766 307.6796517  +6.3334390     207067.1     456267.4     517339.1     90.73741     181.6921     363.5651      2.282     5.00     1208.547     64.10977     18484.71       183     2.078     1.816 -71.14   0
        65    389.8831    883.3879 307.7443254  +6.3271744     4711.995     10667.02     12480.52     90.73741     181.6197      363.529      2.328     5.15     1209.998     64.10977     436.5414        50     1.781     1.550 -72.72   0
        66    333.1460    881.8297 307.7679730  +6.3259268     7488.899     17354.51     19973.89     90.88224     181.9814     363.6013      2.343     5.30      1210.57     64.10977     678.8214        60     1.931     1.622 -78.85   0
        67    651.4362    877.8632 307.6357387  +6.3381623     2487.134     5208.712     5819.969     91.02685     181.9091     363.7098      2.122     5.13     1205.682     64.10977     256.9835        31     1.511     1.358 -54.13   0
        68    883.9094    876.6251 307.5390977  +6.3463923     4174.614     7539.335     9097.368     91.31536     181.6921      363.529      2.019     4.38     1201.872     64.10977     449.5814        30     1.524     1.173 -69.57   0
        69    626.1713    872.0585 307.6464415  +6.3397208     2221.222     4513.089     5268.655     90.73741     181.9814     363.6013      2.094     5.13     1205.787     64.10977     243.7462        28     1.514     1.253 -55.95   0
        70   1017.1633    870.8030 307.4838734  +6.3532140     4009.455     6936.314     7361.202     90.15575     181.6921     360.9875      1.811     3.86     1198.714     64.10977     523.5004        32     1.534     1.168 -70.72  16
        71    814.9345    870.5339 307.5679886  +6.3466209     1159.432     1993.426     2062.804     91.17122     181.9091      363.746      1.897     7.23     1202.757     64.10977     112.3383        19     1.302     1.124 -52.53   0
        72    619.0526    866.5853 307.6495864  +6.3417456     1366.466     3164.548     4158.215     90.44705     181.8368     363.4204      2.582     8.24     1205.625     64.10977     164.7146        22     1.741     1.140 -63.76   0
        73    902.7029    864.6200 307.5316850  +6.3519758     2525.765      4732.36     5116.103     91.02685     181.6921     363.4566      2.078     5.46     1200.776     64.10977      262.158        32     1.761     1.244 -77.41   0
        74    361.3594    860.8245 307.7569497  +6.3355463     1638.241      3789.22     4354.137     90.73741     181.7645     363.4566      2.396     8.76     1209.902     64.10977     175.9065        30     1.806     1.444  43.10   0
        75    497.1676    850.5497 307.7008171  +6.3443159     1804.431     4154.473     4912.182     91.02685     181.9091     363.6375      2.425     7.44     1207.955     64.10977     191.4452        34     1.834     1.459 -76.61   0
        76    841.4186    849.7205 307.5576739  +6.3560995      714.997     1210.881     1700.971     90.73741     181.5473     363.6375      1.992     4.94     1201.166     64.10977     105.5247         6     0.955     0.723 -61.60   0
        77    544.3416    846.4025 307.6813381  +6.3475995     3461.722     8215.441     11263.73     90.44705     181.6921     363.4204      2.771     7.25     1206.944     64.10977     336.0231        51     2.076     1.615 -34.23   2
