#   1 NUMBER                 Running object number                                     
#   2 X_IMAGE                Object position along x                                    [pixel]
#   3 Y_IMAGE                Object position along y                                    [pixel]
#   4 ALPHA_J2000            Right ascension of barycenter (J2000)                      [deg]
#   5 DELTA_J2000            Declination of barycenter (J2000)                          [deg]
#   6 FLUX_APER              Flux vector within fixed circular aperture(s)              [count]
#   9 FLUXERR_APER           RMS error vector for aperture flux(es)                     [count]
#  12 FLUX_RADIUS            Fraction-of-light radii                                    [pixel]
#  13 FWHM_IMAGE             FWHM assuming a gaussian core                              [pixel]
#  14 BACKGROUND             Background at centroid position                            [count]
#  15 THRESHOLD              Detection threshold above background                       [count]
#  16 FLUX_MAX               Peak flux above background                                 [count]
#  17 ISOAREA_IMAGE          Isophotal area above Analysis threshold                    [pixel**2]
#  18 A_IMAGE                Profile RMS along major axis                               [pixel]
#  19 B_IMAGE                Profile RMS along minor axis                               [pixel]
#  20 THETA_IMAGE            Position angle (CCW/x)                                     [deg]
#  21 FLAGS                  Extraction flags                                          
         1    195.6406     24.4207 307.8649717  +6.6680209     9441.924      16221.7     17295.98     82.68684     165.5717     331.2423      1.844     4.21      963.136     58.42171     1223.596        45     1.666     1.224  47.91   0
         2    941.1223     22.0525 307.5552375  +6.6939852     4117.779     6544.072     7232.305     83.21352     165.7695     331.4401      1.674     4.41     931.6407     58.42171     573.6703        28     1.581     0.943  48.72   0
         3    477.9892     20.9002 307.7477535  +6.6789605     1629.586     2636.589     2551.855     82.81882     165.3737     331.2094      1.651     4.67     941.0562     58.42171     215.6018        17     1.386     0.868  37.13   0
         4    725.3553     14.8574 307.6451533  +6.6897432     6957.374     11384.13     11929.01      82.9506     165.7695      331.506      1.738     4.31     936.5588     58.42171     910.2587        35     1.644     1.016  51.95   0
         5    645.5839     14.1201 307.6783311  +6.6873770     3514.638      5855.22     5950.995     82.68684     165.5057     331.2753      1.761     4.04     938.0336     58.42171     458.2156        25     1.442     0.994  45.77   0
         6    445.7337     10.3920 307.7615131  +6.6822158     5466.837     9620.381     10356.85     82.55465     165.5057     331.2753      1.881     4.36     943.7227     58.42171     663.5051        36     1.622     1.160  49.49  16
         7    692.8957      9.2927 307.6588310  +6.6909539     805.0422     1217.412     1180.049     83.08216     166.3614     331.4071      1.443     4.35      937.071     58.42171     135.5042         8     1.373     0.436  38.88   0
         8    521.9380      9.0000 307.7298903  +6.6853469     514.6134     1062.448     1530.304     82.28963     165.5057     331.0774      2.325     3.92     940.4722     58.42171     83.36896         5     0.816     0.539  26.89   3
         9    521.3337      6.6595 307.7302204  +6.6862927     581.8458     1202.245     1482.305     83.21352     165.7036     320.6878      2.377     4.35     940.4138     58.42171     82.13416         6     1.223     0.441  35.04  18
        10    342.3469      5.3115 307.8046506  +6.6808413     11455.99      19476.8     20740.16     83.08216     165.6376     307.1537      1.843     4.09     956.4277     58.42171     1432.007        43     1.650     1.188  47.17  16
        11     46.7381      9.9723 307.9273391  +6.6689708     7414.872      12777.7     13010.43     82.68684     165.7695     331.4071      1.822     4.32      965.611     58.42171     895.2921        39     1.640     1.137  49.83  16
        12    115.9208      5.5784 307.8987383  +6.6731150     2245.205     3623.499     4125.756     82.68684     165.4397     309.9501      1.728     3.93      963.815     58.42171     286.6183        24     1.411     1.020  50.18  16
        13    408.4091      3.2939 307.7772643  +6.6838929     1945.507     3314.779     3427.395     82.68684     157.3877      280.541      1.860     4.77     947.6891     58.42171     211.1922        24     1.554     0.995  48.37  24
        14    107.4123      4.4701 307.9023116  +6.6732860     1291.786     1854.714     2110.979     82.55465     165.5057     296.6258      1.665     5.17     964.0099     58.42171     198.8817        13     1.355     0.663  34.33  16
        15    810.0361      3.4739 307.6103426  +6.6972747     762.0239     1195.314     1101.759      82.9506     159.5244     283.4844      1.732     4.24     935.9742     58.42171     121.1436         7     0.940     0.619  57.35  16
        16   1005.9824     18.5290 307.5283992  +6.6976045     1990.516     3079.461     2937.242     82.55465     165.7036     331.3742      1.645     4.17     925.2157     58.42171     275.3851        20     1.395     0.872  41.81   0
        17   1003.9354      1.3922 307.5298252  +6.7046102     476.4137     530.2761     284.4944      72.5559     132.4409     250.3396      1.321     4.40     923.4006     58.42171     91.58496         5     1.152     0.478   5.49  24
        18    670.2434      1.1851 307.6685183  +6.6935423       1581.3      2030.43     2326.043     69.63711     129.1001     246.6476      1.214     3.50     937.2789     58.42171     421.7693         9     1.333     0.388   0.01  24
        19    559.4474    998.5344 307.6809652  +6.2781262      8410.56     12581.31        14075      82.9506     165.7036     331.4731      1.670     4.11     980.9727     58.42171      1220.54        30     1.478     0.965  45.26   0
        20    726.2082    998.8274 307.6117046  +6.2835861      322.502     530.9847     611.0589     82.68684     165.5717     331.2753      1.836     4.86     976.9987     58.42171     73.33588         5     1.294     0.518 -62.85   0
        21   1022.9169    994.6517 307.4886272  +6.2952171     4475.883      5845.75     5352.099     80.68121     142.9888     262.1879      1.400     3.51     968.2015     58.42171     628.7297        22     1.315     0.838  73.78  24
        22    901.6262    995.4185 307.5389717  +6.2908541     12610.16     19354.79     20453.53     82.68684     165.5717     331.3412      1.680     3.85     971.3326     58.42171     1866.653        41     1.530     1.092  37.49   0
        23    614.3232    995.7712 307.6582700  +6.2811043     1161.629      2119.88     2576.676      82.9506     165.8353     331.4731      2.003     4.52     978.4539     58.42171     184.9515        13     1.317     0.839  61.45   0
        24     10.8629    996.7005 307.9088260  +6.2604599     616.5737     1080.624     1443.142     82.81882     165.8353      331.506      1.697     5.76     985.0375     58.42171     127.7926        10     1.410     0.702  53.69   0
        25    546.0588    994.4674 307.6866619  +6.2793565     4026.431     6733.117     7357.805     83.21352     165.7036     331.4401      1.842     4.44     981.3671     58.42171      591.524        29     1.632     1.037  32.00   0
        26     80.8588    993.2998 307.8798765  +6.2642198     933.5319      1513.48     1621.291     82.81882     165.7695     331.6048      1.730     4.83     985.1414     58.42171     162.1287        11     1.190     0.681  34.69   0
        27    810.9344    992.4567 307.5767338  +6.2890480     548.5543     917.2547     451.4592     83.21352     165.7036     331.4401      1.644     3.80     975.1726     58.42171     82.45959         6     1.238     0.335  50.38   0
        28    498.8561    990.7560 307.7063885  +6.2793070      2115.97     3337.983     3177.844     83.08216     165.7695     331.4731      1.697     4.30     982.1063     58.42171     289.0261        17     1.372     0.867  52.66   0
        29    655.1664    993.7663 307.6413765  +6.2832989     1424.226     2333.927     2434.353     82.55465     165.5057     331.1764      1.653     4.33     977.6666     58.42171     209.4929        15     1.352     0.786  40.86   0
        30    933.4362    982.9214 307.5261807  +6.2970747     45687.39     69984.46     73720.09      82.9506     165.8353     331.4401      1.666     3.89     970.4291     58.42171     6545.151        64     1.609     1.152  47.01   0
        31      6.2654    982.7089 307.9112085  +6.2660806     3062.502     4748.024      4797.45      82.9506      165.967      317.126      1.677     4.18     985.0383     58.42171     473.3734        24     1.510     0.901  44.71  16
        32    240.5518    981.0784 307.8139779  +6.2746342     1751.617     2664.875      2441.71     83.08216     165.8353     331.3742      1.590     4.25     984.5998     58.42171     276.6927        15     1.283     0.829  69.37   0
        33    128.6967    980.7682 307.8604360  +6.2710020     636.6267      838.269     618.9971     83.21352     165.5717     331.5389      1.671     6.68     985.1066     58.42171     99.82605         7     1.337     0.937  30.04   0
        34    639.4826    979.7021 307.6483626  +6.2885798      966.698      1470.82     1787.035     83.08216     166.1643      331.506      1.468     5.15     977.6151     58.42171     177.6265        12     1.493     0.604  36.35   0
        35    831.5610    976.7570 307.5686950  +6.2962180     2399.634     3779.587     3969.516     82.81882     165.7036     331.3083      1.715     4.54     973.2781     58.42171     329.7594        22     1.567     0.890  45.46   0
        36    779.5483    974.5235 307.5903701  +6.2954021     6860.958     10367.09     11157.08     83.08216     165.8353     331.4401      1.683     4.06     975.2501     58.42171     984.9838        29     1.467     0.985  50.49   0
        37    566.2587    973.8041 307.6789691  +6.2885630     881.0333     1352.187     1558.819     82.42225     165.6376     331.1764      1.798     5.75     979.7332     58.42171     130.5269        11     1.390     0.671  47.58   0
        38    248.8774    973.6865 307.8107703  +6.2779652     1446.382     2497.721     2496.768     83.08216     166.0986     331.5389      1.782     4.72     984.5703     58.42171     224.1117        17     1.367     0.953  53.68   0
        39    213.1514    972.7339 307.8256378  +6.2771580     853.7108     1310.302     994.8687      82.9506     165.6376     331.4401      1.534     4.86     984.6663     58.42171     138.4838         9     0.985     0.680  75.13   0
        40     73.9766    971.5703 307.8834692  +6.2729578     2878.445     4536.996     4223.575     82.55465     165.6376     331.2753      1.677     3.90     985.1116     58.42171      372.002        24     1.439     0.972  48.69   0
        41    967.7827    969.6634 307.5123615  +6.3036938     6943.293     10862.52     11746.95     82.55465     165.7036     331.2753      1.675     3.91     968.4609     58.42171     970.9231        34     1.535     1.034  47.42   0
        42    224.1547    966.0775 307.8212935  +6.2802755     673.4245     1067.203     705.6135      82.9506     165.8353     331.4401      1.694     4.90      984.578     58.42171     95.11877         6     1.046     0.650  80.01   0
        43    649.8357    964.0703 307.6445890  +6.2953792     872.9849     1166.192     1149.634      82.9506     165.7695     331.4731      1.428     5.51     976.9549     58.42171     119.9187        10     1.293     0.662  39.44   0
        44    941.7316    961.3389 307.5234595  +6.3062611     2064.466      3188.06     3061.903     83.21352     165.7036     331.4401      1.643     4.11     969.2659     58.42171     318.7695        19     1.351     0.905  29.97   0
        45    274.5917    957.6033 307.8006353  +6.2854681     4395.142     6936.814     7139.283     82.42225     165.4397     331.3083      1.719     4.31     984.4706     58.42171     657.2622        30     1.641     0.958  49.23   0
        46    800.9133    957.7123 307.5820622  +6.3030559     1547.454     2532.993      2806.47     82.81882     166.0328     331.5389      1.711     4.38     973.6616     58.42171     207.1765        16     1.298     0.842  52.49   0
        47    662.2347    957.2577 307.6396690  +6.2986064     4632.703     7092.241     7281.385      82.9506     165.7695     331.4731      1.648     4.19     976.4585     58.42171     663.9306        23     1.450     0.904  47.68   0
        48   1011.7720    957.1747 307.4945115  +6.3103165     668.8678     1209.221     1760.766     82.55465     165.5717     331.3083      2.456     5.95     965.4786     58.42171     94.59717         7     1.158     0.861 -45.49   0
        49    484.4359    955.8097 307.7135541  +6.2932495     1102.493     1697.403     1456.545     82.55465     165.5057     331.2094      1.694     5.44     981.7308     58.42171     152.8807        12     1.213     0.877  42.59   0
        50     43.1373    954.8982 307.8968390  +6.2788018     2209.154     3297.191     3211.525     82.81882     165.9012      331.506      1.553     4.19     985.0775     58.42171     306.5883        19     1.367     0.883  65.55   0
        51    894.2855    953.9271 307.5434124  +6.3077371     957.7643     1199.112     1135.653     83.21352     166.0986     331.4731      1.350     4.36     970.5494     58.42171     141.5199         9     1.061     0.692  24.57   0
        52    986.2987    951.7480 307.5052725  +6.3117071     654.9349     1030.447     1051.438      82.9506     165.7695     331.6707      1.678     3.44     966.5066     58.42171      102.921         5     1.133     0.302  54.49   0
        53    965.3081    950.4986 307.5140318  +6.3115227     671.1134     1049.925     869.1965     83.08216     166.2957     331.4071      1.696     5.78     967.5566     58.42171     89.36951         8     1.259     0.747  21.02   2
        54    586.8005    949.8918 307.6712434  +6.2991220     1701.963     2593.102      2282.65     82.28963     165.2415     331.1104      1.577     4.44     978.2918     58.42171     262.1164        18     1.491     0.830  41.74   0
        55   1017.8837    949.3883 307.4922343  +6.3137346     732.4039     1551.442     2148.842     82.68684     165.5717     324.1768      2.512     7.11     964.4975     58.42171     132.1498        10     1.657     0.856  81.04  16
        56    625.9631    946.0469 307.6551091  +6.3020203     1263.884     1982.689      1669.45     82.81882     165.7695     331.3412      1.621     4.22     977.1447     58.42171     177.1838        15     1.281     0.857  48.57   0
        57     74.9291    946.5670 307.8839194  +6.2833109     807.8349     1432.906     1550.188      82.9506     165.7695     331.4401      2.437     6.71     985.0887     58.42171     170.6263        13     1.916     0.815   8.96   0
        58    306.1553    944.0285 307.7879862  +6.2921316      1386.41     2460.543     2765.959     82.68684     165.8353     331.3412      1.803     4.46     984.1592     58.42171     212.6414        15     1.385     0.768  46.02   0
        59    310.0801    950.5954 307.7861348  +6.2895527     844.1315     1275.555      1473.08     82.68684     165.3076     331.1764      1.544     4.10     984.1775     58.42171     123.6972         9     1.010     0.705  82.93   0
        60    772.5430    939.9335 307.5944413  +6.3094470     827.3799     1212.385     1483.324     83.21352     165.7036     331.4071      1.440     5.52     973.8253     58.42171     152.3528        11     1.510     0.624  40.29   0
        61    910.4166    936.5176 307.5372972  +6.3154624     7531.073     11245.37     11828.61     82.68684     165.4397     331.3412      1.650     4.06      969.723     58.42171     1073.162        34     1.557     0.987  49.47   0
        62    119.6168    935.3057 307.8657435  +6.2894630     500.2932      613.489     -39.5714     82.81882     165.5717     331.2753      1.504     4.93     984.9391     58.42171       72.172         6     1.183     0.581  63.90   0
        63    446.2606    933.8162 307.7301485  +6.3010486     2066.299     3101.071     2584.041     82.55465     165.7036     331.1764      1.635     4.19     981.9564     58.42171     299.9468        18     1.335     0.857  47.06   0
        64    348.0211    932.0593 307.7710044  +6.2984780     9453.524      15016.4     15661.52     82.68684     165.7036     331.2753      1.666     3.92     983.4245     58.42171     1269.318        38     1.552     1.091  48.38   0
        65    268.1716    931.0436 307.8041980  +6.2962161     6912.866     10881.42     11101.49     82.68684     165.8353     331.3412      1.658     4.00     984.3617     58.42171     994.8068        34     1.531     1.042  47.46   0
        66    596.3035    925.5676 307.6681155  +6.3094813     1327.259     1821.796     1799.355     83.21352     165.6376     331.5389      1.401     3.83     977.4482     58.42171     199.4199        12     1.128     0.732  50.75   0
        67    926.1308    921.7166 307.5312675  +6.3220969     1170.078     1788.862     1858.469     83.34467     166.0328     331.4731      1.639     4.61     968.6579     58.42171     168.2471        13     1.223     0.784  64.67   0
        68    230.2177    921.1923 307.8202918  +6.2990074     672.0609     827.9103     1068.424     82.68684     165.5057     331.2753      1.597     6.19     984.4418     58.42171     87.05969        10     1.448     0.744  43.75   0
        69    158.8651    921.9041 307.8498982  +6.2963150     653.6111      930.166     1061.041     83.08216     165.9012     331.4731      1.643     5.88     984.5839     58.42171     94.48804         7     1.427     0.682  43.91   0
        70    881.9700    919.9592 307.5496668  +6.3213482     794.2999     1283.644     1097.263     82.55465     165.6376     331.3083      1.693     5.69     970.0697     58.42171     112.4462        10     1.503     0.606  64.09   0
        71    424.7233    919.6911 307.7395687  +6.3061571     605.0187     697.5522      809.361      82.9506     166.0328     331.4401      1.462     4.83     982.1371     58.42171     108.9115         5     1.055     0.626  57.72   0
        72    993.5649    917.8266 307.5033919  +6.3259526     738.8546     1331.227     1783.733     82.42225     165.5717     331.2094      2.009     5.55     964.4667     58.42171     148.0698         8     1.608     0.539  50.71   0
        73    855.3519    915.4880 307.5608716  +6.3223051     685.0524     965.4614     1365.857     83.08216     165.6376      331.506      1.899     3.52      970.705     58.42171     107.4022         5     1.130     0.316  70.71   0
        74    762.6899    914.7701 307.5993787  +6.3195052     1602.304     2425.696     2592.362     83.21352     165.5057     331.4071      1.651     4.78     973.2562     58.42171     239.8823        16     1.487     0.704  45.85   0
        75    586.3326    914.8065 307.6726185  +6.3135896     642.5034     1051.502      1037.54     82.55465     165.5057     331.2423      1.979     3.41     977.2916     58.42171     99.57208         5     1.189     0.283  34.44   0
        76    994.2165    910.7198 307.5033595  +6.3289081      1382.41     2143.708     2760.466     82.68684     165.5057     331.2753      1.744     5.30      964.462     58.42171     189.2694        16     1.483     0.758  42.24   0
        77    627.0969    911.4910 307.6558009  +6.3163231     761.4245     1152.202     1193.237     83.08216     166.2957     331.4401      1.679     4.95     976.1038     58.42171     152.8062         9     1.620     0.429  37.19   0
