#   1 NUMBER                 Running object number                                     
#   2 X_IMAGE                Object position along x                                    [pixel]
#   3 Y_IMAGE                Object position along y                                    [pixel]
#   4 ALPHA_J2000            Right ascension of barycenter (J2000)                      [deg]
#   5 DELTA_J2000            Declination of barycenter (J2000)                          [deg]
#   6 FLUX_APER              Flux vector within fixed circular aperture(s)              [count]
#   9 FLUXERR_APER           RMS error vector for aperture flux(es)                     [count]
#  12 FLUX_RADIUS            Fraction-of-light radii                                    [pixel]
#  13 FWHM_IMAGE             FWHM assuming a gaussian core                              [pixel]
#  14 BACKGROUND             Background at centroid position                            [count]
#  15 THRESHOLD              Detection threshold above background                       [count]
#  16 FLUX_MAX               Peak flux above background                                 [count]
#  17 ISOAREA_IMAGE          Isophotal area above Analysis threshold                    [pixel**2]
#  18 A_IMAGE                Profile RMS along major axis                               [pixel]
#  19 B_IMAGE                Profile RMS along minor axis                               [pixel]
#  20 THETA_IMAGE            Position angle (CCW/x)                                     [deg]
#  21 FLAGS                  Extraction flags                                          
         1    591.8967     65.7677 307.6898230  +6.6550773     915.0421      2330.36     2343.284     89.09073     177.3363     354.9549      2.364     8.60     1095.319     62.54792     124.5281        18     1.769     1.168  89.09   0
         2    631.5914     26.2608 307.6746582  +6.6727168     11249.73     24746.21     28157.06     88.24357     177.3363      354.602      2.306     5.74     1093.696     62.54792     1136.806        67     2.151     1.465  50.80   0
         3    531.4099     22.4162 307.7164455  +6.6709559     3227.084     7276.468     8611.633     88.66816     177.1951     354.7079      2.431     6.02     1095.358     62.54792     326.0758        41     2.005     1.305  41.54   0
         4    436.9652     18.0687 307.7558641  +6.6695912     13137.57     30702.61     35840.25     88.80923      177.548     354.9549      2.408     5.70     1100.098     62.54792     1235.905        73     2.154     1.581  47.37   0
         5    257.5544     18.5073 307.8304483  +6.6633989     5401.664      12405.4     15097.12      88.9501     177.4069     354.9902      2.469     5.73     1118.646     62.54792     550.0394        56     2.085     1.508  51.69   0
         6    914.3871     18.1668 307.5573393  +6.6854921      1417.97     2550.215     2415.514     88.38532     177.1951     354.7432      1.885     7.33     1083.992     62.54792     165.1221        19     1.472     1.022  56.09   0
         7    617.9569     16.6020 307.6806554  +6.6762496     2049.679     4767.923     6069.931     88.24357     177.0537     354.4961      2.585     7.54     1093.759     62.54792      214.231        36     1.994     1.375  63.65   0
         8     22.8420     17.8326 307.9280614  +6.6557966     1340.853     3063.382     3672.002     88.66816     177.4774     354.6726      2.461     7.00     1123.644     62.54792      176.072        22     1.680     1.079  59.75   0
         9    245.6114     15.3821 307.8355206  +6.6642888     1703.281     3826.994     4890.004     88.52686     177.1244     354.7432      2.525     5.82     1118.819     62.54792     207.0677        29     1.570     1.301  73.07   0
        10    935.5246      8.0940 307.5488904  +6.6903554     695.7411     1136.121     1021.065     88.80923     177.6889     353.6121      1.806     5.10      1082.74     62.54792     113.5375         7     1.191     0.618  52.05  16
        11    686.7420      7.3760 307.6523660  +6.6823566     1025.972     2273.652     2465.778     88.52686     177.4774     349.1586      2.281     7.25      1091.35     62.54792     136.6176        16     1.628     0.904  57.63  16
        12    175.4608      2.0219 307.8651439  +6.6674516     4907.571     8522.856     8446.629     85.65183     152.4323     279.5437      1.838     6.77     1119.748     62.54792     585.7462        28     1.753     1.006   5.93  24
        13    520.4191      1.2616 307.7217341  +6.6793234     577.7801     661.1086     938.1545     76.21613     139.7495     265.5334      1.159     3.95     1094.934     62.54792     110.1072         6     1.016     0.439   1.26  24
        14    707.2265    997.1782 307.6103175  +6.2743207     889.6926     1505.307     2154.708     88.38532     177.2657     354.7785      1.892     5.12      1144.52     62.54792     124.5254         8     1.223     0.607  48.20   0
        15    794.1798   1023.7628 307.5732895  +6.2662422     1605.787     2004.713     2657.895     75.88689     139.2109      264.967      1.082     2.42     1145.926     62.54792     469.4607         8     0.983     0.425  -0.19  24
        16    578.7349   1017.7017 307.6630092  +6.2615573     127303.6     231118.1     251067.7      88.9501      177.548     348.7281      1.967     4.81     1148.685     62.54792     14851.04       105     2.030     1.258  49.38  19
        17    580.4259   1010.5726 307.6625483  +6.2645576     58920.03     108806.1     119652.1     88.38533     177.2657     354.6726      1.970     4.93     1148.419     62.54792     7035.241        85     2.010     1.268  49.25   3
        18    212.7333   1020.5223 307.8149766  +6.2481473     3060.319     5563.598     6130.086     89.09073      177.548     317.9699      1.954     4.85     1151.647     62.54792     397.9498        28     1.678     1.023  54.12  24
        19     64.9062   1023.7454 307.8762822  +6.2418582     682.1649     888.3118     934.7878     75.88689     139.6599      265.769      1.103     2.27     1151.569     62.54792     176.3107         5     0.828     0.435  -0.94  24
        20    237.6775    996.6771 307.8054241  +6.2588293     1109.789     1791.186     1438.714     89.23114     177.7594     354.9196      1.772     6.11     1151.302     62.54792     162.5073        13     1.374     0.814  45.45   0
        21    712.7620    994.5731 307.6081057  +6.2755811     2320.938     4342.038     5352.786     88.52686     177.2657     354.6726      2.064     4.77     1144.461     62.54792     302.5472        25     1.592     0.991  49.52   0
        22    728.5739    993.4670 307.6015733  +6.2765652     897.1355     1640.371     1366.821     88.52686     177.3363     354.7432      1.992     5.28     1144.389     62.54792     141.3867        10     1.417     0.555  47.84   0
        23    435.3629    994.9233 307.7233503  +6.2661715      698.069     1166.077      1187.79     88.80923      177.548     354.8491      1.665     4.66     1149.012     62.54792     113.9678         6     1.006     0.614  57.22   0
        24    359.4785    991.9163 307.7549808  +6.2648742     1509.267     3017.188     3647.465     89.09073     177.8298     354.9902      2.150     7.28      1150.07     62.54792      202.181        19     1.884     0.787  51.07   0
        25    746.3564    981.6721 307.5945838  +6.2820287     6394.148     11526.23     12296.48     88.80924     177.4774     354.8843      1.904     4.99      1143.83     62.54792     765.0771        37     1.822     1.071  47.10   0
        26    541.6752    982.3522 307.6796053  +6.2749162     3486.828     6777.575     7474.158     88.80924      177.548     354.8491      2.139     5.11     1148.541     62.54792     481.7266        35     1.838     1.144  50.39   3
        27    538.9520    974.5125 307.6810026  +6.2780625     6527.918     12225.94     13726.07      88.9501     177.3363     354.9196      2.066     4.66     1148.263     62.54792     881.3579        43     1.894     1.156  50.60   3
        28    511.7251    983.0917 307.6920243  +6.2736100     830.4584     1681.825     1665.805      88.9501     177.6185     354.8843      2.039     4.34     1148.644     62.54792     120.3433         9     1.035     0.761  53.20   0
        29    291.9018    981.1201 307.7834243  +6.2670697     11445.46     21952.09     25328.86     88.80923     177.9002     354.8843      2.079     4.92     1150.976     62.54792     1468.892        56     1.994     1.216  48.83   2
        30    415.5985    981.5632 307.7320156  +6.2710271     671.4728     1319.866     1572.335     87.95937     177.2657      354.602      2.144     6.37     1149.013     62.54792     94.43701         7     1.298     0.879  66.46   0
        31    807.1727    980.8036 307.5693438  +6.2844145       965.48     1382.978     1282.133     88.38532     177.1951     354.6726      1.601     5.62     1143.385     62.54792     139.7201        12     1.455     0.613  32.68   0
        32    263.6672    978.9194 307.7952299  +6.2670327     793.5748     1571.227     1644.221     89.09073     177.7594     354.8843      2.138     6.08     1150.941     62.54792     122.6232        11     1.557     0.669  52.73   0
        33    907.5639    975.1066 307.5278229  +6.2901108     7764.278     13410.38     14242.96     89.09073     177.3363     354.9549      1.842     5.05     1139.885     62.54792     966.7576        37     1.783     0.989  52.45   0
        34    881.1453    971.1992 307.5389322  +6.2908447     10537.84     18862.09      20505.5     88.24357     177.1244     354.4254      1.908     5.08     1140.665     62.54792     1340.307        46     1.793     1.143  42.65   0
        35    594.0391    971.9654 307.6582005  +6.2809543      1109.06     1707.206     1722.998     88.66816     177.3363     354.6373      1.489     4.05     1146.781     62.54792     164.5985        11     1.072     0.811  58.49   0
        36   1002.8892    970.6082 307.4883658  +6.2951403     4516.585     7715.852     8216.685     88.38532     177.1244     354.5314      1.811     4.90     1136.857     62.54792     636.4286        28     1.664     0.958  42.52   0
        37    525.5921    970.3391 307.6866951  +6.2793393     3395.319     6516.831     7343.716     88.24357     177.2657      354.602      2.068     5.05     1148.121     62.54792     394.9047        34     1.905     1.070  37.98   0
        38    635.2256    969.9457 307.6411559  +6.2831634     1017.053     1850.551     2170.919     88.52686      177.548     354.6726      2.077     5.93     1145.389     62.54792     138.4359        12     1.533     0.646  48.17   0
        39     60.0445    968.3589 307.8801886  +6.2645648     740.0152     1598.972     1835.676     88.66816     177.4774     354.7079      2.163     6.13     1150.818     62.54792     131.3953         8     1.422     0.743  43.08   0
        40    478.6501    966.8954 307.7063160  +6.2791924      1546.81     3118.714      3268.08     88.80923     177.4069     355.0254      2.080     5.95      1148.27     62.54792     236.5537        22     1.714     0.923  41.59   0
        41     49.3763    963.9567 307.8847709  +6.2660244     3670.988     3601.812     3090.596     88.38532     177.3363     354.6373      0.831     2.05     1150.835     62.54792     1087.608         6     0.725     0.466  76.19   0
        42    912.8926    958.7495 307.5261614  +6.2970426     37840.09     66645.94      71370.4     88.80923     177.3363     355.0607      1.878     5.01     1138.995     62.54792     4786.904        68     1.903     1.139  49.02   0
        43    220.2261    957.0211 307.8140234  +6.2746193     1410.653      2639.26     2825.387     88.52686     177.2657     354.7785      2.009     5.91     1150.345     62.54792     178.1213        19     1.453     1.043  60.94   0
        44    618.9174    954.6609 307.6484498  +6.2889305     700.3661     1222.259     574.7565     89.09073     177.4774     354.8843      1.838     5.13     1145.621     62.54792     114.1487         7     1.191     0.624  28.15   0
        45    810.9482    952.7337 307.5687243  +6.2961314     2008.998     3644.546     3895.399     88.80923     177.4069     354.8138      1.933     5.49     1141.738     62.54792      241.184        22     1.525     0.980  39.30   0
        46    759.0834    950.4119 307.5903534  +6.2953614     5463.114     10209.42     11186.89     88.52686     177.2657     354.6726      2.006     4.82      1142.17     62.54792     658.8574        37     1.769     1.111  49.08   0
        47    228.5193    949.8286 307.8108224  +6.2778671     1101.915     2074.657     2081.445     88.80924     177.2657     354.8138      2.158     5.17     1150.183     62.54792      174.955        13     1.264     0.864  76.72   0
        48    546.3184    950.0429 307.6787716  +6.2884128     684.1392       1252.7     1246.334     88.95009     177.4774     354.8138      1.510     4.18     1147.173     62.54792     98.61841         5     1.069     0.467 -24.30   0
        49     53.5221    947.8522 307.8835971  +6.2728134     2316.443     4163.887     4373.835      88.9501     177.4774     354.8491      1.941     4.54     1150.505     62.54792     293.2284        26     1.667     0.943  55.37   0
        50    192.6976    948.8733 307.8257381  +6.2770608     595.2476     1318.567     938.0786     88.52686     177.6185     354.8491      2.208     4.85     1150.313     62.54792     88.49951         5     1.110     0.601  29.35   0
        51    947.2402    945.4150 307.5123396  +6.3036922     6111.387     10737.51     10879.07     88.38532     177.2657      354.602      1.868     5.10     1137.533     62.54792     786.8018        36     1.876     0.990  53.95   0
        52    920.9581    937.4676 307.5235289  +6.3060992     1865.925      3340.97      3360.37      88.9501     177.4069     354.9196      1.895     5.21      1137.78     62.54792      277.037        19     1.574     0.802  51.34   0
        53    641.8930    933.2820 307.6396275  +6.2985255     3494.439     6477.304     6342.679     88.66816     177.8298     354.9549      1.928     5.39     1144.398     62.54792     387.6466        31     1.753     1.036  49.27   0
        54    254.0296    933.6915 307.8007719  +6.2853853     3137.086     6310.291     7423.723     89.09073     177.1951     354.7785      2.169     5.57     1149.996     62.54792     393.2894        34     1.875     1.110  51.07   0
        55     23.1796    931.2742 307.8967685  +6.2786399     1631.201     3081.056     3371.019     88.52686     177.3363     354.7785      2.074     7.06     1150.036     62.54792     220.1946        21     2.091     0.728  55.41   0
        56    780.6663    933.8212 307.5819466  +6.3029318     1054.923      1713.99     1973.599     88.52686     177.4774     354.7785      1.865     5.60      1141.15     62.54792     172.0281        12     1.320     0.717  38.79   0
        57    464.1658    931.6323 307.7135307  +6.2932692     945.0726     1871.021     1946.277     88.52686     177.1951     354.5667      2.034     5.41     1147.705     62.54792      156.845        12     1.419     0.830  19.06   0
        58    873.2169    929.3791 307.5436399  +6.3078497     808.7095     1196.702     1317.894     88.66816     177.2657     354.7432      1.583     5.46     1138.819     62.54792     104.9589         9     0.946     0.889 -18.99   0
        59    566.6895    926.1201 307.6711183  +6.2989718     1400.643      2490.11      2582.62     88.66816     177.7594     354.9549      1.852     5.06     1145.906     62.54792     176.0859        19     1.329     1.039  48.60   0
        60    997.1730    925.3518 307.4922686  +6.3136383     1534.449     2218.873     2299.001     88.52686      177.548     354.7785      0.728     0.00     1136.053     62.54792     932.6281         6     0.855     0.269  47.43   0
        61     55.6069    922.2401 307.8836035  +6.2834589     677.5327     1157.762     1400.199     88.24357     177.1244     354.4961      1.739     5.09     1150.133     62.54792      107.434         6     1.097     0.667 -74.05   0
        62    605.5483    922.0168 307.6551109  +6.3019639      928.576     1510.783     1431.552     88.38532      177.548     354.5667      1.678     5.14     1145.111     62.54792     126.1672         7     1.156     0.645  21.37   0
        63    285.5371    919.7824 307.7881536  +6.2921842     1315.516     2320.729     2857.849     88.52686     177.4069     354.6726      2.050     6.38     1150.091     62.54792     180.4797        16     1.549     1.005  47.96   0
        64    752.7534    916.3469 307.5941362  +6.3092170     784.6527     1430.202     1874.472      88.9501     177.4774     354.8843      2.536     7.18     1140.793     62.54792     105.8204        12     1.456     0.993  56.80   0
        65    889.8915    912.4326 307.5372839  +6.3154029      5813.85     10313.54      11265.7     89.09073     177.3363     354.8843      1.887     5.12     1137.526     62.54792     688.7349        37     1.842     1.001  48.65   0
        66    425.7457    909.8947 307.7302324  +6.3009603     1499.416     2833.719     3157.041     88.80923     177.4774     355.0959      2.156     8.50     1148.106     62.54792     184.7903        23     2.042     0.988  45.72   0
        67    327.6062    908.1443 307.7710694  +6.2983987     7003.848     13822.79     15392.08     88.38532     177.3363     354.5314      2.105     5.10     1149.782     62.54792     919.7896        47     1.965     1.214  50.84   0
        68    247.7347    907.0679 307.8042928  +6.2961678     5223.069     9866.749     11072.13      88.9501     177.4774     354.8843      2.030     4.73     1149.755     62.54792     722.3073        40     1.858     1.144  47.59   0
        69    576.0818    902.1251 307.6680290  +6.3091937     891.7827     1798.816     1632.101     89.23114     177.8298     354.9196      2.009     7.69     1145.111     62.54792     116.9141        16     1.623     1.020  46.77   0
        70    972.8694    892.9484 307.5034616  +6.3262105     600.5504     959.9722      1188.37     88.80923     177.3363     354.8138      1.741     5.74     1134.665     62.54792     99.20813         9     1.631     0.569  50.80   0
        71    741.7700    890.5286 307.5995739  +6.3195120     1316.707      2280.99     2336.131     88.80924     177.4774     354.8138      1.891     7.13     1140.259     62.54792     156.6171        18     1.517     0.939  43.79   0
        72    905.1508    897.6116 307.5314439  +6.3220310     892.4888     1647.461     1980.454     88.24357     177.4069     354.4961      1.900     4.95     1136.603     62.54792     137.1869         9     1.323     0.524  53.03   0
        73    973.3380    886.2916 307.5034917  +6.3289749     1160.653     1833.538         1866      88.9501     177.6185     354.9549      1.759     6.68     1134.283     62.54792     146.3092        15     1.467     0.853  56.03   0
        74    660.4586    883.7669 307.6335903  +6.3195916     2068.868     3889.972     4198.677     88.80924      177.548     354.7785      2.086     5.56     1142.039     62.54792     273.0667        24     1.694     1.049  42.94   0
        75    526.8265    885.9976 307.6890425  +6.3142077     752.0255     1439.826     1267.433     88.38532     177.1244     354.6373      1.885     4.39       1145.9     62.54792     119.7428         5     1.070     0.511  49.41   0
        76     57.4088    880.3651 307.8842815  +6.3008102     2259.928     4339.958     4135.013     88.38533     177.2657     354.6373      1.986     5.20     1149.917     62.54792     306.1852        27     1.565     1.139  55.17   0
        77    949.2220    881.0060 307.5136914  +6.3303551     414.1616     861.4988     1066.779     88.52686     177.1951     354.6373      2.825     3.84     1134.892     62.54792     73.90674         5     0.829     0.510  33.25   0
