#   1 NUMBER                 Running object number                                     
#   2 X_IMAGE                Object position along x                                    [pixel]
#   3 Y_IMAGE                Object position along y                                    [pixel]
#   4 ALPHA_J2000            Right ascension of barycenter (J2000)                      [deg]
#   5 DELTA_J2000            Declination of barycenter (J2000)                          [deg]
#   6 FLUX_APER              Flux vector within fixed circular aperture(s)              [count]
#   9 FLUXERR_APER           RMS error vector for aperture flux(es)                     [count]
#  12 FLUX_RADIUS            Fraction-of-light radii                                    [pixel]
#  13 FWHM_IMAGE             FWHM assuming a gaussian core                              [pixel]
#  14 BACKGROUND             Background at centroid position                            [count]
#  15 THRESHOLD              Detection threshold above background                       [count]
#  16 FLUX_MAX               Peak flux above background                                 [count]
#  17 ISOAREA_IMAGE          Isophotal area above Analysis threshold                    [pixel**2]
#  18 A_IMAGE                Profile RMS along major axis                               [pixel]
#  19 B_IMAGE                Profile RMS along minor axis                               [pixel]
#  20 THETA_IMAGE            Position angle (CCW/x)                                     [deg]
#  21 FLAGS                  Extraction flags                                          
         1     77.7694     20.5108 307.9003120  +6.6519179     3421.733     10300.82     13801.69     92.97109     184.9866      370.231      3.016     7.90     1226.232     65.27221     424.4312        72     2.339     1.996 -41.32   0
         2    620.1806     11.9894 307.6747723  +6.6731086     6401.535     20063.88     27831.35     92.38266     184.8391     370.1573      3.058     7.51     1196.076     65.27221     730.4574        89     2.535     2.011 -40.46  16
         3    519.9935      8.2760 307.7166115  +6.6713887     2008.997     5822.126     8367.565     92.38266     184.6177     369.6044      3.085     8.08     1200.418     65.27221     238.0634        58     2.320     1.789 -18.97  16
         4    245.9585      4.7306 307.8308251  +6.6639324     3156.417        10022     14411.79     92.67735     185.2075     335.3747      3.420     9.51     1222.998     65.27221     451.1008        76     2.893     1.808 -35.20  24
         5    425.6888      4.0766 307.7560176  +6.6700577     7577.654     24136.04     31258.65     92.82433     183.6552     326.0999      2.943     8.16     1209.523     65.27221     872.7217        81     2.614     1.871 -22.85  24
         6     12.4270      5.7677 307.9280156  +6.6558793     696.2243     1815.887     1950.581     92.23497     184.9128     348.4925      2.424     5.17     1228.397     65.27221     108.6609         8     1.640     0.461 -42.31  16
         7    904.0499      4.4729 307.5568309  +6.6854220     706.5859     1772.721     2392.311     92.82433     185.2811     331.8602      2.724     3.54     1190.184     65.27221      95.9762         5     0.792     0.457 -17.00  18
         8    606.6540      2.7625 307.6807158  +6.6764849     1279.801     3015.952     3796.935     92.67735     169.6877     304.7926      2.595     8.98     1196.421     65.27221     143.1924        24     1.867     1.206 -22.74  24
         9    234.4936      2.4307 307.8356763  +6.6645096      1048.12     2220.865     3394.381     92.97109     165.0445     299.2401      2.678     8.17     1223.247     65.27221      144.442        17     1.944     0.959 -12.92  25
        10    199.8070    995.3658 307.8164937  +6.2527707     1124.386     2525.811     3229.539     92.23497     184.9866     370.0468      2.416     8.11     1253.395     65.27221     131.3103        19     1.721     1.068 -34.51   0
        11    689.6909   1022.3282 307.6117841  +6.2575439     2652.662     5151.263     5479.572     92.67735     168.6399     303.4027      2.091     6.77     1255.271     65.27221     360.0587        30     1.919     1.080 -26.66  24
        12    597.6049   1021.8100 307.6501115  +6.2547710     969.4992     2163.648     1964.257     92.23497      174.676     311.6924      2.330     6.06         1255     65.27221     130.7103        11     1.167     0.884 -65.37  18
        13    702.5364    992.1917 307.6074546  +6.2704232     4428.166     9820.705     11977.11     92.23497     184.9128     370.0836      2.495     5.64      1252.96     65.27221     481.7273        56     2.072     1.581 -30.42   2
        14    694.6277    991.5720 307.6107657  +6.2704231     846.2521      1649.16     2670.312     92.23497     184.9866     370.0836      4.651     6.06     1253.103     65.27221     128.5504         8     1.512     0.684 -85.06   2
        15    558.7142    991.4746 307.6673136  +6.2660536      2400.43     5697.401     7656.706     92.97109     185.5752     370.3782      2.716     6.71      1253.27     65.27221     242.7456        44     2.109     1.444 -52.05   0
        16    417.4459    992.7322 307.7260423  +6.2609437     2213.988     5400.694     7104.139     92.82433     185.1339     370.3046      2.794     7.71     1253.651     65.27221     228.8037        40     2.008     1.435 -36.96   0
        17    734.4127    988.1301 307.5943295  +6.2731362     949.4697     1884.335     2925.677     92.23497     184.9128     370.1573      2.398     5.13     1252.178     65.27221      151.156        11     1.316     0.882  33.25   0
        18    942.0119    981.6113 307.5081777  +6.2825533     5098.702     9808.775     10941.51     92.67735     184.9866     370.2678      2.061     4.78     1249.726     65.27221     629.7858        43     1.968     1.179 -39.29   0
        19    701.9467    979.9051 307.6081136  +6.2754852      1680.02     3843.331     5584.203     92.67735     185.0602      370.599      2.909     7.55     1252.187     65.27221     187.9745        29     1.885     1.176 -21.07   2
        20    348.2056    977.2773 307.7553697  +6.2650828      914.323     2336.781     2493.574     92.38266     184.6177     370.1205      2.497     8.67     1253.903     65.27221     106.8351        17     1.838     1.142 -35.59   0
        21    281.2455    966.5138 307.7835902  +6.2673545     8007.372     19587.32     24578.65     92.82433     185.0602     370.3046      2.683     6.12     1253.929     65.27221     803.6278        80     2.413     1.743 -33.86   0
        22    530.9127    967.5171 307.6796878  +6.2750583     2349.555     5566.322     6843.801     92.53012     185.4282     370.3782      2.524     6.82     1252.301     65.27221     261.3591        40     2.070     1.363 -33.98   1
        23    735.3260    966.9244 307.5946633  +6.2819353     4968.516     10612.55     12077.25     93.11762     185.5017      370.415      2.284     5.50     1250.974     65.27221     562.0425        48     1.949     1.403 -37.81   0
        24    500.0527    968.8752 307.6924808  +6.2734943     669.6782     1155.306     1211.424     92.82433     185.2811     370.3046      1.977     4.99     1252.465     65.27221     117.9297         6     1.173     0.600 -17.82   0
        25    796.4955    966.4214 307.5692307  +6.2841252     654.9794     1341.666     1511.289     92.67735     184.9866     370.0836      1.453     3.46     1250.375     65.27221     112.8282         5     1.096     0.315  21.23   0
        26    896.4341    960.2480 307.5278583  +6.2899137     6062.419     12283.76     14205.81     92.53012     185.2075      370.231      2.208     5.21     1249.175     65.27221     707.3472        48     2.046     1.263 -41.65   0
        27    528.3500    959.7905 307.6810146  +6.2781703     4801.377     10908.78     14533.48     92.23497     185.0602     369.9362      2.634     5.70     1251.998     65.27221     491.2397        59     2.154     1.588 -30.23   0
        28    870.2908    956.3162 307.5388676  +6.2906936     8104.429     16908.55     20303.84     92.53012     185.5752     370.4518      2.324     5.27     1249.195     65.27221     925.5408        60     2.185     1.356 -32.87   0
        29    514.7498    955.5692 307.6868152  +6.2794743     2337.157     5824.984     7656.454     92.38266     185.3547      370.231      2.734     7.16      1251.92     65.27221     275.5773        43     2.020     1.516 -34.00   0
        30    992.0252    955.6519 307.4882410  +6.2949060     3572.041     6971.887     7510.815     92.38266     185.2075     370.1941      2.086     5.01     1247.936     65.27221     465.3922        35     1.873     1.094 -30.34   0
        31    584.6271    956.5809 307.6577093  +6.2813249     720.8594     1647.539     2191.564     92.38267     184.9866     370.1941      2.628     5.46     1251.713     65.27221     126.3512         7     1.213     0.694 -13.83   0
        32    622.9952    954.7917 307.6418068  +6.2833100     776.0176     1753.314     1590.529     92.08704     184.9128     370.1205      2.312     6.47     1251.391     65.27221     123.9298        10     1.733     0.677 -19.73   0
        33     51.5724    954.0433 307.8795593  +6.2650249     546.8434     910.1135     1402.543     92.38266     185.2811     370.1941      1.654     4.15     1250.402     65.27221     90.59607         5     0.774     0.634  -7.33   0
        34    468.1806    951.8791 307.7063143  +6.2794872     1081.064     2512.423     3223.542     92.23497     184.8391     370.2678      2.542     7.84     1252.226     65.27221     136.7269        19     1.490     1.154 -17.49   0
        35    901.9659    943.9340 307.5261050  +6.2968394     29976.05     60819.32     69592.09     92.67735     185.2811     370.3414      2.224     4.91     1248.352     65.27221     3480.342        83     2.187     1.424 -38.54   0
        36    209.5288    943.1993 307.8142144  +6.2746599     823.2191     1892.859     2582.894     92.08704     184.6915     370.0836      2.385     5.41      1252.47     65.27221     124.9766         7     1.355     0.609  57.34   0
        37    799.9436    937.6153 307.5687651  +6.2961497     1515.172     3474.896     3686.222     92.08704     185.1339     369.9731      2.229     6.22     1249.194     65.27221     182.4343        29     1.788     1.280 -33.22   0
        38    748.2897    935.6983 307.5903207  +6.2952690     4001.116      8826.39     10524.89     92.82433     185.7221     370.3046      2.437     5.35     1249.199     65.27221     477.8572        51     2.059     1.488 -41.18   0
        39    980.6182    936.7578 307.4936215  +6.3023509     7072.701     7482.493     7473.617     92.23497     184.9866     370.0468      0.710     0.92     1247.335     65.27221     4400.398         9     0.813     0.323  28.74   0
        40    217.1397    935.6479 307.8113036  +6.2780306     763.2678     1584.479     2632.698     92.82433     185.1339     370.3782      2.614     6.78     1252.385     65.27221     110.0184        10     1.663     0.775  38.08   0
        41     42.3026    933.5016 307.8841118  +6.2732168     1608.743     3615.868      3880.83     92.82433     185.7221     370.1205      2.299     5.90     1250.158     65.27221      210.328        28     1.497     1.413 -78.30   0
        42    936.3424    930.6683 307.5122478  +6.3034375      4812.48     9248.456     10517.65     92.97109     185.1339      370.231      2.139     5.25     1247.468     65.27221     551.6627        43     2.011     1.191 -38.48   0
        43    910.0106    922.1701 307.5234892  +6.3061002     1416.825     2902.245     3561.293     92.23497     184.9866     370.1205      2.264     7.19     1247.211     65.27221     196.7242        23     1.941     0.994 -34.03   0
        44    630.7339    918.3617 307.6398146  +6.2986266     2587.245     6034.771     7049.824     92.67735     185.1339      370.415      2.486     6.83      1249.32     65.27221     289.1991        44     2.109     1.415 -27.67   0
        45    243.4966    918.6508 307.8009134  +6.2859181     2287.106     5723.498     7207.832     92.67735     185.1339     370.5255      2.714     6.81     1252.492     65.27221     221.6349        41     1.885     1.505 -20.06   0
        46    769.3738    919.1071 307.5821067  +6.3028134     912.4907     1615.427     1691.383     92.97109     184.9128     370.1205      1.719     5.71     1248.282     65.27221     133.6843         9     1.196     0.768 -11.68   0
        47    452.9818    916.7516 307.7138233  +6.2935199     697.3379      1340.62     1386.535     92.23497     185.2811     370.0836      1.966     5.96     1251.678     65.27221     102.2782         7     1.207     0.828 -35.56   0
        48     12.7702    916.3168 307.8969801  +6.2793591     1278.412     3038.032     3639.899     92.82433     184.9866     370.1941      2.587     6.90     1249.597     65.27221     169.1873        23     1.763     1.166  -5.74   0
        49    556.0175    909.9755 307.6711836  +6.2996695     763.2468     1649.949     2548.527     92.53012     185.0602      370.231      2.675     7.41     1250.084     65.27221     112.0626        11     1.371     1.120  73.79   0
        50    274.2878    904.4162 307.7885846  +6.2928074     689.3382     1465.129      2068.51     92.53012     184.9128     370.1205      2.107     4.53     1252.731     65.27221     95.25024         5     1.197     0.488  -3.76   0
        51    878.9148    897.6717 307.5372507  +6.3152253     4650.806     9639.899     11353.73     92.97109     185.5017     370.3414      2.314     5.34     1246.451     65.27221      519.203        54     2.122     1.429 -37.23   0
        52   1001.3311    898.0707 307.4863022  +6.3190198     4293.084      3950.02     3820.701     92.82433     185.3547     370.2678      0.693     1.25     1244.154     65.27221     2098.125         7     0.588     0.435  42.21   0
        53    415.3764    895.6562 307.7301812  +6.3010210     1117.773     2789.587     3364.636     92.38266     185.2075     370.0836      2.621     9.38     1251.676     65.27221     147.0476        21     1.700     1.494 -41.84   0
        54    316.8091    893.6230 307.7712587  +6.2986551     4554.435     11688.62      14920.4     92.38266     184.9128     370.1205      2.689     6.39     1252.499     65.27221     492.7255        67     2.232     1.728 -38.59   0
        55    237.0895    892.5262 307.8044627  +6.2965127     3451.617     8891.081     10897.82     92.82433     185.5017     370.3414      2.664     6.54     1251.908     65.27221     346.8284        54     2.163     1.580 -48.00   0
        56    894.6214    882.1597 307.5312369  +6.3221486     708.4105     1467.804     1881.205     92.38266     184.9866     370.0836      2.218     3.44      1245.45     65.27221     93.72119         5     0.763     0.448 -72.59   0
        57    850.6215    880.7028 307.5495935  +6.3213270     570.4045     1018.076     988.8249     92.67735     184.9866     370.0836      2.229     4.09     1246.035     65.27221     93.07654         5     1.005     0.475  83.76   0
        58    731.2062    875.6340 307.5994504  +6.3195548     980.3484     2294.259     2677.122     92.08704     184.9866     370.0468      2.470     8.36     1246.011     65.27221     118.4691        15     1.756     1.112 -15.16   0
        59    962.0784    871.0080 307.5035436  +6.3289426     831.9048     1461.631     2218.234     92.38266     184.6177     370.0836      1.996     5.28     1243.087     65.27221     125.3226         8     1.607     0.489 -48.39   0
        60    649.7584    868.8804 307.6335664  +6.3197066     1370.392     3122.299     4626.177     92.82433     185.2075     370.2678      3.060     8.43     1246.989     65.27221     145.2068        24     1.548     1.283   4.97   0
        61    515.5502    871.1164 307.6893312  +6.3144251     740.1332     1497.815     2061.154     92.82433     185.2075     370.3782      2.509     4.67     1249.933     65.27221     96.95667         6     0.924     0.671  10.07   0
        62     46.8880    865.5905 307.8845058  +6.3014494     1373.248     3613.775     4482.452     92.38266     184.8391     370.0468      2.655    10.14      1248.96     65.27221     170.0209        32     1.818     1.575 -35.93   0
        63    189.9866    865.8049 307.8249637  +6.3060280     996.8787      2610.09     3280.982     92.38266     184.9128     370.1573      2.879     7.79     1251.086     65.27221     112.3024        16     1.372     1.238  57.36   0
        64     64.2558    864.8892 307.8773040  +6.3023062     888.5859      2210.08     2449.042     92.82433     185.0602     370.4886      2.525     7.28      1249.34     65.27221     136.7422        11     1.348     1.100  14.63   0
        65    644.4121    858.3458 307.6361458  +6.3238897     3596.456     8345.397     10755.39     92.08704     185.1339     369.9731      2.623     6.42     1246.558     65.27221     398.0601        51     2.208     1.462 -29.18   0
        66    881.8785    854.6529 307.5374636  +6.3331118     1841.603     3610.167     3771.144     92.82433     185.2075     370.3046      2.125     5.20     1244.238     65.27221     217.5786        28     1.557     1.253 -46.53   0
        67      3.8110    856.2410 307.9027443  +6.3039094     648.0458     1365.955      1670.21     92.08704     181.2641     321.6801      2.090     4.61     1247.993     65.27221     87.25647         5     1.315     0.460  60.42  16
        68    327.5139    851.9392 307.7682140  +6.3162413     7468.888     19702.12     25546.87     92.97109     185.3547     370.3782      2.809     6.58     1251.341     65.27221      721.002        79     2.418     1.805 -35.06   0
        69     92.2892    842.2952 307.8664065  +6.3125642     668.6389     1774.052     2380.838     92.82433     185.6487     370.3782      2.355     4.93     1249.408     65.27221     109.6095         6     1.710     0.403 -73.83   2
        70     89.1841    842.0000 307.8677084  +6.3125849     783.6539     1402.715     2249.334     92.23497     184.6177     369.9731      2.553     3.65     1249.363     65.27221     147.6143         5     1.058     0.362  -6.96   3
        71    872.3358    835.8374 307.5420669  +6.3405841     1044.082     2306.195     2962.169     92.67735     185.1339     370.3782      2.277     8.12     1243.026     65.27221     126.6074        19     1.840     1.002 -32.75   0
        72    806.5658    835.2159 307.5694544  +6.3387115     1795.294     3996.776     5115.456     92.38266     184.9128     370.1205      2.368     7.28     1243.078     65.27221     212.2761        31     1.969     1.214 -40.19   0
        73     74.6759    836.4576 307.8739322  +6.3144035     1211.392     3067.728     3367.716     92.97109     185.2075      370.231      2.351     7.83     1249.037     65.27221     154.2937        19     1.349     1.271  18.96   0
        74    842.8892    835.5613 307.5543288  +6.3397450     1266.915      2579.99     2852.982     92.82433     185.1339     370.3414      2.180     6.33     1243.133     65.27221     151.3253        17     1.516     0.996 -12.38   0
        75    542.4708    826.9377 307.6796205  +6.3335693     155882.5     402870.5     511230.5     92.97109     185.2075     370.3414      2.731     6.28     1247.574     65.27221        16014       196     2.562     1.946 -36.41   0
        76    386.9543    829.4502 307.7442427  +6.3274754     3413.023     9203.647     11466.22     92.82433     185.0602     370.3782      2.721     6.85     1250.197     65.27221      388.077        62     2.215     1.760 -27.97   0
        77    329.9849    828.1373 307.7679904  +6.3261647     5386.123     14897.81     18876.75     92.23497     185.1339     370.0836      2.790     6.89      1251.02     65.27221     515.1384        72     2.379     1.765 -38.24   0
