#   1 NUMBER                 Running object number                                     
#   2 X_IMAGE                Object position along x                                    [pixel]
#   3 Y_IMAGE                Object position along y                                    [pixel]
#   4 ALPHA_J2000            Right ascension of barycenter (J2000)                      [deg]
#   5 DELTA_J2000            Declination of barycenter (J2000)                          [deg]
#   6 FLUX_APER              Flux vector within fixed circular aperture(s)              [count]
#   9 FLUXERR_APER           RMS error vector for aperture flux(es)                     [count]
#  12 FLUX_RADIUS            Fraction-of-light radii                                    [pixel]
#  13 FWHM_IMAGE             FWHM assuming a gaussian core                              [pixel]
#  14 BACKGROUND             Background at centroid position                            [count]
#  15 THRESHOLD              Detection threshold above background                       [count]
#  16 FLUX_MAX               Peak flux above background                                 [count]
#  17 ISOAREA_IMAGE          Isophotal area above Analysis threshold                    [pixel**2]
#  18 A_IMAGE                Profile RMS along major axis                               [pixel]
#  19 B_IMAGE                Profile RMS along minor axis                               [pixel]
#  20 THETA_IMAGE            Position angle (CCW/x)                                     [deg]
#  21 FLAGS                  Extraction flags                                          
         1     14.6171     69.9311 307.9361996  +6.6320604     744177.4      1581520      1703182     83.51985     167.5742     335.2151      2.133     6.11     1007.283     59.10475     61273.59       435     2.165     1.854  84.31   4
         2    648.1607     22.8284 307.6745107  +6.6727815     19442.23      28170.8     29313.63     83.65359     167.4408     335.1818      1.528     3.29     973.9781     59.10475     2746.968        41     1.409     1.078  60.70   0
         3    547.9126     18.7827 307.7163096  +6.6710949     5436.998     8132.276     8962.521     83.78712     167.4408     335.1818      1.584     3.32     974.5692     59.10475     715.6121        27     1.359     1.035  64.81   0
         4     15.3709     17.4251 307.9376665  +6.6537640     1287.332     1913.407     1221.669     83.51985     167.5075     335.1818      1.537     4.47     1005.301     59.10475     193.1688        14     1.263     0.882  79.21   0
         5    634.3222     12.7417 307.6806018  +6.6764829     3472.627      5146.71     5881.939     84.18642     167.7076     335.2485      1.687     3.94     973.8985     59.10475     444.1635        22     1.426     0.875  64.46   2
         6    453.5205     14.4566 307.7556841  +6.6697170     23820.64        35414     36466.31     84.18642     167.7076     335.3152      1.654     3.50     979.9786     59.10475      2779.97        45     1.475     1.130  62.55   0
         7    274.1153     14.8665 307.8302278  +6.6635255     9222.982     14197.38     14579.42     84.18642      167.974     335.3819      1.613     3.64      999.234     59.10475     1181.527        36     1.445     1.098  66.48   0
         8     39.4771     14.5232 307.9277474  +6.6557741     2360.318     3614.161     3139.598     84.31911      167.974     335.3819      1.656     3.97     1003.639     59.10475     322.6362        18     1.291     0.903  68.00   0
         9    931.3407     14.3777 307.5571040  +6.6857345     2291.156     2975.096     3343.827     83.65359     167.6409     335.1818      1.339     3.14     965.3356     59.10475     404.2292        15     1.153     0.736  66.25   0
        10    567.0041     14.2517 307.7085282  +6.6736053     810.0906     1197.104     1212.384      83.3859     167.5075     334.8815      1.495     4.63     974.3196     59.10475     116.7895         8     0.992     0.614  65.24   0
        11    538.4200     14.4533 307.7204007  +6.6725644     530.1511     696.4843     409.7262     83.51985     167.7076     335.1151      1.315     3.93     974.7827     59.10475     84.62354         5     1.088     0.407  73.90   0
        12    261.8592     11.3819 307.8354390  +6.6645524     3095.864     4658.752      4657.05     83.65359     167.5742     335.0817      1.621     3.61     999.2227     59.10475     412.3449        24     1.345     0.987  55.19   0
        13    314.9922      9.9154 307.8134076  +6.6669428     1006.781     1365.514     1464.078     83.65359      167.374     335.1485      1.572     5.34     995.4207     59.10475      129.497        11     1.089     0.739 -88.72   0
        14    951.9286      4.6174 307.5488752  +6.6904514     1349.109     1715.673     2028.838     83.51985     167.6409     302.3207      1.377     4.71     963.3783     59.10475      165.004        11     1.047     0.716  74.57  16
        15    703.3411      3.9622 307.6522132  +6.6824174      1888.16     2524.696     2679.552     84.05353     165.2229     293.5787      1.423     3.17     971.6738     59.10475     311.7579        15     1.127     0.836  51.16  16
        16    722.0784   1002.7361 307.6108236  +6.2706496     1447.846     1648.364     1435.605     84.31911     167.7742     335.3152      1.289     3.78     1014.013     59.10475     243.1051        12     1.141     0.714  61.35   0
        17    811.7166   1022.9909 307.5729187  +6.2652806     15312.38     18075.77     18289.18     80.93684     143.5747     263.9436      1.238     3.04     1011.361     59.10475     2411.349        22     1.075     0.843  41.26  24
        18     82.2330   1023.1300 307.8758334  +6.2407791      7783.75     9130.179     9361.237     79.68408     141.7726     261.5611      1.191     2.60     1021.591     59.10475     1408.422        20     1.009     0.887  27.33  24
        19    762.0427    998.7704 307.5943607  +6.2736224     1486.355     2074.056     2419.259     83.65359     167.6409     335.1485      1.526     3.80     1012.608     59.10475     259.5696        12     1.207     0.729  60.56   0
        20    969.4919    993.0667 307.5084021  +6.2829006     7678.176     10294.01     10138.79     83.92043     167.9074     335.3485      1.400     2.92     1006.765     59.10475      1218.41        26     1.293     0.888  59.72   0
        21    723.9136    993.5220 307.6103712  +6.2745155     1205.536      1454.21     2218.169     84.05353     168.0405     335.4152      1.331     3.64     1013.574     59.10475     180.1215         9     1.073     0.559  61.02   0
        22    254.0579    993.0531 307.8055015  +6.2589708     1632.171     2259.293      2537.53     84.05353     167.7076     335.3152      1.496     3.79      1021.19     59.10475      305.601        15     1.300     0.741  69.99   0
        23    729.2381    991.1290 307.6082405  +6.2756815     3387.266     4637.333     5339.136     83.92043     167.7076     335.3819      1.406     3.19     1013.394     59.10475      554.249        17     1.191     0.767  65.47   0
        24    452.2267    991.7650 307.7232540  +6.2661493     1114.811     1577.819     1766.922      83.3859     167.4408     335.0817      1.585     3.90     1018.818     59.10475     147.4302        10     0.945     0.747  55.06   0
        25    744.8606    990.3296 307.6017797  +6.2765336     1116.919     1591.603     1475.469     84.18642     167.7076     335.3485      1.375     2.85     1012.935     59.10475     205.0305        11     1.001     0.680  58.88   0
        26    375.9216    988.4960 307.7550508  +6.2649412     2163.459     2873.913     2413.737     83.78712      167.974     335.3819      1.409     3.17     1020.236     59.10475     317.4993        15     1.118     0.813  56.77   0
        27    986.5392    986.3052 307.5015492  +6.2862608     649.5248     901.7452     776.4923     83.92043     167.7742     335.3819      1.388     4.10     1005.241     59.10475     128.2021         5     1.001     0.480  51.83   0
        28    713.8912    985.2511 307.6148114  +6.2775956     594.7941     922.6661     804.3859     83.92043     167.5075     335.5152      1.631     3.36     1013.239     59.10475     115.4956         5     0.964     0.339  45.57   0
        29    626.9800    983.1504 307.6509743  +6.2755569     527.1996     851.7192     884.2639     83.51985     167.7742     335.1485      1.580     3.81     1015.267     59.10475     105.8643         5     0.820     0.508  51.93   0
        30    308.2937    977.6010 307.7835016  +6.2671712     17538.44     23593.12     24876.92     83.51985     167.2404     334.9816      1.401     2.92     1020.918     59.10475     2745.065        37     1.331     0.980  65.05   2
        31    312.3090    974.6356 307.7819343  +6.2685303     1282.085     1925.151     2287.527     84.18642     167.5742     335.3485      1.729     4.04     1020.861     59.10475     202.4476        10     1.112     0.630  46.33   3
        32    762.7394    978.2578 307.5947607  +6.2821154      9445.67     12752.09     13497.38     84.18642     167.6409     335.3485      1.406     3.02     1011.603     59.10475      1382.05        29     1.300     0.919  60.43   0
        33    558.3029    978.8575 307.6796387  +6.2750313     4985.039     6842.761     7119.751     83.92043     167.6409     335.5152      1.440     2.90     1017.368     59.10475     843.8123        22     1.219     0.884  62.74   2
        34    555.4470    970.9898 307.6810896  +6.2781843     9714.081     12827.53     14100.07     83.51985     167.5742     334.9483      1.373     2.78     1017.076     59.10475     1554.201        32     1.299     0.979  71.26   2
        35    528.3292    980.0643 307.6920453  +6.2735296     1187.637      1587.13     1644.842     84.05353     167.7076     335.3152      1.461     3.66     1017.904     59.10475     217.9121         9     0.988     0.588  43.13   0
        36    134.6044    978.5963 307.8555930  +6.2609271     405.4254     540.1113     552.1555      83.3859     167.2404     335.1485      0.992     3.85     1021.102     59.10475     84.38666         5     1.041     0.408  73.70   0
        37      4.9025    978.6321 307.9094494  +6.2565500     953.6451     1650.078     1675.926     84.05353     167.5742     305.8864      1.746     3.86     1020.942     59.10475      177.679        11     0.983     0.811  77.66  16
        38    824.0607    977.6550 307.5693150  +6.2844122     1572.305     1969.369     2131.002     84.18642     167.7076     335.2819      1.459     3.51     1009.851     59.10475     233.6921        13     1.081     0.796  59.18   0
        39    432.6685    977.8401 307.7318452  +6.2712433      1216.86     1661.215     1647.529     83.92043     167.7076     335.4152      1.403     3.37     1018.754     59.10475     208.5403        10     1.036     0.643  48.48   0
        40    924.0323    971.6660 307.5279988  +6.2902212     10550.24     14123.76     14590.45     83.92043     167.7742     335.2485      1.401     2.97     1007.924     59.10475     1660.817        31     1.285     0.959  70.25   0
        41    279.8544    974.8398 307.7954045  +6.2673568     1113.394     1407.936     1148.088     83.92043     167.7742     335.3152      1.363     3.96     1020.956     59.10475     209.7797         8     1.059     0.502  57.25   0
        42    641.8815    973.2385 307.6451196  +6.2801480     576.9255     711.4955     786.2476     84.05353     167.7742     335.2485      1.461     4.51     1014.412     59.10475     110.8219         5     1.276     0.453  64.07   0
        43   1019.3387    967.3764 307.4885623  +6.2951698      5559.85     7820.265     8030.814     83.65359     167.6409     314.4284      1.477     3.02     1002.391     59.10475     889.8691        26     1.293     0.951  66.78  16
        44    897.6610    967.8649 307.5390782  +6.2909110     14538.56     19782.59     21214.94     84.05353     167.6409     335.3485      1.434     2.98     1008.257     59.10475      2128.82        42     1.301     1.147  45.36   0
        45      7.4358    970.1031 307.9086863  +6.2601568     753.6985     878.2495     1325.942     84.05353     167.5742     330.7163      1.226     2.90     1020.939     59.10475     145.1744         5     0.742     0.423  64.98  16
        46    610.6169    968.3279 307.6582684  +6.2811297     1653.965     2046.206     2093.497     83.51985     167.6409     335.2151      1.294     3.40     1015.164     59.10475     283.6116        11     1.175     0.570  71.50   0
        47    546.6729    967.8840 307.6848379  +6.2791730     582.4091     755.8148     1853.459     84.18642     168.0405     335.3485      1.188     3.81     1017.182     59.10475      134.433         5     0.860     0.485  39.85   1
        48    541.7825    966.8388 307.6869040  +6.2794408     4933.491     6813.009     7470.643     83.65359     167.5742     335.0817      1.436     2.95     1017.214     59.10475     746.9308        25     1.219     0.957  54.64   0
        49    651.3820    966.2009 307.6414110  +6.2833716     1708.076      2236.13     2131.316     83.65359     167.2404     334.9816      1.320     3.35     1013.932     59.10475     257.4509        14     1.097     0.764  65.04   0
        50     76.8019    965.5375 307.8800370  +6.2643755     1040.907     1267.402     1429.663      83.3859     167.5075     335.0484      1.261     2.89     1020.925     59.10475     170.9658         9     1.013     0.552  62.28   0
        51    495.0922    963.5350 307.7064046  +6.2792414     2637.655     3469.813     3096.086     84.05353     167.9074     335.3152      1.448     3.41     1017.362     59.10475     391.4734        16     1.150     0.873  41.07   0
        52    929.4045    955.3862 307.5263140  +6.2971225     52701.28     70209.12     72481.26     83.65359     167.4408     335.1818      1.432     2.92     1006.626     59.10475     8467.177        56     1.361     1.038  62.63   0
        53      2.3491    955.1721 307.9113040  +6.2661503     3623.147     4817.424     4398.121     82.98274     148.3235     269.3932      1.381     3.16     1020.938     59.10475      569.925        20     1.290     0.835  65.37  24
        54    236.6368    953.7602 307.8140629  +6.2746095     1990.972     2799.965     2676.482     83.78712     167.6409     335.1818      1.492     2.94     1020.706     59.10475     326.9082        13     1.099     0.722  63.22   0
        55    124.8333    953.0750 307.8605134  +6.2711360     799.9985     829.3216     977.2827     83.92043     167.7076     335.2819      1.249     3.70      1020.74     59.10475     146.9459         6     0.926     0.436  39.90   0
        56    775.5842    947.0135 307.5904763  +6.2954454     7965.574     10627.57     11635.51     83.78712      167.374     335.2485      1.425     3.08     1009.854     59.10475     1153.691        26     1.253     0.895  64.56   2
        57    635.6075    951.7585 307.6484478  +6.2888073     1088.146     1424.564     891.7592      83.3859     167.5075      335.015      1.251     3.41     1013.878     59.10475     181.2214         8     0.928     0.584  70.45   0
        58    827.3817    949.1724 307.5688924  +6.2962837     2976.766      3881.96     3578.872     83.65359     167.5075     335.2151      1.321     2.75     1008.919     59.10475     509.8682        18     1.188     0.809  63.67   0
        59    562.4042    946.6683 307.6790194  +6.2884595     1103.334     1479.938     1521.958      83.3859     167.3072     335.0817      1.474     3.63     1015.694     59.10475     165.7228        11     1.127     0.685  63.40   0
        60    245.1176    946.1205 307.8107992  +6.2780486     1752.123     2397.692     2388.882     84.18642      167.974     335.4485      1.426     3.62     1020.602     59.10475       286.77        14     1.234     0.701  70.32   0
        61    209.5018    945.7040 307.8256033  +6.2770244     1045.913     1557.824     1011.484     84.05354     168.3064     335.1485      1.505     4.22     1020.621     59.10475     158.5624        12     1.182     0.756  58.10   0
        62     70.0484    944.1246 307.8835659  +6.2729893     3210.508      4264.28     4158.272     83.92043     167.7742     335.3485      1.398     3.02     1020.707     59.10475     518.1476        18     1.111     0.897  74.90   0
        63    963.7409    942.1539 307.5124979  +6.3037312     8308.313     11304.99     11860.22     84.05353     167.7076     335.4152      1.419     3.03     1003.968     59.10475     1291.546        30     1.289     0.945  65.29   0
        64    219.2991    937.6602 307.8218066  +6.2806747     731.5045     991.6028     811.0197     83.78712     167.6409     335.4485      1.438     4.46     1020.518     59.10475       103.43         8     0.972     0.606  74.00   0
        65    646.0801    936.6353 307.6446075  +6.2954020     902.6443     1033.758     904.0975     83.92043     167.7742     335.3485      1.355     3.22     1013.199     59.10475     154.4149         7     1.010     0.493  68.65   0
        66    937.5199    933.7792 307.5236685  +6.3063148     2656.417     3384.563     3163.121     83.65359      167.374     335.3152      1.339     3.22     1004.721     59.10475      411.653        16     1.236     0.762  58.52   0
        67    270.4064    930.0238 307.8008412  +6.2855438     5038.852     6539.623     6193.893     83.51985     167.5075     335.1818      1.347     3.00     1020.381     59.10475      787.088        22     1.194     0.870  70.48   0
        68    796.9109    930.3602 307.5821788  +6.3030340     1546.792     1878.024     1666.103     84.05353     167.6409     335.3485      1.309     3.54     1008.777     59.10475      232.339         9     0.927     0.657  64.33   0
        69    658.2373    929.8100 307.6397883  +6.2986267     5237.085     6772.659      6904.94     83.51985     167.5075     334.9816      1.361     2.97     1012.827     59.10475      892.812        19     1.216     0.759  61.96   0
        70   1007.7874    929.2896 307.4946364  +6.3105113     809.1188     1025.671     853.4945     83.78712     167.4408     335.1818      1.447     5.35     1001.131     59.10475     129.8958         8     1.310     0.625  52.99   0
        71    480.4937    928.2746 307.7136553  +6.2933113     1355.621      1688.18     1649.803     83.78712     167.8409     335.2819      1.284     3.36      1016.06     59.10475     234.7132         9     0.940     0.657  67.95   0
        72     39.2507    927.3881 307.8969211  +6.2788635     2547.646     3384.514     3780.067      83.3859     167.5742      335.015      1.412     3.11     1020.701     59.10475     399.4467        16     1.233     0.712  65.43   0
        73    889.8933    926.0028 307.5437091  +6.3079370     1039.971     1229.666     856.5352     83.65359      167.374     334.9816      1.344     3.13     1006.465     59.10475     190.8256         9     0.972     0.609  57.54   0
        74    306.5104    923.6697 307.7860627  +6.2893791     982.9916     971.9218     1015.505     84.05354      167.974     335.3152      1.323     5.13     1020.213     59.10475     145.8766        10     1.198     0.622  88.09   0
        75    982.6689    924.5915 307.5052259  +6.3116139     621.5813     961.1038     1490.786     83.51985     167.4408     335.2151      1.312     3.39     1002.106     59.10475      121.856         5     0.750     0.443  20.67   0
        76    961.7469    923.5942 307.5139485  +6.3113282     898.5089     1487.724      1618.42     83.51985     167.4408      335.015      1.683     4.35     1003.034     59.10475     142.3586         7     0.911     0.593  74.62   0
        77    582.9938    922.4169 307.6712853  +6.2991621     2016.038      2474.71     2650.042     83.65359     167.4408     335.1485      1.358     2.99      1013.93     59.10475     300.9182        14     1.047     0.789  79.71   0
