#   1 NUMBER                 Running object number                                     
#   2 X_IMAGE                Object position along x                                    [pixel]
#   3 Y_IMAGE                Object position along y                                    [pixel]
#   4 ALPHA_J2000            Right ascension of barycenter (J2000)                      [deg]
#   5 DELTA_J2000            Declination of barycenter (J2000)                          [deg]
#   6 FLUX_APER              Flux vector within fixed circular aperture(s)              [count]
#   9 FLUXERR_APER           RMS error vector for aperture flux(es)                     [count]
#  12 FLUX_RADIUS            Fraction-of-light radii                                    [pixel]
#  13 FWHM_IMAGE             FWHM assuming a gaussian core                              [pixel]
#  14 BACKGROUND             Background at centroid position                            [count]
#  15 THRESHOLD              Detection threshold above background                       [count]
#  16 FLUX_MAX               Peak flux above background                                 [count]
#  17 ISOAREA_IMAGE          Isophotal area above Analysis threshold                    [pixel**2]
#  18 A_IMAGE                Profile RMS along major axis                               [pixel]
#  19 B_IMAGE                Profile RMS along minor axis                               [pixel]
#  20 THETA_IMAGE            Position angle (CCW/x)                                     [deg]
#  21 FLAGS                  Extraction flags                                          
         1    250.2818     12.3710 307.8329408  +6.6700060     674.8377     1345.555     1612.238     78.05976     155.8094     311.8361      2.150     7.41     835.0239     54.97711       96.362        11     1.685     0.913 -39.52   0
         2    196.2856     12.8699 307.8553586  +6.6679823     698.3242     1146.698     559.8274     78.30717     156.2434     311.9291      1.600     4.21     835.0522     54.97711     144.3292         7     1.117     0.452 -62.14   0
         3    173.3220     10.1600 307.8649915  +6.6683278     9752.929     16198.97     17143.55     78.05976     155.9956     311.9291      1.774     3.90     835.1158     54.97711     1294.487        44     1.673     1.123 -37.69  16
         4    919.0197      8.0948 307.5552186  +6.6941998     3806.115     6113.559     6368.286     78.05976     155.8094     310.6241      1.671     4.20     825.2281     54.97711     572.2157        31     1.611     0.972 -35.00  16
         5    517.6760      8.3780 307.7219740  +6.6806413     2683.248     4455.054     4744.277     77.81155     155.8094     311.6499      1.783     4.32     827.3884     54.97711     377.8011        25     1.550     0.949 -36.41  16
         6    719.5526      6.8406 307.6381437  +6.6880442     1806.256     2900.298     2918.579     78.05976     155.9956     303.1229      1.634     3.75     825.7156     54.97711     261.6647        17     1.360     0.802 -41.76  16
         7    455.8771      6.8932 307.7477020  +6.6791796     1682.903     2764.631     2966.819     77.93575     156.2434     303.6648      1.767     4.45     828.9311     54.97711     248.4808        20     1.483     0.850 -30.18  16
         8    983.6033      4.4680 307.5285044  +6.6978551     1924.288     3085.305      3217.16     77.56256     155.6231     279.0672      1.773     4.94     819.8796     54.97711     251.0459        20     1.559     0.828 -44.92  16
         9    702.7374      1.6519 307.6453057  +6.6896235     5515.542     7013.926     7153.461     71.86668     128.7545     240.0127      1.257     3.18     825.9594     54.97711     1049.585        20     1.365     0.675  -8.04  24
        10    622.6193      1.2937 307.6786082  +6.6870865     1788.989     2144.534     2264.083     67.27905     123.2272     233.9313      1.121     3.16     826.6146     54.97711     426.9733         9     1.097     0.446  -5.22  24
        11    710.6876   1004.6224 307.6082029  +6.2757487     2594.988     4444.504     6125.713     78.18356     155.8094     311.8051      2.264     4.88     859.6763     54.97711     331.4996        27     1.742     0.933 -39.48   2
        12    788.1857   1023.4026 307.5753950  +6.2705871     3615.773     5016.965     5476.438     70.91835     127.6227     238.7602      1.410     3.42     858.9062     54.97711     762.1642        21     1.513     0.740  -4.93  24
        13    578.6464   1020.5878 307.6624855  +6.2647338     67325.85     113502.6     124786.3     77.56256     155.8094     278.5121      1.844     3.87     860.8547     54.97711     9107.559       104     1.980     1.365 -34.96  24
        14    434.1388   1005.3516 307.7229949  +6.2661783     826.8588     1327.198      1102.57     78.18356     155.9335     311.9601      1.859     5.08     860.5261     54.97711     124.7827        10     1.119     0.651 -41.50   0
        15    726.1803   1003.8715 307.6017959  +6.2765773     851.4595     1504.092     1846.126     77.81155     155.8715     311.8361      2.026     5.51     859.4899     54.97711     120.2829        11     1.320     0.649 -46.66   0
        16    357.4268   1002.0899 307.7549535  +6.2649495     1748.226     2765.011     2825.837     78.30717     155.7474      311.774      1.698     4.18     859.8833     54.97711     239.5525        15     1.327     0.749 -47.61   0
        17    205.2359   1000.7578 307.8181824  +6.2603840     458.5764     550.9335     1005.354     77.93576     155.9956      311.743      1.305     3.77     858.1031     54.97711     74.85529         5     0.945     0.432 -45.13   0
        18    235.2985   1006.5992 307.8055040  +6.2589831     1300.692     2158.055     2306.587     77.68716     155.6231     311.5879      1.764     5.92     859.0508     54.97711     182.2648        14     1.517     0.650 -40.64   0
        19    539.8463    992.1570 307.6795532  +6.2751726      3891.83     6243.332     7675.413     78.18356     155.9956     311.8361      1.777     4.00     860.4064     54.97711     583.8781        28     1.607     0.965 -44.66   0
        20    509.9842    993.8934 307.6918927  +6.2734542     950.4524     1493.488     765.4408     77.93575     155.8094      311.743      1.695     4.13      860.483     54.97711     177.4873        13     1.315     0.704 -41.04   0
        21    290.2181    990.7827 307.7832385  +6.2673602     13566.24      23031.6     26494.04     77.93575     155.6852     311.8361      1.881     4.41     858.6454     54.97711     2082.888        64     2.173     1.125 -35.93   0
        22    744.4743    991.5612 307.5946149  +6.2822727     7151.427     11628.54     12597.41     78.05976     155.9956     311.9601      1.809     4.16      858.744     54.97711     977.2014        43     1.809     1.099 -36.92   0
        23    414.5774    991.3729 307.7315883  +6.2712937     1053.424     1559.693     1683.653     77.68716     155.8094     311.8361      1.641     5.65     859.8857     54.97711     124.5861        14     1.265     0.871 -60.84   0
        24    805.3737    991.3182 307.5693382  +6.2844102     953.4645     1358.276     1478.976     78.05976     155.8094     311.8981      1.449     3.38     857.5609     54.97711     190.8794         9     1.088     0.574 -31.92   0
        25    905.7208    985.1392 307.5278824  +6.2903158     7746.579     13607.06      14918.2     78.30717     155.9956     311.8981      1.893     4.02     855.6923     54.97711      903.202        48     1.762     1.251 -36.53   0
        26    261.2480    988.3954 307.7953466  +6.2673720     803.1629     1337.121     1467.599     77.56256     155.8094     311.5879      1.681     4.19     858.5464     54.97711     140.0837         6     0.742     0.675  84.41   0
        27    537.0867    984.4033 307.6809604  +6.2782816     7976.453      12595.2     14295.66     77.68716     155.6231     311.6499      1.691     3.85     860.1003     54.97711     1111.142        39     1.702     0.955 -37.88   0
        28    879.3943    981.2916 307.5389424  +6.2910249     10954.98     18916.96     20647.61     77.81155     155.6852      311.681      1.913     4.06     856.5049     54.97711     1326.705        58     1.914     1.250 -32.53   0
        29   1001.0750    980.8197 307.4884365  +6.2952835     4169.307     7372.933     8210.647     77.81155     155.8715     311.8361      1.937     3.91      852.414     54.97711     551.9012        35     1.662     1.130 -35.92   0
        30    591.6926    981.8491 307.6583750  +6.2811668     1400.679     2234.683     2653.488     78.05976     155.8715     312.0221      1.730     4.92     859.4972     54.97711     213.7256        18     1.540     0.883 -43.96   0
        31    523.4839    980.2984 307.6867465  +6.2795205     3888.442     6441.653     7660.193     78.18356     156.3671     311.9601      1.864     4.16     859.9473     54.97711     532.1599        32     1.646     1.023 -27.99   0
        32    632.9517    979.5630 307.6413219  +6.2834931     1464.802     2228.832     1996.087     77.93575     155.9956     311.8051      1.638     4.54     859.1886     54.97711      205.923        14     1.353     0.666 -38.44   0
        33     58.2866    979.2555 307.8799175  +6.2643156     892.1158     1234.281     1483.583     78.18356     155.9335     312.0531      1.584     3.98     855.7231     54.97711     121.9351         9     0.909     0.862  80.26   0
        34    476.5709    976.9139 307.7063381  +6.2793444     2140.383     3390.674     3227.458     78.30717     155.6852      311.743      1.710     4.11     859.8054     54.97711      284.137        19     1.453     0.817 -48.38   0
        35    911.1608    968.8572 307.5261709  +6.2972206     38549.85     66516.38     72882.82     78.18356     156.0576     311.8981      1.890     4.18     854.9011     54.97711      4886.25        88     1.940     1.350 -33.42   0
        36    218.1927    967.2201 307.8139381  +6.2746676     1506.219     2454.356     2353.159     77.81155     155.7474      311.712      1.561     4.13     857.5408     54.97711     246.1021        18     1.514     0.757 -49.28   0
        37    616.7922    965.5534 307.6485033  +6.2887365     814.1252     1406.173     1373.585     77.68716     155.8715     311.5258      1.599     6.36     858.8635     54.97711     121.5334        11     1.452     0.939 -54.53   0
        38    808.9722    962.9588 307.5687981  +6.2962406     2157.397     3708.592     3851.268     77.81155     155.8715      311.743      1.887     4.55     856.6158     54.97711     285.6514        25     1.545     0.989 -46.62   0
        39    757.1815    960.6906 307.5903780  +6.2954449     6262.376     10149.05     12065.72     77.93575     155.7474      311.774      1.810     3.87     857.2903     54.97711     824.0172        44     1.896     1.138 -42.14   0
        40    724.3615    961.6505 307.6039725  +6.2939502     489.6989     785.8852     800.5959     77.93576     155.9335     311.8671      1.585     4.18     857.7885     54.97711     66.39709         5     1.247     0.400 -36.87   0
        41    543.4072    960.2726 307.6791502  +6.2884574     978.0778     1379.047     1546.277     77.81155     155.5609     311.8051      1.504     4.62     859.1821     54.97711     141.7185        10     1.159     0.649 -57.51   0
        42    226.6207    959.7273 307.8106926  +6.2780448     1258.545     2279.843     2880.645     77.81155     155.8715     311.8671      2.456     5.06     857.5016     54.97711     218.3787        17     1.555     0.809 -44.90   0
        43    191.0837    959.2696 307.8254620  +6.2770384     780.7697     1293.565     1447.341     78.43059     156.2434     311.9291      1.672     4.33     856.7147     54.97711     121.0798         8     0.862     0.662 -45.66   0
        44     51.5566    957.6309 307.8834444  +6.2730177     2762.305     4276.506     3998.393     77.81155     155.9335      311.774      1.677     4.06     855.5911     54.97711     365.6975        23     1.497     0.871 -39.44   0
        45    945.4221    955.5824 307.5123914  +6.3038465     6134.068     10645.92     11316.09     77.93576     155.8715     311.8361      1.900     4.17     853.2965     54.97711     752.4567        43     1.745     1.168 -40.93   0
        46    201.3848    951.8007 307.8214381  +6.2804689     661.2501      1168.64     1268.092     77.81155     155.6852      311.681      2.009     6.42     856.7567     54.97711     95.55219        12     1.776     0.653 -44.20   0
        47    627.6622    949.6622 307.6445257  +6.2956624     697.4736     1059.364     801.5412     78.18356     155.9956     311.9291      1.685     3.74     858.3354     54.97711     150.6942         7     1.095     0.643 -36.79   0
        48    919.3099    947.4576 307.5235065  +6.3063292     2007.773      3484.19     3353.243     78.05976     155.9335     312.0221      1.854     4.67      853.824     54.97711      241.004        22     1.495     0.976 -38.07   0
        49    639.8730    943.3338 307.6396691  +6.2986845     4278.731     6666.065     6780.281     78.30717     156.0576     311.8981      1.633     3.59     858.0009     54.97711     635.3961        28     1.545     0.926 -32.75   0
        50    252.0064    943.3389 307.8007075  +6.2856653     4111.538     6576.908     6926.005     77.56255     155.8094      311.681      1.701     3.91     857.5476     54.97711     614.4163        31     1.588     0.999 -38.81   0
        51    778.2652    943.8412 307.5821911  +6.3031076     1035.718     1799.198     1903.371     78.18356     155.9335     311.9911      1.807     4.64     856.3682     54.97711     191.4878        11     1.273     0.666 -45.17   0
        52    461.9552    941.7147 307.7135945  +6.2933881     1046.034     1836.317     1715.211     78.18356     155.8715     311.8981      1.926     5.93     858.3937     54.97711     147.3107        14     1.561     0.742 -40.29   0
        53     20.7024    940.7925 307.8968247  +6.2789306     2000.161     3107.323     3288.392     77.93575     155.6231      311.681      1.698     4.75     855.4794     54.97711     315.6768        19     1.635     0.710 -44.30   0
        54    871.4990    940.0378 307.5436075  +6.3077955     972.6309     1407.947     1243.919     78.18356     155.8715     312.1151      1.427     4.67     854.9523     54.97711     152.4556        12     1.084     0.936 -18.61   0
        55    963.3482    938.0376 307.5055377  +6.3116897      453.754       755.78     941.1882     77.93575     155.9956     311.8981      1.565     4.74     852.0106     54.97711     87.91229         5     1.336     0.476  89.42   0
        56    943.5217    937.1108 307.5138011  +6.3114103     665.8582     1148.256     1262.432     77.93575     156.2434     312.0221      2.015     5.11     852.6442     54.97711     86.33636         8     0.987     0.749 -18.85   0
        57    564.2979    935.7365 307.6713040  +6.2992891     1436.477     2472.039     2087.651     78.05976     156.1195     311.9291      1.768     4.47     858.2357     54.97711     263.8282        17     1.546     0.736 -36.98   0
        58    288.1100    936.7070 307.7859422  +6.2896174     871.7503     1347.026     1778.213     78.18356     156.4908     311.9291      1.500     3.68     858.4269     54.97711     151.2726         8     1.035     0.514 -54.56   0
        59    995.4592    935.7923 307.4922801  +6.3136889     776.7751     1639.844     2122.247     77.56256     155.8715     311.6189      2.782     7.11     850.8027     54.97711     102.0252        12     1.438     0.986 -60.41   0
        60    603.5350    932.1647 307.6551331  +6.3020790     1174.398     1966.819     2774.599     78.05976     155.9956     311.9291      2.009     3.55     858.0734     54.97711     236.4526        13     1.300     0.617 -47.25   0
        61     53.6189    932.6490 307.8834350  +6.2834021     714.2036     1167.849     1416.927     77.68716     156.0576      311.681      1.712     4.62     855.4479     54.97711     114.7101         8     1.382     0.439 -45.18   0
        62    283.7342    929.6498 307.7879977  +6.2923843     1364.073     2095.779     2150.577     78.05976     155.8715     311.8671      1.664     3.97     858.2747     54.97711     194.4543        13     1.248     0.663 -37.76   0
        63    750.1721    926.5203 307.5944386  +6.3093198      922.619     1301.679     973.1856     78.05976     155.9335     311.8981      1.548     5.52     856.0804     54.97711     130.1307        12     1.332     0.645 -33.53   0
        64    552.8475    927.3959 307.6763395  +6.3023491     491.7615     784.4725     687.1151     77.56256     155.7474     311.5879      1.612     3.49     857.9466     54.97711     94.11127         5     0.847     0.416 -20.41   0
        65    888.0507    922.5340 307.5373234  +6.3155763      6546.33     10619.21     10890.42     78.05976     155.9335     311.8981      1.751     3.83     853.8625     54.97711     826.0034        38     1.630     1.086 -34.42   0
        66    127.1333    923.2679 307.8532316  +6.2897513     499.7212     787.5971     860.9811     78.18356     156.0576     311.9291      1.324     3.50     855.5675     54.97711     79.17407         5     1.020     0.346 -44.02   0
        67    424.0307    919.6033 307.7300872  +6.3012453     2119.698     3256.076     3395.163     77.68716     155.8094      311.712      1.604     4.17     857.6065     54.97711     275.9387        19     1.370     0.886 -46.13   0
        68    325.7021    917.9127 307.7709699  +6.2986410     9061.896      14482.2     15367.41     78.18356      156.429     311.9291      1.666     3.91     858.1946     54.97711     1377.851        43     1.690     1.052 -36.09   0
        69    245.7763    916.8773 307.8041893  +6.2963820     6797.809     10903.07     11707.87     77.81155     155.8715     311.8671      1.686     3.81     856.9786     54.97711     1034.732        36     1.718     0.974 -38.91   0
        70    757.7939    911.8950 307.5917662  +6.3156139     632.5391     895.1024     999.6624     77.93575     155.6852      311.712      1.610     4.40     855.6013     54.97711     92.86658         7     1.062     0.519 -67.64   0
        71    574.1943    911.2191 307.6680218  +6.3097444     1140.195     1827.842     2122.522     77.81155     155.6231      311.712      1.701     5.49     857.4982     54.97711     194.0536        14     1.499     0.833 -45.06   0
        72    903.7502    907.9781 307.5312940  +6.3221113     965.3666     1389.907     1705.397     77.68716     156.0576      311.774      1.712     6.07     853.1455     54.97711     126.7861        13     1.369     0.757 -43.94   0
        73    859.7843    906.9081 307.5495856  +6.3210838     717.7787      1379.04     1289.073     77.93575     155.8094      311.743      1.907     6.14     854.1027     54.97711      113.673        10     1.146     0.926  62.79   0
        74    136.2472    907.0620 307.8499965  +6.2967496     647.7603     945.0649     605.9932     78.05976     155.8715     311.9601      1.520     5.28     855.4359     54.97711     107.6367         8     1.258     0.646 -44.83   0
        75    402.8915    905.7896 307.7393308  +6.3062394     641.2227     884.8682     777.2176     77.93575     155.6231      311.681      1.447     5.08     857.5034     54.97711      97.9845         7     1.027     0.710 -66.13   0
        76    740.1276    900.7639 307.5994763  +6.3196190     1377.858      2182.27     2498.997     78.05976     155.9956     311.8981      1.642     4.30      855.514     54.97711     215.3887        14     1.360     0.655 -42.26   0
        77    563.7612    901.2390 307.6726903  +6.3135155     721.1798     1013.161     769.2916     77.93576     155.9956      311.774      1.438     6.11     857.2612     54.97711     116.5643        10     1.252     0.877 -49.38   0
