#   1 NUMBER                 Running object number                                     
#   2 X_IMAGE                Object position along x                                    [pixel]
#   3 Y_IMAGE                Object position along y                                    [pixel]
#   4 ALPHA_J2000            Right ascension of barycenter (J2000)                      [deg]
#   5 DELTA_J2000            Declination of barycenter (J2000)                          [deg]
#   6 FLUX_APER              Flux vector within fixed circular aperture(s)              [count]
#   9 FLUXERR_APER           RMS error vector for aperture flux(es)                     [count]
#  12 FLUX_RADIUS            Fraction-of-light radii                                    [pixel]
#  13 FWHM_IMAGE             FWHM assuming a gaussian core                              [pixel]
#  14 BACKGROUND             Background at centroid position                            [count]
#  15 THRESHOLD              Detection threshold above background                       [count]
#  16 FLUX_MAX               Peak flux above background                                 [count]
#  17 ISOAREA_IMAGE          Isophotal area above Analysis threshold                    [pixel**2]
#  18 A_IMAGE                Profile RMS along major axis                               [pixel]
#  19 B_IMAGE                Profile RMS along minor axis                               [pixel]
#  20 THETA_IMAGE            Position angle (CCW/x)                                     [deg]
#  21 FLAGS                  Extraction flags                                          
         1     87.1637     27.4731 307.9006495  +6.6511765      4060.81     12276.96     14377.19      91.6127     183.0799     366.0507      2.675     7.08     1206.018     64.52238      562.682        62     2.122     1.807 -87.02   0
         2    628.4054     20.2016 307.6754774  +6.6722351     7454.995     14268.13      17300.4     91.02917     182.7157     365.7958      2.129     8.23     1177.803     64.52238      798.856        41     2.487     1.039  81.49   3
         3    631.5103     19.4760 307.6742089  +6.6726382     7393.988     13618.43     14765.27       91.758     183.3708     366.0871      1.980     5.96     1177.706     64.52238     834.7589        34     1.910     1.061 -89.90   3
         4    528.2930     15.9658 307.7173183  +6.6706537     2259.093     4672.575     5919.407     91.90307     182.9343     366.1234      2.397     8.16     1181.398     64.52238     268.8916        32     2.218     1.238  83.28   2
         5    531.6812     15.3733 307.7159273  +6.6710114     1635.331     3338.527     4229.332      91.6127     182.8615     366.0871      2.158     5.87     1181.323     64.52238     259.1897        14     1.607     0.848  80.39   3
         6    255.7523     11.4772 307.8309822  +6.6634208     3799.026     11884.07     15114.96      91.6127     183.1527     366.0143      2.843     7.53     1203.339     64.52238     457.8788        60     2.127     1.900 -54.57  18
         7    435.1710     10.7920 307.7562794  +6.6696895     8628.812     28882.95     35005.65      91.3214     182.8615     365.7958      2.787     7.74     1186.616     64.52238     1047.664        82     2.155     1.996 -84.49  16
         8    912.2951     11.9371 307.5575147  +6.6850788     990.3421     1703.748     2591.654      91.6127     183.2254     366.0871      1.896     7.46     1170.109     64.52238     137.3729        13     2.410     0.647  79.80  18
         9    914.6678     10.6522 307.5565699  +6.6856885     852.1941     1596.506     2213.184      91.6127     183.0071     365.9779      2.309     9.08      1170.06     64.52238     117.0342        12     1.755     1.312 -80.66  18
        10    616.1181      9.3151 307.6809650  +6.6763250      1570.31     4593.632     6431.367     91.46716     183.4434     366.1234      3.099    10.14     1177.552     64.52238      171.257        43     2.177     1.628  69.74  16
        11     22.1730     10.9619 307.9282801  +6.6558245     1145.686     2608.937     1591.915      91.3214     182.8615     365.8687      2.241     8.30     1209.885     64.52238     147.4827        21     1.580     1.277 -49.69   0
        12    242.9029     10.0000 307.8363842  +6.6636021     1239.221     2536.832     3944.773     91.17541     182.6428     365.5772      2.504     5.39     1203.258     64.52238     186.5773        16     1.398     0.916  15.54   3
        13    245.6696      8.3296 307.8352889  +6.6643847     1172.277     2801.526     5071.587       91.758     183.2254     365.6501      5.727    10.38     1203.284     64.52238     138.9976        22     2.534     1.184  41.28  19
        14    684.2388      1.7356 307.6528495  +6.6817224      756.144     1257.789     1189.913     85.28678     152.2509     282.9584      1.729     4.68     1176.161     64.52238     122.3491         5     1.328     0.469  34.37  26
        15    704.1962    998.3199 307.6107342  +6.2705562     1205.766     2118.604     2681.475     91.17541     182.5698      365.723      1.951     4.37     1233.443     64.52238     159.6139        15     1.237     0.911 -30.16   1
        16    708.8730   1022.2362 307.6079773  +6.2608283     664.6951     1016.957     1482.221      91.6127     167.7383     301.2028      1.572     4.64     1233.818     64.52238     91.88513         7     1.064     0.573 -71.80  24
        17     64.5687   1020.0046 307.8761832  +6.2402841     6003.933     11100.78     11434.32     91.02917     182.9343     334.8407      1.970     4.13     1235.698     64.52238     675.3358        43     1.619     1.396 -80.99  24
        18    743.9025    994.1871 307.5943492  +6.2735826     1218.211     2227.377     2459.385      91.6127     182.7886     365.7594      2.042     5.74     1232.463     64.52238     151.4741        19     1.400     1.083  86.22   0
        19    951.4087    988.8780 307.5081677  +6.2826588     6670.619     10322.71     10644.99      91.3214     182.4969     365.8687      1.687     3.48     1231.568     64.52238     867.8748        34     1.413     1.167 -87.65   0
        20    711.2040    987.1771 307.6081953  +6.2753936     2048.708     4208.787     6114.939      91.3214     182.7886     365.8687      2.621     5.38     1233.014     64.52238      236.582        29     1.489     1.331 -14.88   2
        21    236.2933    988.9098 307.8057803  +6.2588680     1011.558     1887.526     2304.059       91.758     183.6611     366.0871      2.133     4.36     1236.927     64.52238     140.0746        10     1.056     0.814 -84.58   0
        22    434.2560    986.8933 307.7234640  +6.2663004     618.2347     1171.968     1769.927      91.6127     183.0799      366.269      2.209     5.41     1236.349     64.52238     94.05713         5     1.132     0.729 -82.21   0
        23    358.2969    984.7823 307.7551475  +6.2646421     1313.176     2770.066     2533.194      91.6127     182.8615     365.7958      2.021     6.98     1237.192     64.52238     143.6984        18     1.376     1.089  51.62   0
        24    727.2105    985.2012 307.6016006  +6.2767417     925.1268     1795.898     2320.802      91.3214     182.7157     365.8322      2.259     5.98     1232.558     64.52238     129.3481        11     1.216     0.826 -21.16   0
        25    540.2626    974.8077 307.6797574  +6.2748231     3067.206     6385.319     7765.847     91.02917     182.8615     365.8322      2.265     5.20     1235.391     64.52238     312.8499        36     1.659     1.379 -82.78   3
        26    537.4592    966.9323 307.6811915  +6.2779842     5967.198     12149.42     13386.88     91.90307     183.0071     366.0507      2.145     4.74     1235.244     64.52238     630.3049        47     1.701     1.505 -87.64   3
        27    744.6707    974.0503 307.5947117  +6.2819295     6368.673     11741.27     12688.67       91.758     183.0071     366.0871      1.969     4.35     1232.108     64.52238     723.6305        39     1.541     1.327 -76.88   0
        28    290.5427    973.6879 307.7837219  +6.2669679     10802.31     22314.82     24800.44       91.758     182.9343     366.1962      2.173     4.79     1236.997     64.52238     1055.968        64     1.886     1.624 -59.84   0
        29    806.1072    973.8618 307.5691489  +6.2840465     999.1788     1889.034     2220.972       91.758     183.0799     366.1234      1.954     7.01     1231.987     64.52238     116.9415        15     1.552     0.888  79.17   0
        30    413.9966    973.8935 307.7323372  +6.2709976     733.3951      1410.42     1409.667     91.46716     182.7157      365.723      1.723     4.81     1236.197     64.52238     96.63281         7     1.279     0.512 -84.25   0
        31    905.9410    967.4786 307.5278147  +6.2899952     8159.016     13278.57     13307.88     91.90307     183.0799     365.9779      1.747     3.54     1230.773     64.52238     985.1661        37     1.452     1.223 -62.60   0
        32    879.5572    963.6798 307.5389241  +6.2906904     11436.09     19560.65     21369.83       91.758     183.0799     366.0143      1.876     3.79     1230.624     64.52238     1365.047        48     1.511     1.392 -80.93   0
        33   1001.3068    963.0712 307.4882726  +6.2949762     4817.625     7495.104     7397.782      91.6127     183.1527     366.0871      1.680     3.43     1229.138     64.52238     646.3243        27     1.275     1.134 -78.71   0
        34    593.6605    963.7241 307.6579103  +6.2811792     907.4404     2000.156     2002.217     92.04792     183.0799     366.0143      2.214     6.42     1234.715     64.52238     132.8354         9     1.475     0.785 -27.43   2
        35    523.8475    962.8868 307.6869937  +6.2792031     2962.524     6165.769     7324.437       91.758     182.9343     366.0871      2.252     4.69     1235.239     64.52238     325.1812        35     1.497     1.443 -29.65   0
        36    632.9343    961.9377 307.6416257  +6.2832231     954.8278     1719.325     1410.539       91.758     183.0799     366.0507      1.798     6.42     1234.062     64.52238     142.2855        12     1.452     0.858  80.43   0
        37    476.8647    959.1667 307.7066734  +6.2791767     1505.499      3218.66     2914.261     91.61269     183.0799     366.0143      2.096     7.21     1235.416     64.52238     162.5807        21     1.400     1.309  45.03   0
        38    911.3478    951.1765 307.5261158  +6.2969112     39310.59     66662.66     70350.42     91.17541     183.0799     365.9051      1.818     3.83      1229.66     64.52238      4915.75        67     1.604     1.355 -76.76   0
        39    219.1185    949.3760 307.8142740  +6.2746314     1151.247     2293.062     2628.458     91.46716     182.7886     365.9779      2.196     7.81     1235.364     64.52238     132.7439        19     1.424     1.200  22.77   0
        40    809.1687    944.9788 307.5688526  +6.2960838     1923.737     3406.685     3852.832     91.17541     182.8615     365.9051      1.903     4.37     1231.033     64.52238     227.7285        19     1.268     1.035 -54.09   0
        41    757.4296    942.8943 307.5904571  +6.2952281     5180.503     9772.896     10831.55     91.90307     182.7886     365.9415      2.013     4.38     1231.481     64.52238     599.8965        40     1.599     1.394 -77.89   0
        42    227.3972    942.4684 307.8110639  +6.2777621     926.6921     2105.228      1855.09     91.02917     182.6428     365.7958      2.144     8.23     1235.287     64.52238     123.6025        15     1.579     1.198  49.28   0
        43     52.2911    940.4793 307.8840049  +6.2727354     1787.731     3652.503     3969.758     91.46717     183.2981     366.1234      2.133     5.41     1233.589     64.52238     222.1965        26     1.570     1.166  86.71   0
        44    945.6836    937.9146 307.5122736  +6.3035296     6299.073     10253.32     10056.19     91.46716     183.2981     366.1598      1.753     3.64     1228.608     64.52238     789.8003        35     1.437     1.259 -82.15   0
        45    919.3496    929.8517 307.5235067  +6.3059888      1872.97     3208.575     3417.692     91.90307     182.9343     365.9779      1.844     4.18     1228.175     64.52238     248.5524        20     1.297     1.050 -32.12   0
        46    640.2325    925.7031 307.6398172  +6.2984393     3259.054     6497.194     6479.218     91.90308     182.9343     366.1598      2.019     4.75     1232.685     64.52238     390.2744        35     1.566     1.367 -71.36   0
        47    252.6196    926.0088 307.8011274  +6.2854053     2951.615     6419.924     6383.896      91.3214     182.7886     365.8322      2.206     5.20     1235.246     64.52238     338.4312        37     1.650     1.434  75.01   0
        48    780.0000    926.0551 307.5816336  +6.3029360     826.3584     1541.308     1671.423     90.88271     182.6428     365.6501      1.817     3.33     1230.865     64.52238     126.2229         6     0.916     0.470  56.05   2
        49    989.7881    924.5900 307.4943673  +6.3104970      827.997     1220.767     1984.885     91.46717     182.8615     366.0143      1.744     5.04     1227.709     64.52238     99.61487         6     1.094     0.656  85.99   0
        50    463.3324    924.6460 307.7134782  +6.2929914     712.4832     1180.332     687.1183       91.758     183.0071     366.0871      1.778     4.98     1234.632     64.52238     86.38232         6     1.076     0.723  77.52   0
        51     21.4136    923.6690 307.8974286  +6.2786495     1668.827     3700.965      4317.87     91.17541     182.9343     365.9051      2.206     6.10     1233.279     64.52238     212.3483        26     1.533     1.262 -67.86   0
        52    871.9308    920.6624 307.5435538  +6.3082143     678.5593     1189.451     1111.237       91.758     183.0799     366.1234      1.786     4.33     1228.176     64.52238     107.7321         5     1.101     0.485 -63.14   0
        53    564.7011    918.2283 307.6715069  +6.2990168     1017.558     2160.915     2218.143       91.758     182.7886     366.0143      2.135     8.67     1233.763     64.52238     130.1592        20     1.765     1.190 -68.76   0
        54    995.8221    917.8862 307.4920824  +6.3134672     842.7678     1498.615     1521.381       91.758     182.8615     365.9051      2.159     5.75     1227.049     64.52238     101.1803        10     1.393     0.669 -63.58   0
        55    943.1680    918.8574 307.5139650  +6.3113216     784.6454      1358.77     1241.508     91.61269     183.0799     365.9779      1.887     5.21     1227.561     64.52238     108.5919         8     1.196     0.642 -76.41   0
        56    603.9327    914.8387 307.6552937  +6.3017222      871.408     1710.284     2136.307      91.6127     183.0071     366.1234      2.131     5.94     1232.757     64.52238     106.2792        11     1.385     0.717 -43.25   0
        57    283.9420    912.7137 307.7885442  +6.2919442     1060.631     2178.376     2800.285       91.758     183.0799     366.2326      2.119     7.60     1235.551     64.52238     141.9889        16     1.617     1.001 -55.07   0
        58    750.4624    908.4590 307.5945235  +6.3092269     717.1387     1168.982     1128.904       91.758     183.0071     366.0871      1.941     5.17     1230.266     64.52238     91.75708         7     1.033     0.733  -5.23   0
        59    888.3240    904.8607 307.5372654  +6.3152878     6006.346      10305.1     10628.91     92.04791     183.0799     366.0143      1.841     4.02     1227.659     64.52238     711.8529        37     1.464     1.295 -86.12   0
        60    326.1036    900.8103 307.7714021  +6.2982690     5833.121     13241.81     14616.76     91.46716     182.6428     365.7958      2.244     5.29     1235.163     64.52238      620.993        49     1.731     1.569  84.97   0
        61    424.6325    902.1188 307.7303504  +6.3010117     1406.384     3015.519     3137.404      91.6127     183.0799     366.0143      2.187     6.18     1234.589     64.52238     178.9216        22     1.407     1.193 -43.61   0
        62    246.2499    899.7111 307.8046737  +6.2960598     4563.858     10206.82     11002.71       91.758     182.8615     366.1962      2.199     5.20     1234.692     64.52238     487.2894        46     1.713     1.583 -59.12   0
        63    574.7992    893.1193 307.6681563  +6.3097287     764.3196     1413.833     1113.376     90.88271     182.4238     365.7594      1.769     4.47     1232.792     64.52238     122.7672         7     1.043     0.544 -16.15   0
        64    904.3293    889.7197 307.5311159  +6.3220754     972.7778      1312.39     883.8878     92.04792     183.4434     366.0871      1.581     6.40     1227.002     64.52238     139.0793        12     1.231     0.934  24.45   0
        65    740.4914    883.4379 307.5995213  +6.3192357     1348.485     2332.416     1860.859     91.90308     183.0071     366.0871      1.865     6.88     1229.181     64.52238     150.1216        16     1.241     1.071  44.18   0
        66    971.4661    878.7349 307.5035433  +6.3288397     1163.659     1947.047     2393.712       91.758     183.0799     366.0871      1.937     4.02     1224.467     64.52238     177.9471        10     0.973     0.898  35.30   0
        67    658.9894    876.3033 307.6336858  +6.3194767     1726.911     3313.757     3683.953     91.46716     182.6428     365.8322      2.043     7.38     1229.897     64.52238     178.1814        22     1.441     1.213 -33.88   0
        68    525.4767    878.1418 307.6891932  +6.3142772     724.6734     1397.858     1338.894     91.90308     183.0799     365.9779      1.915     4.61     1233.575     64.52238      113.672         6     1.310     0.461  23.32   0
        69     73.4959    872.3530 307.8775040  +6.3015957     1368.164     2682.451     2761.858      91.6127     182.9343     366.2326      1.906     6.00     1233.035     64.52238     176.4335        21     1.528     1.141  64.00   0
        70     55.9025    873.1586 307.8847986  +6.3006747     1898.552     4170.057     5149.095       91.758     182.9343     366.3053      2.335     5.39     1233.068     64.52238     221.7065        28     1.603     1.258  81.19   0
        71    199.6546    871.8681 307.8250146  +6.3060103     1255.388     2959.579     3048.368       91.758     183.0071     365.9779      2.302     8.28     1233.551     64.52238     144.0219        22     1.597     1.200 -65.21   0
        72    937.8289    872.5129 307.5177546  +6.3302964     717.5182     1126.963     1712.071     91.90308     182.7886     365.9051      1.671     4.36     1225.504     64.52238      98.7041         6     1.119     0.484   7.07   0
        73    653.6766    865.7350 307.6362555  +6.3236674     4680.089     10258.07     11191.46     91.90308     183.0799     366.0143      2.189     5.14     1229.507     64.52238      513.795        40     1.654     1.465 -71.28   0
        74     14.6237    864.3951 307.9022771  +6.3029157     838.7715     1423.057     1143.752     91.17541     182.7886     365.8687      1.795     3.08     1233.065     64.52238     140.3812         7     0.892     0.551 -56.15   0
        75    891.2621    861.8143 307.5374990  +6.3331740     2183.059     4135.253     4212.596     91.17541     182.9343     365.8322      1.969     5.22     1226.304     64.52238     256.4177        25     1.474     1.145 -75.46   0
        76     27.5099    862.8466 307.8969669  +6.3039865     810.2423     1333.512     1194.815       91.758     182.9343     366.1962      1.895     5.32     1232.995     64.52238     107.9379         7     1.103     0.723  50.02   0
        77    336.8309    858.9700 307.7683609  +6.3159165     9470.073     22794.48     25676.67     91.17541     182.7886     365.7594      2.352     5.64     1233.854     64.52238      970.431        60     1.819     1.672  89.00   0
