#   1 NUMBER                 Running object number                                     
#   2 X_IMAGE                Object position along x                                    [pixel]
#   3 Y_IMAGE                Object position along y                                    [pixel]
#   4 ALPHA_J2000            Right ascension of barycenter (J2000)                      [deg]
#   5 DELTA_J2000            Declination of barycenter (J2000)                          [deg]
#   6 FLUX_APER              Flux vector within fixed circular aperture(s)              [count]
#   9 FLUXERR_APER           RMS error vector for aperture flux(es)                     [count]
#  12 FLUX_RADIUS            Fraction-of-light radii                                    [pixel]
#  13 FWHM_IMAGE             FWHM assuming a gaussian core                              [pixel]
#  14 BACKGROUND             Background at centroid position                            [count]
#  15 THRESHOLD              Detection threshold above background                       [count]
#  16 FLUX_MAX               Peak flux above background                                 [count]
#  17 ISOAREA_IMAGE          Isophotal area above Analysis threshold                    [pixel**2]
#  18 A_IMAGE                Profile RMS along major axis                               [pixel]
#  19 B_IMAGE                Profile RMS along minor axis                               [pixel]
#  20 THETA_IMAGE            Position angle (CCW/x)                                     [deg]
#  21 FLAGS                  Extraction flags                                          
         1    257.8392     21.6952 307.8303862  +6.6636050     5345.108     12412.31     15260.44      87.8774     175.1977     350.7091      2.567     6.23     1088.947     61.79362      637.886        62     2.348     1.544 -34.10   2
         2    437.2809     21.3124 307.7557756  +6.6697692     13675.45     31081.99     36247.74     87.59886     175.6157     350.7091      2.408     5.57     1070.832     61.79362     1501.648        75     2.219     1.563 -42.24   0
         3     23.3870     21.3929 307.9278937  +6.6558656     1437.443     3089.833     2543.818     87.45926      175.128     350.4652      2.252     6.71     1096.154     61.79362     168.2898        25     1.668     1.241 -60.91   0
         4    618.0146     19.5463 307.6806722  +6.6765366     2232.688     4950.232     6411.287     87.17939     175.2674     350.2559      2.506     5.43     1066.245     61.79362     269.3015        34     1.759     1.246 -31.59   0
         5    246.1091     18.3560 307.8353776  +6.6645910     1782.173     3865.072     5242.635      87.8774     175.2675     350.7091      2.574     5.68     1088.912     61.79362     242.7864        30     1.893     1.126 -36.62   0
         6    935.0364     11.5030 307.5490968  +6.6904222      738.245     1192.807     1394.979      87.8774     175.1977      350.744      1.937     4.99     1056.173     61.79362     114.3477         6     1.108     0.635 -55.78   0
         7    686.9211     11.2898 307.6522940  +6.6822456     1087.358     2035.638     1648.778     87.59886     175.6157     350.6743      1.848     5.95     1065.077     61.79362     151.9232        13     1.400     0.713 -38.05   0
         8    175.4321      3.8373 307.8652621  +6.6682179     6548.584     14701.67     15959.59     87.45926     171.6039     304.9376      2.266     5.69     1088.696     61.79362     738.8872        53     2.019     1.445 -36.04  24
         9    920.5489      2.0612 307.5554403  +6.6938397     2761.263     4129.775     4568.985     85.33786       151.08     276.8795      1.679     5.16     1056.208     61.79362     362.9219        23     1.711     0.877 -21.29  24
        10    519.7571      2.3665 307.7221168  +6.6803505     1879.539     3237.111     3472.206     87.03912     155.3074     281.8656      1.772     5.75     1067.346     61.79362     231.6981        24     1.729     1.058 -16.69  24
        11    457.2453      2.1612 307.7481213  +6.6783460     800.2478     1403.234      1418.24     85.76634     152.2884     278.4637      1.717     6.45     1069.318     61.79362     129.2094        10     1.409     0.828 -26.81  24
        12    721.3301      1.1518 307.6383259  +6.6875800     695.8759     856.1173     794.1102     73.82204     136.1032     260.3676      1.128     3.37     1062.976     61.79362     160.7607         5     1.092     0.301 -10.74  24
        13    707.6316   1000.3684 307.6103042  +6.2744406     934.3567     1551.449     2150.548     87.31944     175.0582     350.2908      1.807     4.60      1113.64     61.79362     185.3859         8     1.390     0.432 -47.58   3
        14    755.0663   1022.6895 307.5898399  +6.2668020     627.5536     1003.996     420.1193     87.17939     154.9135     281.0842      1.457     4.17     1113.627     61.79362     115.6887         6     1.215     0.408 -32.22  24
        15    579.0369   1020.9100 307.6630492  +6.2616690     129639.4     232429.5     246286.4     88.01633     173.5862     308.8395      1.914     5.04     1117.801     61.79362     16292.93        80     2.000     1.125 -37.74  27
        16    580.7621   1013.7115 307.6625754  +6.2646996     60571.96     109676.9     119116.3      87.8774     175.1977     350.6046      1.952     4.93     1117.519     61.79362     7517.813        75     2.025     1.134 -39.36  19
        17    397.0633   1023.2053 307.7385894  +6.2546444     541.3137     884.6702     1236.351     81.82932     146.7309     272.0267      1.542     3.84     1117.502     61.79362     91.94092         5     0.811     0.521 -58.06  24
        18    213.5005   1023.0816 307.8148695  +6.2485548     2773.834     3841.872     4417.144       83.602     149.1263     274.2635      1.487     4.42     1119.112     61.79362     400.9475        18     1.445     0.768 -21.55  24
        19    713.1342    997.6061 307.6081107  +6.2757648      2339.81     4164.699      4856.96     87.31944     175.0582     350.3606      2.009     6.13     1113.421     61.79362     284.0327        22     1.714     0.855 -36.15   2
        20    238.4001    999.4744 307.8053227  +6.2591380     904.8408     1717.927      1850.43     87.03912     174.6389     350.3257      2.327     5.70      1118.85     61.79362     125.9928        12     1.561     0.586 -29.72   0
        21    436.7363    998.4486 307.7229407  +6.2661947     735.1736     1137.373     1044.048     87.73824     175.1977     350.6395      1.551     3.49     1116.914     61.79362     129.8774         5     0.789     0.445 -19.93   0
        22    729.2621    996.5127 307.6014454  +6.2767537     891.3737     1442.153     1409.775     87.73824     175.5461     350.6046      1.844     4.86     1113.006     61.79362     196.4463         8     1.339     0.499 -42.30   0
        23    360.0155    995.1682 307.7549326  +6.2649852     1465.007     2638.648     2891.934     87.45926     175.0582     350.4652      2.009     6.57     1118.583     61.79362     178.2948        20     1.603     0.894 -46.87   0
        24    969.1518    993.4404 307.5018582  +6.2860051     594.3026     834.3892     340.3352     87.73824     175.2675     350.4303      1.576     4.53     1107.362     61.79362     98.57825         5     1.132     0.515 -59.70   0
        25    542.0822    985.4221 307.6796042  +6.2750925     3475.832     6340.274     7463.012     87.59886     174.9884        350.5      1.972     4.72     1116.413     61.79362     452.7086        32     1.840     0.980 -41.26   0
        26    746.5441    984.8207 307.5946577  +6.2821583     6816.864     11827.17     12812.22     87.31944     175.3372     350.3606      1.872     4.90     1112.122     61.79362     901.9652        39     1.864     0.969 -40.23   0
        27    512.4908    986.9622 307.6918490  +6.2734686     897.0966     1407.594      1669.14     88.01633     175.2674     350.6046      1.709     3.74     1116.937     61.79362     136.8949         6     1.189     0.338 -40.11   0
        28    292.3680    984.2708 307.7834119  +6.2672232     11980.75      22291.4     24686.11     87.73824     175.3372     350.5349      2.022     5.01     1118.515     61.79362     1391.086        56     2.114     1.131 -39.01   0
        29    416.9319    984.3611 307.7316467  +6.2713510     765.4254     1707.026     1613.769     87.73824     175.3372     350.7091      2.254     6.32     1116.488     61.79362     94.78906        11     1.916     0.585 -64.13   0
        30    807.8054    984.0737 307.5692246  +6.2845068     915.4877     1618.247     1887.759     87.45926     174.8486     350.4652      1.651     5.42     1111.141     61.79362     137.5197        11     1.712     0.484 -37.80   0
        31    264.2591    981.6968 307.7951795  +6.2673456     710.7313      1175.36     1370.255     87.59886     175.3372     350.7091      1.567     4.54     1118.466     61.79362     124.1829         6     1.464     0.400 -32.89   0
        32    907.9266    978.2409 307.5278132  +6.2902472     7835.592     13444.92     14256.73     87.73824     175.4068     350.6046      1.801     5.11     1108.934     61.79362     1085.256        35     1.809     0.924 -40.22   0
        33    539.3151    977.6288 307.6810173  +6.2782188      6853.87     12403.74     13387.98     88.01633     174.9884     350.3954      1.903     4.96     1116.237     61.79362     813.7485        39     1.867     1.046 -37.17   0
        34    881.5429    974.4031 307.5389068  +6.2909547     11102.88     18904.25     20993.79     87.17939      175.128     350.2559      1.859     4.91     1109.236     61.79362     1614.981        52     1.969     1.100 -38.06   0
        35   1003.2326    973.8245 307.4883546  +6.2952393     4454.722     7476.812     7953.744     87.17939     175.0582     350.3257      1.780     4.84     1104.874     61.79362      605.979        29     1.729     0.884 -41.89   0
        36    594.5376    974.4450 307.6581764  +6.2813765     1177.182      1750.35     966.9697     87.73824     175.2675     350.6395      1.621     5.48     1115.725     61.79362     177.6267        12     1.263     0.777 -49.34   0
        37    525.5800    973.4433 307.6868664  +6.2794890     3347.313     6323.096     7611.448     87.31944     175.1977     350.3954      2.069     5.12     1116.277     61.79362     480.2136        31     1.796     0.975 -37.27   0
        38    635.0468    973.1436 307.6413861  +6.2832651     1069.599     1892.023     1442.699      87.8774     175.3372     350.6743      1.852     6.60     1114.487     61.79362     135.9572        16     1.769     0.692 -44.03   0
        39     60.0718    972.5645 307.8803363  +6.2642768     783.8023     1328.639     1582.911     87.73824     175.3372     350.5698      1.963     5.40     1117.812     61.79362     127.2474         7     1.229     0.670 -39.44   0
        40    479.1499    969.7325 307.7062863  +6.2794712     1793.426     3269.551     2794.635     87.73824     175.1977     350.5349      1.842     6.02     1116.854     61.79362     239.9011        20     1.634     0.835 -41.77   0
        41    913.2442    962.0161 307.5261493  +6.2971251     38934.32     67312.42     71612.84     87.31944     175.1977     350.3257      1.833     5.09     1107.989     61.79362     5148.723        67     1.919     1.073 -41.66   0
        42    220.7470    960.5050 307.8139785  +6.2746412     1339.131     2518.146     2571.189     87.73824     175.2675     350.8485      2.041     6.15     1117.953     61.79362     188.3655        18     1.504     0.905 -25.58   0
        43    620.6728    957.7502 307.6478790  +6.2891433     762.0363     1062.655      1188.76      87.8774     175.4068     350.6046      1.517     4.54      1114.29     61.79362     154.4181         7     1.196     0.620 -43.78   0
        44    811.1529    955.7589 307.5687872  +6.2963126      2030.39     3467.771     3348.531     87.73824     175.3372     350.4303      1.694     5.88     1110.098     61.79362     267.2231        19     1.606     0.720 -41.91   0
        45    759.5449    953.6821 307.5903044  +6.2954519     5552.059     9636.878     10945.98      87.8774     175.3372     350.6046      1.948     4.50     1110.632     61.79362     871.5056        37     1.859     0.992 -42.94   0
        46    546.1202    952.9960 307.6790213  +6.2886195     765.2568     1451.392      1290.35     87.45926     174.7787     350.2908      1.749     6.61     1115.341     61.79362      90.0542        10     1.557     0.788 -39.35   0
        47    228.0000    953.1418 307.8112140  +6.2779250     1062.565     2303.857     2766.051     87.03912     174.9185     350.1861      2.189     4.57     1117.807     61.79362     165.2783         9     1.319     0.476 -66.42   2
        48    194.2896    952.7503 307.8252356  +6.2769579     745.7743     1462.754     1250.662      87.8774      175.128     350.7091      1.703     5.18     1117.603     61.79362     114.1711         7     1.390     0.547  77.98   2
        49     53.8552    951.0482 307.8836496  +6.2729543     2058.964     4059.866     3972.044      87.8774     175.3372     350.6743      2.027     5.79     1117.372     61.79362     248.9358        26     1.792     0.990 -48.14   0
        50    947.6837    948.6884 307.5122852  +6.3037747     6201.378     10502.43     11052.08     87.59886     175.5461     350.6046      1.825     5.01     1106.107     61.79362     845.3566        37     1.823     0.980 -40.57   0
        51    254.4574    936.7063 307.8007764  +6.2855985     3481.765     6405.046     7069.073     87.73824     175.3372      350.744      1.983     5.02     1117.448     61.79362     412.4241        34     1.895     1.058 -44.40   0
        52    780.9341    936.9432 307.5819796  +6.3030776     1131.841     1766.734     1763.779     88.01633     175.2674     350.5698      1.731     5.19     1109.799     61.79362      157.201        14     1.410     0.835 -41.29   0
        53    642.0894    936.2549 307.6397042  +6.2987352     3872.549     6985.729     7394.061      87.8774     175.1977     350.7091      1.936     5.12     1112.149     61.79362     490.2997        32     1.797     0.956 -38.78   0
        54    991.7621    936.1763 307.4943874  +6.3104074     758.3133      1297.98     1801.759     87.45926     175.0582     350.3257      1.949     5.53      1103.79     61.79362     110.8729         8     1.334     0.761   1.34   0
        55    463.9243    934.9063 307.7137906  +6.2933460     850.7278     1531.193     1491.967     87.73824     175.5461     350.5698      1.766     5.48     1115.904     61.79362     136.0502        10     1.241     0.807 -41.27   0
        56     23.3882    934.3143 307.8968779  +6.2788432     1625.867     3068.801     3130.569     87.45926     175.0582     350.3954      2.003     5.97     1117.015     61.79362      206.152        20     1.600     0.921 -32.62   0
        57    874.1130    933.0707 307.5433860  +6.3077783     870.5659      1319.16      803.302     88.01633     175.6157     350.5698      1.468     5.51     1107.651     61.79362      128.543        11     1.128     0.759 -43.12   0
        58    566.8736    928.7521 307.6712155  +6.2993249     1320.398     2402.576     2030.859      87.8774     175.4068     350.6046      1.922     6.92     1114.158     61.79362      181.548        20     1.759     0.939 -40.73   0
        59    998.6057    928.4745 307.4918023  +6.3138158     741.6859     1627.773     1898.578     87.45926     174.7787     350.4652      2.182     7.07     1103.164     61.79362     101.1324        12     1.972     0.711 -66.15   0
        60    965.8102    930.3617 307.5053685  +6.3119464     607.6373     898.4979      390.082     87.03912      175.128     350.2559      1.577     4.13     1104.461     61.79362     94.03577         6     1.222     0.399 -30.56   0
        61    921.4150    940.3289 307.5234835  +6.3063539      1859.56     3098.932     3443.016     87.31944     175.2675     350.4652      1.809     5.05     1106.584     61.79362     260.8656        20     1.646     0.763 -40.88   0
        62    606.2240    925.4821 307.6549727  +6.3019883     907.3448     1549.538     1544.844     87.73824     175.0582        350.5      2.148     6.41     1113.166     61.79362     106.3141        13     1.585     0.727 -31.54   0
        63    286.1740    923.2283 307.7880527  +6.2922263     1171.238     2155.709     2511.682     87.31944      175.128     350.4303      1.912     6.96      1117.27     61.79362     133.6813        17     1.360     0.998 -43.36   0
        64    753.1409    919.1164 307.5941309  +6.3095146     738.3233     1217.272     1374.905     88.01633     175.4068     350.6395      1.983     4.85     1109.152     61.79362     142.0076         7     1.400     0.476 -43.41   0
        65    890.2994    915.7386 307.5372425  +6.3154752     5937.471     10450.45     11144.48     87.59886     175.2675     350.7091      1.885     5.14     1106.508     61.79362     807.6703        36     1.915     0.943 -40.43   0
        66    426.5612    912.9567 307.7300598  +6.3011630     1617.139     2927.963     2893.957     87.59886     175.2675     350.4303      1.921     5.05     1115.659     61.79362     208.5629        18     1.592     0.789 -36.87   0
        67    328.0126    911.3046 307.7710697  +6.2985505      7203.43     13827.89     14649.81     87.59886     175.0582     350.3606      2.055     4.96     1117.065     61.79362     804.4434        49     1.915     1.227 -42.18   0
        68    247.9463    910.3718 307.8043742  +6.2962566     5465.278     10461.57     11220.29     87.59886     175.4068     350.4652      2.062     5.04     1117.147     61.79362     647.0493        44     1.988     1.221 -39.32   0
        69    576.2253    904.5485 307.6681464  +6.3096332     861.5106     1579.936     1567.335     87.45926     175.3372     350.4652      2.161     4.38     1113.073     61.79362     131.0978         7     0.955     0.571 -52.35   0
        70    760.4528    903.6345 307.5916140  +6.3161523     739.2451     1321.792     1698.383     87.73824     175.3372     350.4652      1.873     4.44     1108.375     61.79362     118.7687         7     1.063     0.528 -45.88   0
        71    906.0266    900.9099 307.5312054  +6.3221228     974.1528     1808.871     1459.089     88.01633     175.0582     350.4303      1.937     5.98     1105.466     61.79362     143.8561        12     1.706     0.590 -30.31   0
        72    742.2973    893.8893 307.5994878  +6.3195724     1493.493     2807.802     3379.856      87.8774     175.8243     350.5698      1.937     5.86     1108.138     61.79362     205.8342        20     1.794     0.799 -41.24   0
        73    834.6854    894.4227 307.5610734  +6.3224285     501.9174     726.5604     485.5335      87.8774     175.0582     350.4652      1.150     4.39     1106.902     61.79362     101.0685         7     1.186     0.463 -40.13   0
        74    607.1329    890.4670 307.6557769  +6.3164801     753.6612     1585.009     1437.858      87.8774     175.3372     350.6046      2.102     5.31     1111.189     61.79362     118.5465         7     1.143     0.697 -32.42   0
        75    527.7148    890.0396 307.6887968  +6.3140064     924.1635     1587.409      1309.94      87.8774     175.2675     350.5349      1.962     5.80     1114.025     61.79362     123.4548        11     1.284     0.738 -63.90   0
        76    973.8260    889.5267 307.5034106  +6.3290783     1193.244     2086.545     2117.925     87.45926     175.1977        350.5      1.824     6.02     1101.487     61.79362     161.2682        12     1.230     0.829 -35.85   0
        77    661.0456    887.1680 307.6334825  +6.3196406       2009.4     3694.764     4430.543     87.59886     175.3372     350.4303      2.036     5.18     1109.552     61.79362     229.2629        27     1.636     1.074 -32.02   0
