#   1 NUMBER                 Running object number                                     
#   2 X_IMAGE                Object position along x                                    [pixel]
#   3 Y_IMAGE                Object position along y                                    [pixel]
#   4 ALPHA_J2000            Right ascension of barycenter (J2000)                      [deg]
#   5 DELTA_J2000            Declination of barycenter (J2000)                          [deg]
#   6 FLUX_APER              Flux vector within fixed circular aperture(s)              [count]
#   9 FLUXERR_APER           RMS error vector for aperture flux(es)                     [count]
#  12 FLUX_RADIUS            Fraction-of-light radii                                    [pixel]
#  13 FWHM_IMAGE             FWHM assuming a gaussian core                              [pixel]
#  14 BACKGROUND             Background at centroid position                            [count]
#  15 THRESHOLD              Detection threshold above background                       [count]
#  16 FLUX_MAX               Peak flux above background                                 [count]
#  17 ISOAREA_IMAGE          Isophotal area above Analysis threshold                    [pixel**2]
#  18 A_IMAGE                Profile RMS along major axis                               [pixel]
#  19 B_IMAGE                Profile RMS along minor axis                               [pixel]
#  20 THETA_IMAGE            Position angle (CCW/x)                                     [deg]
#  21 FLAGS                  Extraction flags                                          
         1   1000.3672     26.5491 307.5284770  +6.6979031      1809.72     2830.583     2848.374     78.17042     156.2788     312.2781      1.689     3.76     821.7225     55.05505      292.999        18     1.325     0.909  79.99   0
         2    440.0623     18.7824 307.7615503  +6.6823923     6450.008     9768.776     10127.41     77.92186     156.1546     312.1849      1.588     3.45     828.0819     55.05505     1015.476        32     1.504     0.967  60.61   0
         3    336.6338     13.7434 307.8046938  +6.6810057     13224.21     19778.46     21084.45     78.17042     156.2167     312.3402      1.615     3.49     833.9064     55.05505     1843.007        43     1.513     1.056  59.32   0
         4    110.2603     14.1360 307.8987351  +6.6732422     2535.164     3625.949     3657.446      78.2944     156.1546     312.3713      1.513     3.49     829.6578     55.05505      366.447        19     1.284     0.883  64.36   0
         5     41.0202     18.4157 307.9273579  +6.6691468      8705.39     13213.85     13872.98     78.04623     156.0303     312.2471      1.609     3.38     828.6111     55.05505     1188.056        37     1.478     1.054  63.98   0
         6    101.4833     12.8792 307.9024241  +6.6734660     1460.969     2204.549     2291.419     78.41818     156.4649     312.4644      1.621     4.04     829.6568     55.05505     206.5627        16     1.313     0.780  66.00   0
         7    804.9979     12.3608 307.6101321  +6.6972471     859.0077     1127.487     835.6922     77.42236     155.9681     312.0606      1.481     4.56     825.1225     55.05505     125.3329        10     1.216     0.588  72.92   0
         8    402.8178     11.6853 307.7772640  +6.6840744     2367.404     3425.302     3086.188     77.92186     155.9681     312.2781      1.533     3.63     830.6035     55.05505     335.0886        21     1.388     0.879  70.34   0
         9    663.6088      7.2016 307.6690546  +6.6946546     11176.41     16397.83     17710.28     77.67251     155.9059     306.1615      1.548     3.29     824.0319     55.05505     1587.892        36     1.472     0.976  62.84  16
        10    719.6606     23.3396 307.6452229  +6.6898647     7663.702     11155.18     11839.38      78.2944     156.2167     312.3713      1.570     3.50      825.208     55.05505     1052.999        33     1.522     0.942  63.92   0
        11    828.2144      6.4995 307.6006816  +6.7004419     1720.091     2601.048     2653.636      78.2944     155.9681     300.5663      1.639     3.98     824.7772     55.05505     255.0564        18     1.427     0.805  56.91  16
        12    541.3034      6.5503 307.7198957  +6.6908328     1418.588     1985.986     1995.456     78.17042     156.1546     301.4363      1.588     3.90     824.6157     55.05505     196.0762        16     1.317     0.788  62.35  16
        13    655.2098      2.8172 307.6726917  +6.6961841     9489.524     13090.58     13874.78     78.04623     143.5998     257.7987      1.476     3.47     823.8782     55.05505     1426.272        32     1.460     0.956  50.79  24
        14    263.6229      4.1465 307.8353524  +6.6825182     6502.442     10186.35     10539.58     77.79729     154.9073     275.6537      1.648     3.30     832.1768     55.05505     862.6445        35     1.501     1.061  65.63  26
        15    267.4661      2.2767 307.8338186  +6.6834191     933.4813     1424.328     1911.584     77.54753     137.3157     249.9281      1.685     5.51     832.4235     55.05505      119.651        11     1.132     0.756  64.95  27
        16    898.5748      4.5699 307.5715097  +6.7035856     1534.771     2202.711     2261.831     77.79729     156.0303     280.8477      1.566     3.51     823.5494     55.05505      262.457        11     1.119     0.669  53.05  16
        17    685.0485      2.0759 307.6603181  +6.6974875      8003.46     10590.94      11203.9     75.90412     134.8208     246.9217      1.392     3.04     824.0347     55.05505     1306.251        24     1.274     0.943  38.49  27
        18    689.1818      1.2414 307.6586286  +6.6979702     3294.023     4117.517     4501.406     66.79609     122.6134     233.2671      1.054     2.35     824.0608     55.05505     885.0947        11     0.966     0.560   3.10  27
        19    440.2698      4.4981 307.7619446  +6.6882968     624.3097     840.4816     580.4585     78.17042     156.3408     280.0522      1.561     4.25     827.9313     55.05505     112.8408         6     1.108     0.465  55.08  16
        20    425.1268      2.8082 307.7682933  +6.6884871     8243.274     11627.01     11630.09     77.92186     143.4646     257.7987      1.492     3.45      829.059     55.05505     1206.268        28     1.337     0.981  57.64  24
        21    741.0219      1.7924 307.6370697  +6.6994745     1584.229     2075.888     1870.436     73.03877     130.7299     242.2022      1.302     3.10     824.8298     55.05505     304.6979        13     1.076     0.770  29.29  24
        22    166.9322      1.6586 307.8756100  +6.6802982     565.6923     666.5223     272.2303      72.1032     129.0122     240.4337      1.246     3.33     829.2559     55.05505     120.5189         5     0.827     0.495  59.69  24
        23    123.1463    989.2416 307.8605067  +6.2710880     829.5574     1282.087      1437.66     78.17042     156.2788     312.4023      1.628     4.91      853.645     55.05505     107.5036         9     0.993     0.686 -69.15   0
        24    373.9793   1023.4190 307.7552218  +6.2653891       1015.1     1365.125     1246.888      70.7452     127.6517      238.977      1.182     3.65     857.6054     55.05505     235.7499        11     1.187     0.655  10.04  24
        25    222.3276   1023.5516 307.8181762  +6.2602511     415.2742     535.4844     412.3292     69.50032      126.046     237.0208      1.058     3.46     856.5906     55.05505     71.51184         5     1.099     0.316  21.42  24
        26    634.2662    987.4541 307.6483647  +6.2889457     788.0748     1106.371     1155.422      78.2944     156.1546     312.3092      1.566     4.16     857.1111     55.05505     143.1105         7     1.172     0.662  79.85   0
        27    825.6892    985.0938 307.5689666  +6.2963098     2089.779     3183.722     3006.492      78.2944     156.6507     312.4023      1.628     4.07     854.3843     55.05505     239.1183        20     1.330     0.950  47.74   0
        28    774.0741    983.1583 307.5904617  +6.2953873     6156.729     10157.07     10898.38     78.17042     156.2788     312.3713      1.763     3.46       854.91     55.05505     831.0491        36     1.525     1.139  72.40   0
        29    741.7576    984.4030 307.6038377  +6.2937950     438.2995     786.0983      869.245     77.67251     155.7815     312.0606      2.479     4.97     855.2162     55.05505     78.18915         6     1.347     0.520  50.01   0
        30    560.3961    982.1835 307.6792112  +6.2886529     757.7942     1517.659     1540.867     77.92186     155.8437     312.1849      2.274     6.20     856.5947     55.05505     107.8735        12     1.062     1.015 -64.30   0
        31    243.4211    981.9332 307.8108196  +6.2781416     1397.872     2226.927     2551.279     77.92186     156.2167     312.3092      1.760     3.99     855.4706     55.05505     191.8209        16     1.239     0.853  73.75   0
        32    207.9397    981.5614 307.8255627  +6.2771049     846.8572     1282.106     1374.462      78.2944     156.2788     312.3713      1.602     3.70     854.6755     55.05505     120.5997         8     0.804     0.709  88.90   0
        33     68.3542    980.1245 307.8835610  +6.2730119     2655.378     4179.875     4118.708     78.17042     156.2788     312.3713      1.684     3.63     853.0832     55.05505     329.2555        25     1.402     1.007  55.91   0
        34    962.1924    978.1978 307.5125211  +6.3037062       5974.7     10377.01     10880.59     77.67251     155.9059     312.1228      1.829     3.83      851.479     55.05505     716.8341        38     1.629     1.175  57.19   0
        35    644.2576    972.1634 307.6447289  +6.2955928     709.9858     973.4048     624.2648      78.2944     156.2167     312.3402      1.584     4.99     856.5404     55.05505     91.93915         9     1.112     0.633  64.29   0
        36    936.0429    969.9783 307.5236531  +6.3062290     1735.751     3246.627     3225.301     77.79729     156.0925     312.1539      1.982     4.08     852.5201     55.05505     253.3066        21     1.366     1.029  52.57   0
        37    268.8416    965.9593 307.8008032  +6.2855893     4306.006     6746.046     7534.812     78.04623     156.2167      312.216      1.659     3.33     855.6245     55.05505     613.2295        32     1.493     1.070  70.45   0
        38    795.4733    966.2537 307.5821426  +6.3030809     1240.261     2023.148     2218.012     78.17042     156.0925     312.3092      1.790     4.29     854.5156     55.05505     153.0089        16     1.273     0.865  68.93   0
        39    656.6787    965.7484 307.6397867  +6.2986564     4479.603     6984.381     6893.247      78.2944     156.2788     312.3402      1.681     3.64     856.1381     55.05505     629.0923        28     1.430     1.054  55.23   0
        40   1006.2512    965.4000 307.4946550  +6.3104573     643.6396     1125.151     880.0284     77.54753     155.7192     311.8741      1.939     5.05     849.5311     55.05505     105.1232         6     0.971     0.744  60.07   0
        41    479.1021    964.1902 307.7135670  +6.2933628     1083.072     1626.635     1652.197     78.04623     155.8437     312.1539      1.603     3.54     857.2289     55.05505     175.1086        11     1.061     0.719  89.39   0
        42     37.6198    963.4236 307.8968836  +6.2788744     2194.365     3331.415     3481.478     78.04623     156.0303     312.2781      1.662     3.56      851.837     55.05505     260.2653        19     1.117     1.086  64.55   0
        43    888.3170    962.1883 307.5437296  +6.3078552     859.7343     1285.738     917.3296     77.92186     155.9681     312.1849      1.589     6.09     853.2978     55.05505     100.7719        12     1.333     0.781  19.02   0
        44    304.8860    959.8118 307.7860453  +6.2893359     785.6982     1210.567     1188.074     77.92186     155.9681     312.1849      1.692     4.54     856.2964     55.05505     132.6291         9     1.096     0.753  59.03   0
        45    960.4805    959.4515 307.5138582  +6.3113894     794.8433     1236.774     882.4172      78.2944     156.2167     312.3402      1.669     5.49     851.3763     55.05505     128.0378         9     0.986     0.862 -69.40   0
        46    581.3679    958.2258 307.6713075  +6.2992457     1832.377     2839.184     2634.615     77.79729     155.9681     312.1849      1.646     3.98     856.6237     55.05505     222.4509        20     1.389     0.882  53.14   0
        47   1012.8443    957.4064 307.4921844  +6.3139773     820.3772     1698.762     1763.659     77.79729     156.0303     312.0295      2.228     7.23     849.2903     55.05505     119.6726        14     1.885     0.776 -83.26  16
        48    620.5746    954.5123 307.6551536  +6.3020893     1309.028     2014.732     2596.932     78.41818     156.0303      312.216      1.779     4.17     856.6384     55.05505      166.575        15     1.292     0.767  63.67   0
        49     70.1814    955.8337 307.8836212  +6.2831021      722.595     1201.629     1653.475     77.79728     156.0303     312.1539      2.250     5.39     852.0851     55.05505     93.07794         9     0.932     0.896 -88.43   0
        50     65.9752    955.1713 307.8853898  +6.2832343     492.5007     1036.717     1584.318     77.79729     156.0303      312.216      2.124     3.80     851.9606     55.05505     78.31641         5     0.812     0.511  58.22   0
        51    300.4989    952.5717 307.7881102  +6.2921781     1332.736      2027.52     2275.137      78.2944     155.9681     312.3092      1.742     3.91     856.0992     55.05505     199.5314        12     1.186     0.775  29.64   0
        52    767.5934    949.0175 307.5942953  +6.3092674     813.7076     1328.579     1351.048     77.92186     155.9681     312.1849      1.855     5.27     854.6136     55.05505     121.8597         9     1.325     0.592  61.70   0
        53    904.9459    945.1821 307.5373937  +6.3154310     6462.943     10727.79      11177.6     77.79729     156.2167     312.1228      1.755     3.57     852.7515     55.05505     853.3845        39     1.589     1.147  61.94   0
        54    142.9846    945.8420 307.8537326  +6.2896724      565.089     878.0955     693.1052     77.79729     155.9681     312.1228      1.537     1.80     852.4896     55.05505      100.013         5     0.916     0.675   2.10   0
        55    440.7150    942.4108 307.7302362  +6.3010703     2132.434     3195.294     3334.502     77.92186     155.9681     312.1849      1.595     3.72     856.7257     55.05505     262.5908        17     1.252     0.854  56.71   0
        56    342.4111    940.5953 307.7711118  +6.2985275     9802.874     14763.79     16005.84     77.92186     155.9681     312.2471      1.656     3.29     856.5931     55.05505     1299.851        41     1.509     1.120  59.45   0
        57    262.6320    939.5560 307.8042696  +6.2962823     7065.031     10917.01     11684.48     78.04623     156.2167      312.216      1.684     3.31     854.8188     55.05505     948.1618        40     1.544     1.209  55.73   0
        58    775.1480    934.0964 307.5916581  +6.3156802     669.5518     1186.159     1168.113     78.17041     156.1546     312.5886      2.033     5.48     854.3759     55.05505     96.45056         9     1.143     0.740  45.37   0
        59    590.5850    933.8729 307.6682973  +6.3096088     1174.462     1780.192     1798.464     77.79729     155.9681     312.2471      1.609     3.85     856.2196     55.05505     197.1581        11     1.126     0.713  47.60   0
        60    921.0328    930.7837 307.5311954  +6.3219120     972.5662     1680.464     1819.074     77.92186     155.9681      312.216      1.889     5.36     852.2062     55.05505     137.0651        10     1.087     0.746 -81.19   0
        61    224.7519    930.4086 307.8203045  +6.2987885     679.5847     1176.558     1186.988     77.79729     156.0303     311.9985      1.972     5.30     853.1483     55.05505     101.2022         8     1.258     0.631  85.09   0
        62    153.0505    929.5172 307.8501033  +6.2967504     596.6096     918.7299     1288.465      78.2944     156.2167     312.3713      1.610     4.65     852.1049     55.05505     106.1809         7     0.928     0.662  64.50   0
        63    876.8960    928.4919 307.5495984  +6.3213874     659.9539     1024.057       1174.3      78.2944     156.7126     312.3092      1.738     4.74      853.019     55.05505     82.99341         8     0.952     0.671 -56.62   0
        64    419.2394    928.5200 307.7396193  +6.3060865     653.0349      851.173     1037.967     78.17042     156.2788     312.3092      1.384     4.50     856.5863     55.05505     95.64825         7     0.931     0.618 -82.56   0
        65    987.5048    925.5687 307.5037692  +6.3262792     843.6204     1532.079     1889.804     78.41818     156.0303     312.4023      1.949     5.13     850.1438     55.05505     116.6085        10     1.235     0.767  63.75   0
        66    757.0897    923.2592 307.5995189  +6.3195521     1593.736     2450.208     2790.171     78.17042     156.2167     312.4334      1.548     4.25     854.4313     55.05505     243.5534        17     1.402     0.806  63.29   0
        67    580.8152    923.8615 307.6726895  +6.3134157     810.2632     1313.222     1687.622     77.79728     156.1546     312.1539      1.679     3.12     856.0605     55.05505     136.1833         7     0.867     0.522  40.06   0
        68    620.9916    919.6758 307.6561484  +6.3164867     776.6808     1187.272     1204.896     77.92186     155.7192     312.1228      1.582     5.09     855.8333     55.05505     99.46893         9     1.117     0.656  87.38   0
        69    542.3208    919.1517 307.6888305  +6.3140732     1199.364     1704.097      1439.95      78.2944     156.2788     312.2781      1.630     4.80     856.1038     55.05505     184.1906        14     1.424     0.745  52.56   0
        70    988.3720    918.9100 307.5036315  +6.3290574      1136.42     1930.719     2452.094     78.41818     155.9681      312.216      2.018     4.74     849.9625     55.05505     143.9012        13     1.256     0.779  21.96   0
        71      7.4514    919.9590 307.9108741  +6.2958054     952.9058     1490.658      2016.63      78.2944     156.2167     307.9935      1.975     4.24     848.6203     55.05505     156.1071        10     1.082     0.691  40.88  16
        72    675.5485    916.5235 307.6336015  +6.3196109     2680.009     4122.961     4213.834      78.2944     156.2788     312.3402      1.680     3.97      855.185     55.05505     380.5666        23     1.484     0.902  59.04   0
        73     72.0830    912.7683 307.8842833  +6.3009463     2965.775     4750.119     5090.328      78.2944     156.0303      312.216      1.727     3.96     850.5548     55.05505     401.2452        27     1.455     1.065  66.31   0
        74     89.9049    911.9385 307.8769121  +6.3018876     1807.628      3013.74     3181.971     78.17042     156.2788     312.4023      1.752     4.03     851.1298     55.05505     243.1099        19     1.352     0.915  59.15   0
        75    953.5460    912.1112 307.5183193  +6.3307049     766.1416     1177.592     681.1146      78.2944     156.0925     312.4644      1.574     5.11     850.8919     55.05505     91.04437         9     1.024     0.721  59.95   0
        76    836.1277    912.8331 307.5670499  +6.3264936     705.3578     964.9965     1175.934     78.17041     156.2167     312.3092      1.510     5.30     853.3287     55.05505     104.2055        10     1.246     0.635  38.92   0
        77    215.6093    911.6893 307.8247304  +6.3062105      2368.48       3769.7     3411.439     78.04623     155.9059     312.1539      1.670     3.62     852.8303     55.05505     321.9968        23     1.403     0.986  58.94   0
