#   1 NUMBER                 Running object number                                     
#   2 X_IMAGE                Object position along x                                    [pixel]
#   3 Y_IMAGE                Object position along y                                    [pixel]
#   4 ALPHA_J2000            Right ascension of barycenter (J2000)                      [deg]
#   5 DELTA_J2000            Declination of barycenter (J2000)                          [deg]
#   6 FLUX_APER              Flux vector within fixed circular aperture(s)              [count]
#   9 FLUXERR_APER           RMS error vector for aperture flux(es)                     [count]
#  12 FLUX_RADIUS            Fraction-of-light radii                                    [pixel]
#  13 FWHM_IMAGE             FWHM assuming a gaussian core                              [pixel]
#  14 BACKGROUND             Background at centroid position                            [count]
#  15 THRESHOLD              Detection threshold above background                       [count]
#  16 FLUX_MAX               Peak flux above background                                 [count]
#  17 ISOAREA_IMAGE          Isophotal area above Analysis threshold                    [pixel**2]
#  18 A_IMAGE                Profile RMS along major axis                               [pixel]
#  19 B_IMAGE                Profile RMS along minor axis                               [pixel]
#  20 THETA_IMAGE            Position angle (CCW/x)                                     [deg]
#  21 FLAGS                  Extraction flags                                          
         1    672.6701     20.8054 307.6452025  +6.6898458     8481.523     11151.05      10840.4     76.91467     154.0757     308.6432      1.405     3.20     808.9214     54.43044     1250.268        28     1.353     0.863  62.24   0
         2    393.0767     16.4062 307.7615264  +6.6823275     7367.479     9713.697      10120.4     77.03783     153.9525     308.6432      1.417     3.26     814.4505     54.43044     1092.962        25     1.227     0.906  59.49   0
         3    468.7258     13.5666 307.7301883  +6.6860282     1020.452     1175.498     1517.353     77.28356     154.4444     308.7967      1.355     4.71     810.4044     54.43044     131.4461        11     1.044     0.765  58.47   0
         4    384.6295     12.0532 307.7651824  +6.6838422     968.4089     1280.391     1589.246     77.16079     154.5058     308.7353      1.408     3.88     815.3322     54.43044     174.2181        12     1.304     0.623  66.27   0
         5    289.6696     11.3135 307.8046640  +6.6809708     15149.12     20640.32     21641.83     77.52852     154.6897     308.8274      1.466     3.20     819.0771     54.43044      2302.59        37     1.320     0.987  61.92   0
         6     63.2197     11.7523 307.8987392  +6.6732012     2823.108     3992.923     4737.823     76.91467     154.4444     308.6125      1.476     3.24     815.5869     54.43044     426.9324        21     1.312     0.865  57.98   0
         7     54.6279     10.6002 307.9023478  +6.6733886     1730.701     2542.413     3009.312     76.91467     154.1987     308.6125      1.607     3.36      815.553     54.43044     287.5081        16     1.318     0.677  61.29   0
         8    758.1053     10.2364 307.6100553  +6.6970563     996.8837     1240.105      1223.57     77.52852     154.3216     308.8888      1.415     3.55     807.7659     54.43044     178.8587        10     1.079     0.637  73.49   0
         9    424.0812      9.6449 307.7488704  +6.6861554     672.6094     826.9976     794.2562     77.40614     154.4444      308.766      1.338     3.45     811.5799     54.43044     116.5469         5     0.978     0.351  44.77   0
        10    355.7695      9.1991 307.7772698  +6.6840554     2621.858     3637.275     3677.131     76.79131     154.2601     308.6125      1.450     3.60     818.5939     54.43044     366.9138        19     1.242     0.806  56.01   0
        11    616.6244      4.7248 307.6690293  +6.6946159     12538.04      17010.5     17858.36     77.03783     154.2601     279.5331      1.422     3.18     808.9097     54.43044     1904.212        35     1.343     0.936  65.76  24
        12    950.8893      5.9275 307.5300902  +6.7052499      852.274      1207.89     1820.466     77.40614     154.6897     292.2666      1.390     4.17     806.8396     54.43044     127.7995         9     1.017     0.629  57.36  16
        13     34.4140      5.7495 307.9109099  +6.6747129     777.8925     988.8984      1238.46     76.79131     154.4444     290.3465      1.416     2.74     815.3519     54.43044     131.2479         8     0.956     0.702  28.95  16
        14    781.1994      4.0305 307.6006663  +6.7003876     1834.583     2731.484     3008.284     76.79131     152.5296     270.9915      1.534     3.84     807.5271     54.43044     288.8741        17     1.349     0.785  63.18  24
        15    494.3393      4.4803 307.7198500  +6.6906351     1531.269     1873.666     1872.128     77.52852     154.4444      276.738      1.319     3.14     809.9451     54.43044     233.5392        13     1.068     0.728  59.96  16
        16    851.6956      2.3088 307.5714301  +6.7034450     1711.865     2196.315     2595.442     76.66775     136.5239      247.476      1.323     3.59     807.2369     54.43044     268.5701        11     1.064     0.638  56.84  24
        17    393.1391      2.2996 307.7619738  +6.6881536     644.8999     1017.243     948.7398     76.42004     135.9672      247.476      1.888     4.40     814.4454     54.43044      115.776         8     1.097     0.503  55.05  24
        18    216.6540      2.0538 307.8353137  +6.6823488      7035.45     8335.223     8118.452     75.29523     133.0777     243.8484      1.278     3.36     818.5042     54.43044      1159.01        19     1.117     0.791  37.12  26
        19    220.9819      1.0000 307.8335508  +6.6829289     464.7348     615.4214     533.3018     62.34603     117.1659     226.6399      0.884     3.59     818.7234     54.43044      146.776         5     1.004     0.370   0.16  27
        20    738.3802      2.1828 307.6185210  +6.6997242     577.9875     532.9649     764.6782     75.67202     134.4245     245.5917      1.180     3.33     807.4475     54.43044     105.5217         5     0.781     0.411  67.16  24
        21    608.6158      1.4169 307.6724679  +6.6957145      5293.95     5991.577     6256.874     68.43533     123.6997     233.6024      0.949     2.06     808.8776     54.43044     1400.739        13     0.921     0.591   5.05  24
        22    378.4121      1.4895 307.7681203  +6.6879956     4825.583     5441.434      5217.24     68.98724     124.9958     234.6552      0.977     2.23     816.1922     54.43044     1141.276        14     0.953     0.652   1.99  24
        23    638.5183      1.1592 307.6600511  +6.6968182     2210.835     2594.664      3135.13     65.17123     119.9645     229.3428      0.806     1.59     808.5931     54.43044     764.4847         6     0.739     0.366  -0.13  24
        24    286.3468    990.0592 307.7731924  +6.2767699     541.3954     677.3823     404.7642     77.40614      154.383     308.7967      1.428     3.46     840.7407     54.43044     96.27551         5     0.814     0.425  72.00   0
        25    921.0847   1023.8011 307.5085264  +6.2839998     943.1407     1217.753     1189.241     65.17122     120.4377      229.962      1.083     3.08       837.14     54.43044     244.4279         7     1.034     0.391  -4.86  24
        26    696.0193   1023.5362 307.6019813  +6.2766211     864.2448     1079.491     1119.986     68.84967     124.6921     234.2913      1.228     3.62     840.1275     54.43044     154.8296         9     1.047     0.615   2.21  24
        27    680.8119   1023.4033 307.6082997  +6.2761693     1653.462     1888.228     1786.337     70.21317     126.3537     236.3861      1.154     2.97     840.4174     54.43044     334.4887        11     1.058     0.635 -15.23  24
        28    327.4944   1022.0967 307.7550346  +6.2649184     1908.226     2485.311     2401.496     77.40614     143.4322     256.0986      1.491     3.82     842.0998     54.43044     236.9244        18     1.232     0.939  46.69  24
        29    188.2978    987.3101 307.8139925  +6.2746243     1900.559     2926.807     3287.086     77.40614     154.8735     308.7967      1.742     3.76     839.0677     54.43044     279.5424        20     1.276     0.991  69.69   0
        30    587.1409    985.5319 307.6484571  +6.2886836     894.3698     1301.013     1275.958     77.52852      154.383     308.7967      1.646     5.70     841.5839     54.43044     121.8076        11     1.188     0.771  57.66   0
        31    778.9813    982.7281 307.5688980  +6.2962320      2321.72     3820.178     3919.408     77.03783      154.383     308.7353      1.743     3.94     838.7269     54.43044     314.7208        24     1.415     1.037  48.32   0
        32    727.2125    980.7408 307.5904591  +6.2953291     6612.927     10713.81     11805.99     76.79131      154.383     308.5203      1.755     3.73     838.8889     54.43044     871.2579        39     1.651     1.135  86.94   0
        33    196.4455    979.9311 307.8108575  +6.2779435     1504.287     2358.156     2400.137     77.40614      154.383     308.7967      1.621     4.09     839.0176     54.43044     224.7195        17     1.309     0.875  62.84   0
        34    514.0829    979.7025 307.6789857  +6.2886535     1069.779     1625.561     1928.577     77.40614     154.8123     308.8581      1.708     4.28     841.7033     54.43044      124.972        13     1.103     0.838  68.06   0
        35    161.0496    979.3149 307.8255738  +6.2770130     920.2016     1180.846     1336.057     77.40614     154.4444     308.8888      1.398     4.77     838.4236     54.43044     116.0656         9     1.020     0.633  52.62   0
        36    915.4524    975.7538 307.5124662  +6.3036504     6258.921     10837.09     11184.75     77.52852      154.383     308.8581      1.874     4.11     835.8754     54.43044     697.1905        40     1.578     1.269  66.67   0
        37     21.5113    977.7971 307.8835572  +6.2729641     2813.823     4322.025     4308.082     76.79131     154.1372     308.5203      1.624     3.57     836.6849     54.43044      347.363        25     1.297     1.079  58.03   0
        38    597.4785    970.0527 307.6446825  +6.2954193     800.9822     1204.513     1348.825     77.40614     154.4444     308.7967      1.560     6.42     841.1199     54.43044     117.5209        12     1.299     0.890  56.66   0
        39    889.1772    967.2752 307.5236587  +6.3062777     2014.264     3214.566      3311.79     77.03783     154.3216     308.7046      1.722     3.95     836.4116     54.43044     279.0955        21     1.323     1.005  57.65   0
        40    748.7493    964.0627 307.5820737  +6.3029322      1276.89     2060.022     2822.445     77.40614      154.383     308.8581      1.998     5.24     838.4775     54.43044     166.9673        18     1.352     0.997  46.95   0
        41    222.0482    963.6213 307.8007751  +6.2855342     4624.636     6732.989     6758.237     77.03783     154.4444     308.6739      1.532     3.32      838.917     54.43044      597.841        28     1.329     1.049  61.60   0
        42    609.8895    963.2782 307.6397559  +6.2986301     4646.527     6898.406     6759.558      77.1608     154.6897     308.9195      1.585     3.56     840.8517     54.43044     600.9717        27     1.332     1.015  64.31   0
        43    959.3596    962.3311 307.4946824  +6.3106514      759.897     1270.784     1292.976     77.28356     154.4444     308.8888      1.786     4.10     834.3038     54.43044     127.5664         9     1.130     0.903 -40.41   0
        44    432.0820    961.6954 307.7136352  +6.2933507     1222.716     1829.367     1402.109      77.1608      154.751     308.9195      1.551     5.01     840.8983     54.43044     169.8293        15     1.389     0.796  57.59   0
        45    841.7160    959.8430 307.5436133  +6.3077680     937.8145     1430.828     1009.381     77.40614      154.383      308.766      1.497     3.96     837.4764     54.43044     134.6368        11     0.977     0.870  85.95   0
        46    934.1631    957.5787 307.5053029  +6.3117764     585.6449     1062.016      1317.67     77.03783     154.1987      308.551      1.994     4.98     834.7853     54.43044     70.64899         7     1.549     0.453  62.34   0
        47    913.6771    957.3748 307.5138159  +6.3111798     685.1934     1022.539     1140.386     77.03783      154.383      308.766      1.704     4.86     835.3484     54.43044     100.5991         8     0.946     0.707  83.71   0
        48    965.9980    955.4668 307.4921547  +6.3137061     852.4717     1553.237     1793.275     76.79131     154.0757     308.5817      1.862     7.41     833.9768     54.43044     124.1229        13     1.730     0.888 -68.87   0
        49    534.5117    955.9360 307.6712989  +6.2991476     1787.521     2621.291     2496.419     77.40614     154.6897     308.7967      1.575     4.19     841.0759     54.43044     240.3644        16     1.305     0.800  62.52   0
        50    258.0308    957.0431 307.7860563  +6.2894540     873.6307     1129.162     1356.479     77.03783      154.383     308.6432      1.344     4.82     839.1194     54.43044     135.3018         9     1.021     0.646  39.02   0
        51    573.7165    952.1709 307.6551467  +6.3020099     1311.322     1837.025     1906.749     77.40614     154.1987     308.6739      1.496     3.98     840.8043     54.43044     175.0136        13     1.103     0.822  63.48   0
        52     23.5452    952.6234 307.8835594  +6.2834255     717.1678     1077.077     1094.677     77.03783     154.4444     308.6125      1.485     3.43     835.7449     54.43044     122.1849         7     1.084     0.492 -85.54   0
        53    253.6567    950.1069 307.7881051  +6.2921714     1470.634     2148.334     2365.844     77.28356     154.4444     308.9809      1.630     4.89     838.8186     54.43044     177.8991        16     1.328     0.880  78.41   0
        54    521.7797    948.3533 307.6768390  +6.3018535     591.4116     786.8646     433.3195     77.03783     154.4444     308.6432      1.426     3.49     840.8668     54.43044     85.16058         5     1.223     0.288  54.63   0
        55    720.6371    946.2567 307.5943409  +6.3093479     925.5491     1293.462     873.0168     77.40614     154.5058     308.8274      1.472     4.08     838.4852     54.43044     127.8679         9     0.998     0.638 -81.82   0
        56    858.1838    942.5360 307.5373528  +6.3154615     6826.726     11090.18     11184.91     76.91467      154.383     308.6739      1.728     3.81     836.7414     54.43044      816.704        36     1.489     1.162  59.53   0
        57     95.8103    944.1201 307.8538422  +6.2893583     573.4491     784.8391     532.9005     77.03783     154.1372     308.6432      1.406     2.65     836.2943     54.43044     85.87512         5     0.894     0.728 -84.05   0
        58    393.9724    939.9047 307.7301883  +6.3010745     2334.784     3470.646     3850.778     77.52852     154.1987     308.7046      1.554     4.04     839.6507     54.43044     339.7322        19     1.334     0.844  63.00   0
        59    295.6266    938.1808 307.7710794  +6.2984991     10251.92     15022.69     15918.98     77.03783     154.2601     308.7046      1.577     3.46      838.807     54.43044     1324.343        34     1.364     1.063  64.00   0
        60    215.6652    937.1537 307.8043136  +6.2962481     7530.376     11162.38     11817.25     77.40614      154.383     308.7967      1.600     3.41     837.9832     54.43044      954.879        32     1.367     1.049  69.61   0
        61    543.8022    931.4390 307.6682609  +6.3095718     1351.063     1878.321      1305.28     76.54399     154.1987     308.5203      1.542     4.40     840.4224     54.43044      168.418        13     1.161     0.778  72.31   0
        62    873.5102    927.6119 307.5314865  +6.3221330      1124.66      1961.58     2327.215      77.1608     154.1372     308.6125      1.921     5.07     835.9139     54.43044      137.291        12     1.101     0.897  41.49   0
        63    830.5812    927.0925 307.5493292  +6.3209197     758.8953     1413.837     1824.953     77.28356     154.1987     308.6739      2.393     4.98      837.067     54.43044      100.621        11     1.100     0.757  58.93   0
        64    178.1030    927.4653 307.8202345  +6.2989907     571.2555     882.3636     552.2004     77.40614     154.5058     308.8274      1.835     3.88      837.471     54.43044     95.47327         5     1.286     0.335  47.67   0
        65    106.4026    927.8260 307.8499919  +6.2964404     624.2843     665.6018     436.0774     76.91467     154.1372     308.6125      1.343     4.51     836.1466     54.43044     102.0365         5     0.857     0.674  45.00   0
        66    802.6501    921.5369 307.5611124  +6.3222842     496.8524     862.0223     801.6711     77.40614      154.383     308.8581      1.657     3.97     837.6475     54.43044     69.78821         6     0.946     0.477  89.92   0
        67    710.0950    920.5920 307.5995754  +6.3195932     1819.887     2684.665       3101.1     77.16079     154.0757     308.6125      1.687     3.79     838.3286     54.43044     245.5957        17     1.218     0.879  63.40   0
        68    533.7927    921.0057 307.6727662  +6.3135455     588.9393     640.1317      805.698     76.79131     154.2601     308.6432      1.227     3.87     840.1627     54.43044      89.1181         5     0.833     0.515  34.99   0
        69    941.4308    916.2999 307.5036607  +6.3290612     1332.665      2118.13     2822.771     77.40614     154.1987     308.9502      1.836     4.36     833.6287     54.43044      187.474        15     1.276     0.874  49.48   0
        70    585.5634    917.0559 307.6514021  +6.3169031     742.6346     1204.468     737.3383     77.28356     154.4444     308.8274      1.388     3.65      839.861     54.43044     125.9594         6     0.811     0.473  76.89   0
        71    495.3141    916.4623 307.6888952  +6.3141373     1284.343     2044.138     1822.769     77.52852     154.6284     308.7967      1.723     3.78      840.063     54.43044     171.0688        15     1.113     0.914  34.67   0
        72    628.7796    914.1074 307.6335563  +6.3195612     2798.173      4162.26     4417.474     77.28356     154.2601     308.6432      1.596     3.25     839.3691     54.43044     417.8164        22     1.314     0.921  60.52   0
        73    574.5701    917.6055 307.6559483  +6.3163095     949.0627     1174.442     1081.484     76.91467     154.2601     308.5817      1.485     4.64     839.9372     54.43044     148.0649        13     1.354     0.671  61.79   0
        74     25.2671    910.3367 307.8842666  +6.3009417     3084.201      4764.74     5110.374     77.40614     154.4444     308.8274      1.663     3.59     834.5813     54.43044     403.6848        28     1.361     1.128  78.47   0
        75    789.8130    910.4338 307.5668133  +6.3264413     879.3146     1419.022     1157.385     76.91467     154.1987     308.7046      1.680     5.31     837.5012     54.43044     144.6796        10     1.073     0.742  63.27   0
        76    168.7432    909.1407 307.8247361  +6.3062429     2364.444     3556.287     3412.029     77.52852     154.4444     308.8274      1.559     3.39      837.046     54.43044     315.4406        20     1.208     1.010  78.80   0
        77     42.8827    909.7324 307.8769730  +6.3017817     1791.356     2664.909     2683.427     77.52852     154.6897     308.8274      1.548     3.85     834.8063     54.43044     237.6666        19     1.319     0.887  60.39   0
