#   1 NUMBER                 Running object number                                     
#   2 X_IMAGE                Object position along x                                    [pixel]
#   3 Y_IMAGE                Object position along y                                    [pixel]
#   4 ALPHA_J2000            Right ascension of barycenter (J2000)                      [deg]
#   5 DELTA_J2000            Declination of barycenter (J2000)                          [deg]
#   6 FLUX_APER              Flux vector within fixed circular aperture(s)              [count]
#   9 FLUXERR_APER           RMS error vector for aperture flux(es)                     [count]
#  12 FLUX_RADIUS            Fraction-of-light radii                                    [pixel]
#  13 FWHM_IMAGE             FWHM assuming a gaussian core                              [pixel]
#  14 BACKGROUND             Background at centroid position                            [count]
#  15 THRESHOLD              Detection threshold above background                       [count]
#  16 FLUX_MAX               Peak flux above background                                 [count]
#  17 ISOAREA_IMAGE          Isophotal area above Analysis threshold                    [pixel**2]
#  18 A_IMAGE                Profile RMS along major axis                               [pixel]
#  19 B_IMAGE                Profile RMS along minor axis                               [pixel]
#  20 THETA_IMAGE            Position angle (CCW/x)                                     [deg]
#  21 FLAGS                  Extraction flags                                          
         1    261.7205     45.1714 307.8299228  +6.6634382     7247.153     14141.62     16278.32     79.39828     158.6074     317.2148      2.110     6.14     863.4559     55.91983     827.0278        49     2.000     1.119  38.64   0
         2    179.2944     27.1528 307.8647768  +6.6681021     8435.712     16171.97     17315.24     79.39828     158.6074     317.3725      2.028     6.38     863.1113     55.91983     1041.108        46     1.991     1.046  36.02   0
         3    709.0744     17.7474 307.6449777  +6.6897865       5709.5     10939.82     11682.32     79.52421     158.7335     317.2463      1.988     6.56     847.1257     55.91983     804.9635        33     1.840     0.931  35.95   0
         4    629.0764     16.9296 307.6782445  +6.6874425     2976.268     5707.179     5849.163     79.77547     158.8596     317.2463      2.016     7.29     848.2537     55.91983     450.2778        29     1.907     0.941  33.14   0
         5    429.4486     13.2321 307.7613131  +6.6822674     4982.468     9367.801     9921.493     79.27216     158.6705     317.1833      2.001     6.14      855.441     55.91983      626.272        35     1.956     0.933  36.32   0
         6     30.3768     12.7353 307.9271341  +6.6690336     6742.325     13015.28     13959.66     79.14582     158.6705     317.1517      2.024     6.15     864.5411     55.91983     871.7007        42     1.969     1.014  35.28  16
         7    676.7235     12.1975 307.6586062  +6.6909939     666.2208     1134.365     1021.571     79.01929     158.1652     317.1201      1.876     5.17     847.3025     55.91983     123.2977         8     1.410     0.536  33.18   0
         8    325.9675      8.0748 307.8044820  +6.6809174     10271.55     19828.07     22066.54     79.39828     158.6705     316.0455      2.046     6.17     861.0591     55.91983     1255.941        51     1.997     1.088  34.25  16
         9    504.7318     10.1972 307.7301359  +6.6860495     793.8082     1343.304     1717.367     78.89256     158.2916     317.0255      2.016     5.10      850.293     55.91983     109.0851        10     1.387     0.531  24.84   0
        10     99.6699      8.2831 307.8984960  +6.6732093     1866.512     3819.191     3583.854     79.77547     158.9225      316.836      2.026     6.29     862.1592     55.91983      268.677        24     1.897     0.844  35.14  16
        11     90.7525      7.1938 307.9022377  +6.6733584     1229.101     2525.679     2596.014     79.01929     158.4812     310.7452      2.111     7.19     862.2682     55.91983     175.9837        21     1.907     0.952  43.58  16
        12    793.8134      6.5844 307.6101432  +6.6972341     637.2242      1002.07     1061.759     79.27216     158.3548     306.2038      1.478     4.53     845.9029     55.91983     107.3544         6     1.352     0.431  25.58  16
        13    392.0782      5.9543 307.7770855  +6.6840163     1808.968     3364.792     2889.095     79.39828     158.7335     300.4638      1.862     6.78     857.6841     55.91983     252.5322        22     1.724     0.869  33.52  16
        14    653.2219      2.1449 307.6687093  +6.6943569     8111.595     13073.25     13854.21     77.22607     137.6673     251.6765      1.731     7.17      847.183     55.91983     1226.793        29     1.722     0.837  22.67  24
        15    818.3578      1.8451 307.6001038  +6.7000127     1270.823     1724.344     1904.097     75.12429     133.8343     246.9809      1.408     4.56     845.3168     55.91983     216.9653        12     1.430     0.620  28.68  24
        16    530.9990      1.7833 307.7195053  +6.6904056     900.4752     1370.698      1374.49     73.91578     132.3305     245.6402      1.610     5.78     849.0907     55.91983      153.645        12     1.585     0.593  19.79  24
        17    254.3100      1.1237 307.8344890  +6.6813758     602.6276     848.7303     719.9376     66.35401     123.0033     235.1507      1.030     3.29     863.0633     55.91983     166.2532         5     1.309     0.240 -10.09  24
        18    640.5475    997.5511 307.6405161  +6.2829108     901.0912      1421.16     1958.453     79.64994     158.5443     317.2463      1.703     3.10     879.6212     55.91983     172.1743         7     0.830     0.646  -3.20   3
        19    956.7263   1022.9352 307.5083948  +6.2830070     4556.775     7345.564     7497.631     77.35554     136.7191     250.6406      1.712     6.19     874.4204     55.91983     568.8938        27     1.750     0.892  18.87  24
        20    716.8898   1021.6420 307.6080121  +6.2755202     2148.006     4377.343     5013.919     79.52421     151.5087     269.6055      2.193     6.19     879.2104     55.91983      268.192        29     1.964     0.921  31.51  24
        21    710.6494   1023.1545 307.6105522  +6.2746868     693.1702      935.853     1428.465     75.25737     133.8343     247.1833      1.505     5.73     879.1973     55.91983     126.6332         9     1.127     0.819  48.17  25
        22    241.2679   1023.2589 307.8054150  +6.2588910     924.6887     1505.638     1459.343     74.05103     132.1034     245.3141      1.606     5.28     884.0964     55.91983     143.0858        10     1.304     0.604  23.37  24
        23    637.7189    995.6953 307.6417528  +6.2835824     808.0887     1349.263      1446.94     79.27216     158.9225      317.341      1.709     3.40     879.6722     55.91983     144.0579         7     0.779     0.668 -79.10   3
        24     64.1596    995.5810 307.8798738  +6.2643568     537.6337     1009.976     1494.465     79.14582     158.4812     316.9623      2.275     5.95      882.351     55.91983     88.18866         7     1.611     0.619  56.14   0
        25    482.7754    994.0024 307.7061376  +6.2790855     1662.337     3176.811     3665.052     79.14582     158.3548      317.057      1.946     6.30     882.7492     55.91983     210.4866        24     1.659     0.966  29.75   0
        26    916.9736    985.9138 307.5261393  +6.2969660     33095.19     65281.28     72956.55     79.64994      158.418     317.1201      2.118     5.58     874.6334     55.91983     3903.905        83     2.120     1.260  34.68   0
        27    224.1834    983.9911 307.8138318  +6.2745302     1505.368     2904.942     2387.871     79.27216      158.418     317.0886      1.974     6.73     883.0109     55.91983     189.4077        20     1.792     0.757  31.92   0
        28    623.7077    982.2067 307.6480230  +6.2886825     699.5345     1290.429     1072.978     79.14582     158.3548      317.057      1.858     5.70     879.8516     55.91983     88.17822        10     1.301     0.704  48.11   0
        29    815.1910    979.6782 307.5686073  +6.2961379      1742.57     3415.651     3745.396     79.14582     158.1652     317.0886      1.998     6.66     876.8066     55.91983     223.0093        26     2.038     0.854  29.21   0
        30    763.2126    977.5436 307.5902596  +6.2952802      5288.15     10369.27     11948.47     78.89256     158.6074     316.9308      2.093     5.82      877.883     55.91983     646.1083        39     2.002     1.014  35.62   0
        31    549.8748    977.1349 307.6788471  +6.2883015     830.7607     1583.489     1601.859     79.64994     158.6705     317.2148      2.047     5.94     881.9666     55.91983       112.78         9     1.340     0.741  35.84   0
        32    232.8382    976.7190 307.8104840  +6.2778241     1183.545     2078.978     1931.699     79.52421     158.7335     317.1833      1.929     6.75     882.9965     55.91983     155.5849        17     1.765     0.725  39.33   0
        33     57.5344    974.6292 307.8833319  +6.2727845     2163.458     4133.249      4104.11     79.27216     158.6705     317.1833      1.882     5.88      882.069     55.91983     310.2781        28     1.818     0.960  38.17   0
        34    951.5054    972.6179 307.5122472  +6.3036100     5229.617     10196.33     11162.13     79.39828     158.4812     317.1201      2.061     5.79     873.6257     55.91983     587.9485        41     1.981     1.061  31.50   0
        35    925.0404    964.2216 307.5235166  +6.3061929     1624.078      3310.96      3298.76     79.14582     158.4812      317.057      2.072     7.14     873.9111     55.91983     219.5032        27     1.897     0.995  30.33   0
        36    784.7708    960.8441 307.5818691  +6.3028972     1132.169     2180.192     2562.664     79.14582     158.7335     317.1517      1.987     5.09     876.8442     55.91983      155.355        16     1.434     0.851  33.95   0
        37    645.8229    960.2103 307.6395800  +6.2985064     3648.211     7004.159      7233.04     79.14582     158.4812     317.0886      2.010     6.06     879.2593     55.91983     480.7516        32     1.854     0.949  35.53   0
        38    258.0739    960.4154 307.8005569  +6.2854049     3431.692     6636.902     7025.737     79.01929      158.418     317.1517      1.980     6.09     883.0846     55.91983     472.6601        31     1.875     0.953  34.46   0
        39    468.3068    958.5535 307.7133371  +6.2932374     847.1008     1592.709     1532.591     79.39828     158.6074     317.3725      2.029     6.30     882.5839     55.91983     145.4829        12     1.609     0.694  47.38   0
        40     26.9421    957.7127 307.8966037  +6.2787383     1660.361     3146.174     2791.372     79.52421     158.6705     317.3725      1.919     6.92     881.8305     55.91983     217.5128        21     1.760     0.798  38.44   0
        41    877.2651    956.8659 307.5435992  +6.3076335     844.0447     1560.166     1543.186     79.52421     158.6705     317.2779      2.044     4.90      874.642     55.91983     123.4027         9     1.128     0.704  33.17   0
        42    969.4856    954.6427 307.5053838  +6.3116331     528.5238     1033.837     729.3435     79.52422     158.5443     317.2463      1.844     4.29     873.0321     55.91983     85.34955         5     0.975     0.537  46.61   0
        43    293.9581    954.4228 307.7858610  +6.2890860     596.2189     1045.771     1368.348     79.14582     158.5443     317.0255      2.056     5.80     883.5381     55.91983     124.7756         8     1.729     0.548  29.41   0
        44    950.3700    954.3707 307.5133297  +6.3111069     560.8492     837.0236     630.1389     79.01929      158.418     316.9939      1.739     4.16      873.259     55.91983     77.66486         5     1.234     0.400  37.11   0
        45    570.6874    952.7980 307.6710242  +6.2990486     1455.121     2624.731     2564.833     78.89256     158.2916     316.9623      1.805     6.88     880.6501     55.91983     197.8192        19     1.791     0.741  37.95   0
        46    608.5318    948.4906 307.6554565  +6.3020960     873.2936     1442.271     1714.714     79.64994     158.7966     317.2463      2.149     4.94     879.7957     55.91983     141.3264        10     1.173     0.741  22.42   2
        47     58.4039    949.0299 307.8838357  +6.2833839     675.2376     1203.423     1379.132     79.01929     158.5443     317.0886      1.975     5.11     881.7197     55.91983     88.99261         6     0.968     0.764 -20.02   0
        48    289.7425    946.5978 307.7878749  +6.2921753     1191.679      2279.49     2939.856     78.89256     158.3548     316.9939      2.374     6.17     883.4406     55.91983     161.3403        20     1.708     1.008  44.31   0
        49    556.1652    944.5916 307.6773295  +6.3019502     508.9009     817.0295     1047.832     79.01929     158.4812      317.057      1.836     5.08     880.6964     55.91983     69.60089         5     1.084     0.674  66.08   0
        50    756.7167    943.0225 307.5941148  +6.3093173     733.3036     1215.504     805.9512     79.39828     158.3548     317.1517      1.577     4.69     876.9632     55.91983     114.5403         9     1.548     0.404  27.48   0
        51    894.1140    939.4832 307.5371860  +6.3153745     5438.448     10497.28      11242.7     79.27216     158.8596     317.3094      2.024     5.82     874.0103     55.91983     665.7633        37     1.885     1.022  33.98   0
        52    430.0464    936.5574 307.7299623  +6.3010355     1676.422     3303.903     3489.151     79.52421     158.6705     317.1833      2.043     6.40     882.4805     55.91983     254.8734        21     1.701     0.873  40.60   0
        53    331.5922    935.0212 307.7708902  +6.2983623     7404.577     14296.57     15339.58     79.01929     158.4812     317.0255      2.019     6.60     883.0013     55.91983     960.0172        43     1.941     1.050  33.39   0
        54    251.7166    933.9434 307.8040888  +6.2961216     5603.466     10795.53     11391.82     79.52421     158.6705      317.341      2.021     6.49     882.4573     55.91983     711.3444        38     1.922     0.992  33.56   0
        55    579.9495    928.5947 307.6679922  +6.3093532     1032.662     1705.957     1465.384     78.89256     158.4812     316.8676      1.802     5.32     879.9017     55.91983     162.3602        11     1.536     0.520  31.45   0
        56    910.2582    924.7957 307.5309749  +6.3219789      890.964     1582.043     2230.155     78.89256     158.5443     317.0255      2.041     6.39     873.2562     55.91983     110.7834        14     1.506     0.761  32.09   0
        57    864.9818    923.0276 307.5498334  +6.3211955      726.096     1295.067     1342.822     79.14582     158.4812     317.1517      1.986     4.82      874.566     55.91983     118.1468         9     1.087     0.714  73.09   0
        58    977.5882    920.0478 307.5031777  +6.3261889     618.6602     1090.878     1643.071     78.89256     158.5443     316.9308      1.978     3.94     872.2863     55.91983      93.0166         5     1.311     0.339  40.72   0
        59    746.1974    917.4816 307.5993394  +6.3195117     1331.288     2367.228      2631.44     78.89256     158.2916     316.9939      1.871     6.41     876.6566     55.91983     166.5727        16     1.667     0.693  36.93   0
        60    531.1183    913.3533 307.6887790  +6.3140090      969.581     2044.944     2360.251     79.52421     158.6705     317.2779      2.207     6.69     880.4556     55.91983     141.7119        15     1.704     0.737  41.32   0
        61    977.3215    913.3238 307.5035136  +6.3289566     1009.035     2175.503     2621.062     79.77547     158.9225      317.341      2.266     6.60     871.9624     55.91983     144.7745        15     1.849     0.662  25.51   0
        62    622.1869    913.8153 307.6509521  +6.3168718     513.3281      858.123     733.0626     79.39828     158.3548     317.1833      1.517     3.52     878.8843     55.91983     91.08264         5     1.050     0.340  46.84   0
        63    609.9647    913.9564 307.6560219  +6.3164039     675.3883     953.0219     996.0779     79.27216     158.6074     317.0886      1.564     6.01     879.0302     55.91983     93.16223        11     1.373     0.741  31.98   0
        64    664.9781    911.1306 307.6332753  +6.3194143     1922.984     3634.654      3885.67     79.14582     158.6074     317.2148      1.949     6.15     878.2787     55.91983     243.0107        24     1.778     0.821  26.99   0
        65     61.2838    907.2419 307.8840518  +6.3007353     2042.133     4377.793     4604.041     79.52422     158.6074     317.1833      2.154     6.22      881.323     55.91983     245.9998        28     1.763     1.092  38.21   0
        66    825.1034    907.1967 307.5669220  +6.3263989     676.5303     1303.324     1140.838     79.27216     158.3548     316.9308      1.873     5.46     874.5786     55.91983     116.4916         9     1.409     0.597  35.23   0
        67    204.7442    906.1463 307.8245281  +6.3060189     1670.096     3210.215     3862.264     79.64994     158.6705     317.2148      2.076     6.74      881.621     55.91983     242.0466        23     1.728     0.894  32.91   0
        68     78.9630    906.4687 307.8767381  +6.3016503     1429.704     2885.106     2922.393     79.39828     158.6705      317.341      2.061     7.06     881.3859     55.91983     185.3517        22     1.808     0.963  23.43   0
        69    343.7033    902.3285 307.7669633  +6.3122686     603.9645     1513.083     1904.009     79.39828     158.7966     317.2148      2.362     6.36     882.4137     55.91983     120.1921        12     1.807     0.628  40.88   0
        70    659.4291    900.1863 307.6359468  +6.3237475     5532.558     10595.06     11653.82     79.14582     158.4812     317.1517      2.012     6.61     878.0338     55.91983     718.0159        38     1.906     1.011  34.25   0
        71    238.9865    903.0117 307.8104171  +6.3084654     716.0693     1385.732     1036.595     79.39828     158.3548     317.1833      1.753     6.64     881.8946     55.91983     121.7883        10     1.534     0.806  25.06   0
        72    795.6754    900.0916 307.5793791  +6.3283483     612.6435     992.5703     187.3011     79.52421     158.8596     317.2463      1.599     5.20     875.0129     55.91983     86.95129         7     1.095     0.697 -86.82   0
        73     19.1014    898.0939 307.9018736  +6.3030907     1010.311     1763.651     1721.995     79.52421      159.237     317.0886      1.913     7.45     881.0624     55.91983     148.3001        17     1.770     0.878  41.93   0
        74    897.1655    896.3879 307.5373630  +6.3332717     2121.634     4105.771     4306.284     79.01929     158.4812     317.0886      1.972     6.21     872.9788     55.91983     286.5322        24     1.880     0.870  29.79   0
        75    448.7830    897.2623 307.7235057  +6.3178901     452.8883     748.8499     568.2997     79.01929     158.6074     317.0886      1.575     4.30     881.3253     55.91983     74.16919         6     1.497     0.353  44.26   0
        76     32.3943    896.7885 307.8963990  +6.3040779     896.4308     1807.978     1904.805     79.14582     158.4812     317.1517      2.055     5.87     881.1166     55.91983     136.4608        12     1.619     0.599  33.30   0
        77    342.3574    893.2639 307.7678275  +6.3159662     13136.06     24636.81      26221.4     79.52422     158.6074     317.2779      1.978     6.65       882.29     55.91983     1695.528        46     1.950     1.017  34.72   0
