#   1 NUMBER                 Running object number                                     
#   2 X_IMAGE                Object position along x                                    [pixel]
#   3 Y_IMAGE                Object position along y                                    [pixel]
#   4 ALPHA_J2000            Right ascension of barycenter (J2000)                      [deg]
#   5 DELTA_J2000            Declination of barycenter (J2000)                          [deg]
#   6 FLUX_APER              Flux vector within fixed circular aperture(s)              [count]
#   9 FLUXERR_APER           RMS error vector for aperture flux(es)                     [count]
#  12 FLUX_RADIUS            Fraction-of-light radii                                    [pixel]
#  13 FWHM_IMAGE             FWHM assuming a gaussian core                              [pixel]
#  14 BACKGROUND             Background at centroid position                            [count]
#  15 THRESHOLD              Detection threshold above background                       [count]
#  16 FLUX_MAX               Peak flux above background                                 [count]
#  17 ISOAREA_IMAGE          Isophotal area above Analysis threshold                    [pixel**2]
#  18 A_IMAGE                Profile RMS along major axis                               [pixel]
#  19 B_IMAGE                Profile RMS along minor axis                               [pixel]
#  20 THETA_IMAGE            Position angle (CCW/x)                                     [deg]
#  21 FLAGS                  Extraction flags                                          
         1    103.0062     54.7308 307.8996237  +6.6511506     9654.259     14479.14     14937.96     77.79517     155.7772     312.1765      1.583     3.69     833.7081     55.05355     1293.085        35     1.516     0.958  52.00   0
         2    189.2448     20.8693 307.8649311  +6.6680302     10931.65     16318.13     17236.04     78.29227     156.1503     312.3318      1.606     3.75     833.7332     55.05355     1466.527        35     1.480     1.003  56.33   0
         3    533.4902     18.9889 307.7219465  +6.6803691     3049.836      4505.41     4568.865     78.04411     155.9017     312.1454      1.575     3.89     827.3782     55.05355     450.1516        23     1.428     0.879  57.80   0
         4    934.8915     18.5903 307.5551532  +6.6939640     4045.554     5981.465      6565.87     78.04411     155.8395     312.0832      1.616     3.86     824.3407     55.05355     602.3566        23     1.425     0.858  55.58   0
         5    735.7705     17.2501 307.6379460  +6.6878618     1899.975     2734.056     2561.184     77.91974     156.3366     312.2386      1.553     4.02     826.8311     55.05355     313.5328        16     1.363     0.737  54.85   0
         6    471.5167     17.3690 307.7477540  +6.6789592     1845.475     2729.806     2697.726     78.29227     156.0261     312.2075      1.583     4.34     828.3779     55.05355     295.3514        15     1.218     0.827  55.17   0
         7    999.6541     14.8412 307.5283651  +6.6976731     1875.874     2788.843     2709.916     78.16829     156.2124     312.3628      1.615     4.52     822.3981     55.05355     255.2715        18     1.453     0.788  57.16   0
         8    719.0009     11.3289 307.6451132  +6.6897448     7582.569     11104.99     10834.51     77.67039     155.7772     312.1454      1.525     3.93     826.6041     55.05355      1046.58        31     1.496     0.892  58.36   0
         9    639.2874     10.6337 307.6782624  +6.6873631     3862.964     5486.972     5700.184     78.29227     156.0882     312.3318      1.529     3.69     826.5803     55.05355     578.4116        22     1.418     0.775  56.77   0
        10    341.1609      9.9541 307.8021720  +6.6776433     884.0367     1287.793     1901.791     78.04411     156.2124     312.2075      1.893     5.16     834.4014     55.05355     126.2748        10     1.163     0.648  68.16   0
        11    439.4080      6.8388 307.7614506  +6.6822282     6477.053     9680.146     10272.54     77.67039     155.9639     303.4165      1.600     3.91     828.8003     55.05355     965.8573        28     1.464     0.917  51.30  16
        12    395.1887      8.9237 307.7797557  +6.6798832     849.5893     1167.318     1074.299     77.91974     155.8395     312.1765      1.475     4.88     830.9137     55.05355     110.4478         9     1.060     0.636  34.11   0
        13     40.3372      6.4685 307.9272916  +6.6689598     8749.483     13132.01     13792.86     78.29227     156.1503     300.6226      1.659     3.72     830.9719     55.05355      1273.09        37     1.483     1.069  51.03  16
        14    686.3717      5.7715 307.6588590  +6.6909467     980.0801      1418.53     1268.694     77.79517     156.0261     293.8684      1.527     3.80     826.3163     55.05355     149.3241         9     1.072     0.696  53.55  16
        15    515.1307      4.2100 307.7300721  +6.6858537     893.9411     1436.214     1381.966     77.79517     155.2783     276.5946      1.663     4.82     827.4815     55.05355     141.4843         8     1.088     0.604  62.01  16
        16    336.0931      2.2301 307.8045378  +6.6806612     12845.57     16840.42     17803.47     77.42025     136.6038     249.3385      1.443     3.94     834.5152     55.05355     1764.305        31     1.342     0.952  32.45  24
        17    109.6359      2.3527 307.8986350  +6.6729932     2564.338     3613.937     3687.181     77.42025      138.157     251.0056      1.573     4.39      831.928     55.05355     365.7181        22     1.449     0.895  37.76  24
        18    430.6343      1.9603 307.7652604  +6.6839474      734.035      948.303     1412.418     74.74318     133.0065     244.9035      1.322     3.38     828.8549     55.05355     127.9315         5     0.780     0.424  69.53  24
        19    101.1871      1.5733 307.9021721  +6.6730304     1210.888     1595.248     2002.645     70.60605     127.4201     238.8487      1.313     4.13      831.928     55.05355     204.7264        12     1.326     0.598  16.91  24
        20    805.3994      1.2452 307.6095467  +6.6967971     638.3227     712.3864     872.0778     66.64891     122.2933     233.1776      1.149     3.81      823.897     55.05355      153.257         6     0.969     0.430   1.08  24
        21    402.7359      1.2515 307.7768774  +6.6833034     824.9053     1150.281     1296.541     67.08406      123.005     233.8422      1.186     2.63     830.1931     55.05355     234.7222         6     0.860     0.432  -3.14  24
        22    539.8362    990.8497 307.6867060  +6.2794211     3937.012     6607.075     7629.181     78.04411     156.2124     312.2386      1.852     4.26      858.936     55.05355     497.3211        35     1.592     1.207  37.65   0
        23    759.5685   1022.3930 307.5944111  +6.2737540     1173.194     1594.133     1454.421     77.67039     141.3494      254.688      1.557     5.40     857.5932     55.05355     139.9495        15     1.236     0.850  56.77  24
        24    608.2947    992.3128 307.6582311  +6.2811099      1360.21     2255.326     1888.554     78.29227     156.5845     312.3939      1.723     5.32     858.5059     55.05355     166.4155        17     1.455     0.818  38.37   0
        25    649.3497    990.2296 307.6412536  +6.2833440     1397.355     2114.266     1968.205     77.91974     156.3366     312.2386      1.641     4.93     858.1661     55.05355      195.067        18     1.486     0.852  48.88   0
        26     73.9764    989.3115 307.8801891  +6.2644136      994.712     1451.943     1459.298     78.29227     156.0261     312.2075      1.640     5.45     853.9839     55.05355     140.2465        10     1.106     0.758  36.42   0
        27    804.6357    988.6089 307.5768274  +6.2892058     555.4924     900.6396     671.6787     77.79517     155.9639     312.1143      1.785     3.80     855.5095     55.05355      101.122         5     1.027     0.673  62.08   0
        28    492.6434    987.4629 307.7064153  +6.2792377     2267.317     3377.653     3434.844     78.29227     156.1503     312.3939      1.637     4.07      858.851     55.05355     276.8516        21     1.394     0.881  57.17   0
        29    927.2442    979.4899 307.5262198  +6.2970645     38550.77      67185.9     72703.12     78.29227     156.0882     312.4249      1.908     4.21       854.01     55.05355     4506.975        81     1.829     1.340  57.82   0
        30      1.3833    979.7402 307.9106521  +6.2659203     1372.461     1904.206     2135.721     68.37288     124.7276     235.6601      1.236     3.83     852.5335     55.05355      280.106        11     1.282     0.540  82.04  24
        31    234.4034    977.5517 307.8139745  +6.2746624     1657.044     2908.636     3171.464     77.67039     155.9639     311.9278      1.933     4.72     856.2733     55.05355     198.6545        19     1.376     0.889  74.03   0
        32    633.0570    976.0062 307.6484952  +6.2886698     768.3678      1051.01     928.5038     77.79517     156.0882     312.0522      1.589     3.87     858.0259     55.05355      124.325         7     0.986     0.618  59.43   0
        33    122.5915    976.8250 307.8604244  +6.2712032     627.0121     1044.838     971.9844     77.91974     156.0261     312.1765      1.794     5.36     854.8904     55.05355     89.28387         8     0.991     0.820  54.98   0
        34    825.1509    973.2004 307.5688238  +6.2962516      2058.55     3564.917     3614.044     77.54543     155.8395     311.8967      1.742     4.25     854.9527     55.05355     311.0788        23     1.506     0.949  55.59   0
        35    773.3848    971.1212 307.5903889  +6.2953800     6371.544     10598.05     11318.43     77.91974     155.9639     312.1765      1.787     3.85     855.8382     55.05355     811.8799        40     1.574     1.195  57.51   0
        36    242.7870    970.1778 307.8107414  +6.2779878     1453.795     2401.909     2736.739     78.04411     156.0261     312.2386      1.618     5.13      856.191     55.05355     179.6331        20     1.483     0.937  55.35   0
        37    560.4347    970.3762 307.6788391  +6.2885621     854.0952     1175.425     742.9265     77.79517     156.0261     312.1143      1.597     4.60     858.3956     55.05355      121.462         8     1.116     0.539  56.45   0
        38    206.2249    969.4159 307.8259482  +6.2770736     808.7432     1383.202     1289.854     78.04411     156.0882     312.2697      1.829     4.95     855.9508     55.05355     128.3705         9     1.246     0.601  87.21   0
        39     67.7177    968.1446 307.8835006  +6.2729398     2624.015     4209.047     4632.694     78.29227     156.2124     312.3939      1.736     3.99     853.5003     55.05355     305.7587        24     1.405     0.995  55.92   0
        40    961.6330    966.2651 307.5123814  +6.3036710     5970.428     10702.95     11148.28     78.16829     156.2124     312.3007      1.912     4.57     852.9631     55.05355     701.5411        43     1.757     1.230  48.38   0
        41    217.6204    962.1243 307.8214618  +6.2804663     516.3698     926.3968     620.1404     77.91974     156.0261     312.2697      1.680     3.46     855.8508     55.05355     80.16675         5     0.776     0.446 -72.55   0
        42    935.4503    957.9809 307.5235304  +6.3062169     1808.886     3127.305     3046.539     77.79517     156.2745     312.1454      1.844     5.22     853.3747     55.05355     214.4558        22     1.481     1.020  59.85   0
        43    655.9832    953.8802 307.6397162  +6.2985703     4366.902     7143.496     7465.938     77.91974     155.9017     312.2075      1.714     3.85     857.4538     55.05355     554.6976        32     1.577     1.039  49.24   0
        44    268.3243    954.0949 307.8006785  +6.2854842     4174.304     6865.657     7430.835     77.91974     156.3986     312.3628      1.715     4.02     856.2574     55.05355     558.8024        32     1.579     1.043  48.91   0
        45    794.8837    954.1124 307.5820303  +6.3031195     1188.071     1827.642     2196.921     78.04411     156.3986     312.3628      1.695     5.47     854.8687     55.05355     186.6716        16     1.387     0.838  44.37   0
        46    477.9930    952.2077 307.7136811  +6.2932991      1045.72     1606.373     1961.328     77.67039     156.0261     312.2075      1.566     5.48      858.082     55.05355      139.069        14     1.359     0.782  40.84   0
        47     36.8720    951.2534 307.8968769  +6.2788735     1897.439     3312.149      3198.17     78.16829     156.1503     312.2697      1.796     4.45     852.6243     55.05355     293.2452        24     1.487     1.015  59.87   0
        48    888.0138    950.1627 307.5434898  +6.3078607     777.1141     1416.253     1399.025     77.79517     156.0261     312.0522      1.922     6.10     853.7471     55.05355     107.2365        10     1.378     0.758  40.90   0
        49    959.2194    947.2869 307.5140172  +6.3114244     807.3719     1330.479     926.8225     78.04411     155.9639     312.2075      1.692     5.87     852.6499     55.05355     118.6069        11     1.169     0.830  62.58   0
        50    304.3473    947.6441 307.7859376  +6.2893568     838.7139      1246.43     1682.651     78.29227     156.2124     312.3318      1.773     3.92     856.7206     55.05355     155.9107         8     1.192     0.610  47.81   0
        51    580.5857    946.3605 307.6712765  +6.2991502     1602.285     2445.392     2344.456     77.79517     156.0261     312.0832      1.651     4.48     857.7906     55.05355     222.3578        18     1.451     0.798  46.25   0
        52   1012.0189    945.7482 307.4921430  +6.3138207     755.6755     1385.561     1238.183     77.79517     156.2745     312.1454      1.819     6.02     851.5807     55.05355     107.1722         9     1.225     0.833   6.43   0
        53    619.9843    942.5312 307.6550447  +6.3020500     1326.719     1911.522     1862.595     77.79517     156.1503     312.2386      1.611     6.35     857.5101     55.05355     162.7231        15     1.334     0.848  35.28   0
        54     69.4945    942.9029 307.8836130  +6.2834185     811.9321     1313.788     1519.074     78.29227     156.7702     312.1765      2.001     4.99     853.0676     55.05355     121.2866         8     1.245     0.809  13.54   0
        55    299.8435    940.5238 307.7880470  +6.2921446     1469.387     2229.228     2910.582     78.16829     156.2745     312.3628      1.796     4.17      856.628     55.05355     195.1538        15     1.197     0.886  46.63   0
        56    766.6097    936.5483 307.5943586  +6.3094246     967.4144     1243.692     1143.586     77.67039     156.0882     312.0832      1.635     5.55     855.0693     55.05355     146.4547        11     1.463     0.594  45.97   0
        57    904.3126    933.1359 307.5372903  +6.3154333     6383.365     10677.72     11295.76     78.29227     156.3986     312.3628      1.811     4.04     853.1658     55.05355     760.1877        39     1.658     1.125  54.17   0
        58    142.0681    934.6752 307.8537561  +6.2892563     597.7075     664.0121     259.6397     78.41605     156.3366     312.3318      1.312     4.44     854.5358     55.05355     89.41193         7     1.058     0.530  67.29   0
        59    113.6404    932.3697 307.8656375  +6.2892517     575.8961     774.9263     670.4072     77.79517     155.9639     312.1454      1.643     6.39     853.8032     55.05355      97.0816         7     1.424     0.804  71.93   0
        60    440.1674    930.2057 307.7301259  +6.3011128     2221.451     3598.954      3601.28     77.67039     156.0261     312.1454      1.677     4.26     857.2371     55.05355     268.0367        20     1.391     0.875  51.95   0
        61    341.8115    928.6730 307.7710186  +6.2984453     9655.928      15111.1     16330.87     77.79517     155.8395     312.1765      1.694     3.80     856.7648     55.05355     1283.362        38     1.544     1.075  57.10   0
        62    608.5331    930.3870 307.6602066  +6.3066796     532.0333     707.0501     741.4213     77.79517     156.0261     312.2386      1.596     4.15     857.3475     55.05355     97.38007         5     1.212     0.405 -56.37   0
        63    261.8974    927.6873 307.8042348  +6.2961686      6914.91     11100.37     11531.77     78.29227     156.6465     312.3628      1.714     3.82     855.9279     55.05355     889.4886        34     1.521     1.057  54.93   0
        64    590.0524    922.1702 307.6681561  +6.3094525     1275.841     1724.527     1777.366     78.04411     156.3366     312.2697      1.461     3.89     857.2456     55.05355     152.1843        13     1.035     0.845  37.21   0
        65    774.2421    921.7026 307.5916857  +6.3158078     704.7194     1084.648     818.6931     78.29227     156.0882      312.549      1.674     5.25     854.6332     55.05355     96.25732         9     1.147     0.680  47.98   0
        66    920.0467    918.5875 307.5312424  +6.3219639     1039.365     1875.834     2279.598     77.67039     156.0261     312.0522      1.967     6.88      852.767     55.05355     130.4926        14     1.398     0.950  40.40   0
        67    876.8895    916.9694 307.5492182  +6.3211910     736.3367     1166.113     1347.574     78.41605     156.0261     312.2697      1.697     4.72     853.2137     55.05355     116.7477         8     1.006     0.628  25.33   0
        68    418.7127    916.3696 307.7394992  +6.3061044     576.9686     868.6512     1026.407     78.41605     156.0261     312.2697      1.545     5.37     856.7691     55.05355     78.45898         8     1.445     0.564  39.01   0
        69    756.2803    910.9980 307.5995026  +6.3196261     1682.773     2651.022     3138.194     77.67039      155.715     312.0832      1.682     4.10     854.8392     55.05355     285.2142        19     1.444     0.839  56.14   0
        70    579.7825    911.5378 307.6727770  +6.3134974     697.1705      1084.83     1258.614     77.91974     156.1503     312.1765      1.992     5.96     857.0869     55.05355     92.65808         9     1.157     0.864  48.70   0
        71    541.3140    907.2515 307.6888949  +6.3139781     1267.032     1828.057     1484.646     78.29227     156.0882     312.3939      1.572     4.15     857.3032     55.05355     187.7366        15     1.175     0.915  78.51   0
        72      6.6022    908.5399 307.9108847  +6.2954848     912.3259     1311.876     1635.844     77.67039     155.9017     301.5568      1.601     5.90     851.5424     55.05355     112.6447        11     1.198     0.817  52.30  16
        73    987.7592    906.8336 307.5035159  +6.3290751     1081.864     1961.036     2409.849     78.04411     156.2124     312.1765      2.029     5.14     851.1392     55.05355      150.574        16     1.313     1.080  39.90   0
        74    631.8748    907.0641 307.6512951  +6.3170882     685.7545     691.5038     311.9569     78.41605     156.2124     312.3007      1.344     5.93     856.5947     55.05355     89.46802         8     1.270     0.779  27.47   0
        75    619.9943    907.7412 307.6562059  +6.3164110     759.3748     1145.219     866.1199     77.79517     156.0882     312.1143      1.580     5.15     856.6806     55.05355      96.3551        10     0.963     0.778  87.21   0
        76    965.7038    903.6442 307.5127813  +6.3296559     582.9267     1276.294     846.8572     78.29227     156.1503      312.487      1.976     7.56     851.5657     55.05355     94.63885        11     1.826     0.875  65.45   0
        77    674.9700    904.6287 307.6334809  +6.3195357     2576.076     3719.782     4313.884     77.79517     155.9639     312.0832      1.588     3.91     856.3107     55.05355     338.9627        20     1.325     0.923  51.76   0
