#   1 NUMBER                 Running object number                                     
#   2 X_IMAGE                Object position along x                                    [pixel]
#   3 Y_IMAGE                Object position along y                                    [pixel]
#   4 ALPHA_J2000            Right ascension of barycenter (J2000)                      [deg]
#   5 DELTA_J2000            Declination of barycenter (J2000)                          [deg]
#   6 FLUX_APER              Flux vector within fixed circular aperture(s)              [count]
#   9 FLUXERR_APER           RMS error vector for aperture flux(es)                     [count]
#  12 FLUX_RADIUS            Fraction-of-light radii                                    [pixel]
#  13 FWHM_IMAGE             FWHM assuming a gaussian core                              [pixel]
#  14 BACKGROUND             Background at centroid position                            [count]
#  15 THRESHOLD              Detection threshold above background                       [count]
#  16 FLUX_MAX               Peak flux above background                                 [count]
#  17 ISOAREA_IMAGE          Isophotal area above Analysis threshold                    [pixel**2]
#  18 A_IMAGE                Profile RMS along major axis                               [pixel]
#  19 B_IMAGE                Profile RMS along minor axis                               [pixel]
#  20 THETA_IMAGE            Position angle (CCW/x)                                     [deg]
#  21 FLAGS                  Extraction flags                                          
         1    472.5396     46.1740 307.7478186  +6.6790924     1924.328     3067.204     2894.217     81.07951     162.5471      324.868      1.616     4.14     903.3327     57.28606      269.167        18     1.485     0.764  72.72   0
         2    663.9557     24.1079 307.6690221  +6.6946119     11114.61     16537.06     17501.94     81.46714     162.4825     325.1265      1.561     4.00     900.0649     57.28606     1588.145        33     1.533     0.910  74.31   0
         3    263.9596     21.0002 307.8353371  +6.6824917     6292.964     10317.35     10748.65     80.55976     162.2238      324.674      1.667     4.19      919.022     57.28606     875.5233        34     1.515     1.047  75.53   2
         4    655.5755     19.5825 307.6726567  +6.6962004     9326.813     13909.57     14691.38     81.20893     162.4178     324.9327      1.645     3.79     899.9963     57.28606     1392.395        34     1.542     0.943  74.40   0
         5    425.3775     19.5237 307.7683141  +6.6885171       8125.5     12578.65     12527.76     81.07951     162.4178     324.9004      1.665     3.85     906.1658     57.28606     1188.684        34     1.569     0.956  78.65   0
         6    685.3291     18.8682 307.6603168  +6.6974903     8145.119     12507.28      13090.5     81.46714     162.6763      324.965      1.600     4.09     899.4996     57.28606     1184.031        28     1.553     0.852  72.84   3
         7    688.7598     16.1617 307.6589822  +6.6987226     13358.91     20830.66     21898.66     81.20892     162.6117      324.868      1.632     3.94     899.2883     57.28606     1862.446        39     1.581     0.985  73.88   3
         8    741.0219     18.3872 307.6371901  +6.6995503     1931.409     2625.394     2336.373     81.20892     162.3532     324.9004      1.512     3.64     897.9043     57.28606     305.3216        15     1.269     0.761  64.89   0
         9    664.9974     15.4769 307.6688796  +6.6982110     3083.655     4481.693     5780.517     80.94988     162.0294      324.868      1.661     4.14      899.783     57.28606     487.5728        22     1.473     0.833  83.13   1
        10    203.8704     16.2861 307.8604644  +6.6824200     1125.977     1811.195     1193.908     81.59595     162.8053     325.0296      1.541     3.99      919.418     57.28606     159.8387        11     1.126     0.663  71.85   0
        11     71.8317     12.6010 307.9154524  +6.6795022     3361.434     5179.677     5693.984     80.82005     162.3532      324.771      1.635     3.93     919.6824     57.28606     467.8508        23     1.432     0.881  77.22   0
        12    954.3063     12.2074 307.5487666  +6.7092208      825.921      1325.39      1493.39     81.07951     162.2238      324.771      1.533     4.98     892.1323     57.28606     121.9761        12     1.307     0.659  67.67   0
        13    162.5907     10.1037 307.8778256  +6.6835857     5344.229     7960.005     7956.028     81.20892      162.159     324.8034      1.592     3.82     919.8165     57.28606     721.4338        27     1.465     0.920  73.77   0
        14     93.8760      9.7890 307.9063880  +6.6814050     680.3627     1048.776     533.5338     81.07951      162.159     324.8034      1.565     5.57     920.2502     57.28606     111.6816         8     1.360     0.757  71.21   0
        15    789.4193      8.6499 307.6174058  +6.7051881     1201.284     2316.175     1789.653     80.94989     162.6117     324.8357      1.946     6.04     897.2371     57.28606     171.7221        16     1.376     1.106 -46.34  16
        16    896.8757      6.5258 307.5728230  +6.7096519     2018.582     3169.886     3732.936     81.72454     162.8053     313.3165      1.699     4.47      894.434     57.28606     263.0359        20     1.452     0.879  80.15  16
        17    233.9252      6.1491 307.8483186  +6.6876157     962.2206     1480.718     1588.623     81.46714     162.6117     309.7773      1.766     5.04     919.1641     57.28606     137.6753        13     1.497     0.669  76.54  16
        18    642.7902      5.7761 307.6784341  +6.7014743     1101.936     1666.609     1403.336     81.07951     162.3532     305.9569      1.740     4.47     899.6669     57.28606     170.9939        10     1.320     0.528  71.96  16
        19    981.8833      3.2324 307.5376077  +6.7138464     797.9929     1298.929     1366.894     81.46714     153.9877     274.5909      1.778     5.21     889.2154     57.28606     132.3777        10     1.589     0.483  78.36  24
        20    848.7997      3.7842 307.5928934  +6.7091799     641.2652     1005.812     759.1368     81.07951     158.6234     281.8008      1.663     4.73     895.3175     57.28606     106.1028         7     1.203     0.528  72.84  16
        21    749.0531      3.6544 307.6343479  +6.7059027       1426.8     2027.515     2179.103     81.72454     157.8935     280.4935      1.566     4.46     897.4017     57.28606     204.7061        12     1.228     0.656  71.37  16
        22    269.0201    982.8660 307.8007754  +6.2854519      4356.47     6682.234     6718.952     81.07951     162.5471     324.9004      1.633     3.90     938.3455     57.28606     636.3954        26     1.486     0.906  77.61   0
        23   1018.1370   1020.2802 307.4884749  +6.2950374     4268.735     7783.329     9095.796     81.59595     162.6117     284.5082      2.002     4.54     920.5942     57.28606     479.2682        36     1.712     1.181  68.21  24
        24    922.4447   1023.3206 307.5281067  +6.2905939     5721.688     6757.294      7234.28     75.30448     134.5527     250.4285      1.178     2.65     930.9001     57.28606     1135.102        15     1.069     0.729   2.82  24
        25    896.2934   1020.7465 307.5390515  +6.2907852     11529.59     19399.52     20074.03     81.33814     161.8349     288.6126      1.792     4.04     930.4051     57.28606      1458.64        47     1.628     1.240  73.19  24
        26    553.8270   1022.9891 307.6811723  +6.2784227     7018.268     8572.163      8635.46     78.31237     139.1568     255.6576      1.262     2.79     935.6011     57.28606     1081.661        24     1.129     0.956   8.75  24
        27    479.2048    980.8925 307.7135720  +6.2933102     1071.226     1587.224     1357.261     81.07951     162.2238     324.7387      1.535     4.56     936.9004     57.28606      150.542        14     1.304     0.775  72.49   0
        28     37.7112    980.2249 307.8969020  +6.2787747     2056.794     3364.779     3483.012     81.59595     162.3532     324.8357      1.671     4.04     936.5638     57.28606     303.9661        20     1.443     0.899  84.30   0
        29    888.7029    979.0800 307.5435996  +6.3077395     887.1974     1231.275     1380.433     81.20892     162.8698     325.0619      1.618     5.33     928.4576     57.28606      111.558        10     1.017     0.856  47.38   0
        30    581.6633    975.5040 307.6712108  +6.2989637     1732.439     2762.558     2429.067     81.33814     162.6763     325.0619      1.724     4.81     934.8584     57.28606     255.7629        20     1.535     0.832  80.67   0
        31    304.9010    976.6360 307.7860877  +6.2892280     815.1286     1244.059     1100.205     81.46714     162.4178     325.1911      1.721     5.45     938.4131     57.28606     126.2739         9     1.374     0.610  58.83   0
        32   1012.8841    975.2724 307.4921625  +6.3134498     765.0603     1615.355     2348.277     81.59595     162.8698     325.0296      2.569     7.08      922.142     57.28606      102.108        10     1.327     1.059  55.54   0
        33    620.8882    971.9390 307.6550435  +6.3017474     1246.997     1657.815     1200.786     81.46714     162.7408     325.0296      1.482     4.86     934.4661     57.28606      184.353        11     1.318     0.571  66.82   0
        34     70.2264    972.4185 307.8836659  +6.2830913     866.8323     1468.942     2095.157     81.07951     162.3532     324.9004      2.013     4.15     936.8391     57.28606     143.2245        10     1.140     0.794  61.77   0
        35    300.6080    969.3281 307.7881165  +6.2921019     1379.353     2063.872     2067.245     80.94989     162.0942     324.9004      1.621     4.20      938.357     57.28606     245.0308        16     1.388     0.812  73.99   0
        36     65.3115    971.0482 307.8857528  +6.2834920     702.1829     1164.101      1581.53     81.46714     162.4178     325.0942      1.262     2.64     936.8118     57.28606     140.1292         5     0.748     0.417  71.10   0
        37    767.4046    965.3311 307.5944277  +6.3093708     846.6486     1250.375     785.7479     80.94989      162.159     324.8034      1.662     4.23     931.0372     57.28606     132.1696         7     1.095     0.465  61.35   0
        38    905.0822    962.0685 307.5373683  +6.3153109     6869.538     10874.23     10802.87     81.72455     162.8053     325.0296      1.644     3.81     927.3376     57.28606     888.6515        35     1.576     1.048  74.88   0
        39    114.6956    961.6672 307.8655658  +6.2890254     656.8649     872.6895     816.2564     81.46715     162.6763     324.9973      1.554     6.41     937.1985     57.28606     89.36499        10     1.356     0.852  78.53   0
        40    441.1820    959.1756 307.7300905  +6.3010055     2103.212     3346.014     3721.904     81.20892     162.4178     324.9327      1.626     4.66     936.5293     57.28606     294.4921        20     1.394     1.009  82.96   0
        41    609.9645    958.9059 307.6600173  +6.3067645      580.636     661.0519     498.2246     81.59595     162.4178     325.0942      1.541     5.38     934.4255     57.28606     91.48578         8     1.250     0.653 -79.60   0
        42    342.6244    957.4487 307.7710713  +6.2984164     9577.893     14601.74     15027.79     81.07951     162.5471     324.9004      1.646     3.96     938.0482     57.28606     1425.131        36     1.555     0.982  80.82   0
        43    262.6877    956.4000 307.8042971  +6.2961689     7110.554     10984.46     11594.21     80.69002     162.0294     324.6417      1.665     3.89     938.0826     57.28606     984.7509        32     1.537     0.979  79.95   0
        44    590.7964    950.9682 307.6682433  +6.3094016     1151.224     1616.409     1339.753     80.82005     162.4178      324.771      1.632     5.86     934.5228     57.28606     157.6244        13     1.236     0.841  61.94   0
        45    775.1476    950.2735 307.5917177  +6.3158477      775.596     1084.757     1170.577     81.46714     162.6117     325.0296      1.641     5.11     930.3548     57.28606     106.2715         9     1.162     0.637  71.57   0
        46    920.7983    946.8947 307.5313508  +6.3221013     1080.159     1760.658     2463.912     80.94988     162.2238     324.6093      1.782     4.13     926.0024     57.28606     147.7164        13     1.188     0.881  67.31   0
        47    153.1793    946.7429 307.8500914  +6.2964811     531.7527      801.382     628.3081     81.07951     162.4825     324.8034      1.628     4.49     937.3965     57.28606     73.07471         5     0.793     0.721  35.37   0
        48    877.2184    945.9238 307.5494796  +6.3210494     681.7154     1277.472     1507.724     80.94988     162.2885      324.965      1.757     5.22     927.4045     57.28606     81.84332         8     1.117     0.689 -59.53   0
        49    419.5135    945.1484 307.7395600  +6.3060725      601.356     915.9141     1429.839     81.46714     162.4178     325.0619      1.585     3.78     936.2744     57.28606     104.1202         6     0.824     0.498 -86.44   0
        50    849.8966    941.0408 307.5609885  +6.3221547     690.1235     1186.533     1405.749     81.46714     162.4178     325.1588      1.821     5.87     928.1246     57.28606     91.61896         9     1.201     0.808  33.92   0
        51    757.2283    940.3609 307.5994912  +6.3193431     1736.207     2752.195      2354.93     81.07951     162.2885      324.868      1.735     5.30     930.2214     57.28606       250.21        17     1.409     0.902  63.59   0
        52    580.1743    940.5267 307.6730049  +6.3133585     657.8768     1006.611     747.9495     81.07951     162.4178     324.9327      1.685     4.21     934.5215     57.28606     93.62189         7     0.879     0.604 -80.28   0
        53      7.7560    937.5474 307.9107816  +6.2953912     991.5093     1620.537     1850.616     81.46715     162.5471      322.239      1.586     6.09     936.8906     57.28606     143.0613        13     1.594     0.671  87.30  16
        54    988.4336    935.8995 307.5036336  +6.3288957     1292.082     2160.132      2457.81     81.46714     162.4178     325.1588      1.863     4.98     923.5795     57.28606     171.5239        17     1.430     0.914  69.78   0
        55    632.6070    936.3409 307.6513737  +6.3168401     485.4335     513.0562     182.3735     80.82005     162.4178     324.7064      1.459     3.49     933.6928     57.28606     87.11676         5     1.077     0.327  69.28   0
        56    621.2423    936.6461 307.6560825  +6.3163342     738.4984     1165.345      798.545     81.46715     162.5471     324.9327      1.726     4.68     933.9651     57.28606     99.83875         8     1.053     0.591  69.22   0
        57    542.1512    935.9807 307.6889461  +6.3139639     1172.262     1731.755     1558.825     80.94989     162.6117     324.8034      1.528     3.46      934.824     57.28606     190.3513        13     1.166     0.712  84.86   0
        58    675.7943    933.3975 307.6335396  +6.3194990     2476.865      3847.45     4384.356     80.82005     162.2238     324.8034      1.649     4.11     932.6172     57.28606     369.4266        21     1.440     0.868  81.86   0
        59     72.3340    929.5067 307.8842407  +6.3008828     3026.649      4934.13     5112.429     81.33814     162.7408     324.9973      1.761     4.12     937.0059     57.28606     461.2197        23     1.472     0.932  77.44   0
        60     89.6685    928.8423 307.8770658  +6.3017397     1941.393     3041.086     3331.832     81.46714     162.4825     325.0942      1.743     4.18     937.0095     57.28606     258.1415        20     1.434     0.855  79.56   0
        61    836.5090    929.7976 307.5669247  +6.3263513     951.4189     1373.317      1564.35     80.82005     162.2238     324.7387      1.628     5.54     928.1558     57.28606     118.8779        11     1.093     0.792  51.99   0
        62    215.8679    928.5627 307.8246762  +6.3060935     2294.079     3318.811     3544.991     81.33813     162.5471     325.1265      1.636     4.11       937.42     57.28606     314.1523        18     1.396     0.806  73.46   0
        63    953.7476    928.0651 307.5182994  +6.3309756     711.3131     1156.067     1319.351     81.46714     162.4825      324.965      1.570     4.92     924.0698     57.28606     100.1079         8     1.077     0.635 -86.54   0
        64    670.3450    922.6106 307.6361647  +6.3237716     7093.827     10689.45     10961.29     80.82005     162.4825      324.674      1.611     3.92     932.4011     57.28606     1117.859        30     1.582     0.875  77.07   0
        65    249.8438    925.2415 307.8106809  +6.3086052     919.4258      1315.29     857.6675     81.20892     162.5471      324.868      1.556     4.72     937.7104     57.28606     134.4532         9     0.979     0.646  67.04   0
        66    354.7634    924.0479 307.7671564  +6.3126166      906.149      1284.71     1835.479     81.20892     162.5471     324.9327      1.723     4.16     937.5018     57.28606     147.5921        11     1.173     0.630  76.58   1
        67    807.8495    923.5929 307.5790336  +6.3279575     815.4352     1340.828     2240.658     80.94989     162.3532     324.6093      2.375     6.24     928.8062     57.28606     107.4902        11     1.152     0.950 -83.50   0
        68     30.4269    920.8914 307.9019318  +6.3030317     1242.169     1838.728     1752.773     81.59595     162.2885      324.868      1.556     4.80      937.012     57.28606     190.3962        13     1.279     0.735  67.82   0
        69    908.1292    918.8572 307.5375511  +6.3332578     2744.578     4335.253     4798.836     81.59595     162.5471      324.965      1.694     4.37     925.3086     57.28606      376.839        23     1.568     0.863  75.14   0
        70    459.9450    919.8147 307.7236246  +6.3178885     562.2851     760.0345     217.5371     80.82005     162.4825     324.7064      1.264     3.86     935.4767     57.28606     90.72058         6     0.909     0.470  35.44   0
        71     43.3331    919.2731 307.8966278  +6.3041339     1048.333     1541.991     1377.185     81.59595     162.6763      324.965      1.533     4.49     936.9995     57.28606     151.2084         8     0.951     0.622  65.30   0
        72    353.3783    915.6855 307.7680133  +6.3160236     17003.15     25161.04     26213.03     81.46715     162.2885     324.9004      1.605     3.91      937.539     57.28606     2666.931        42     1.539     1.004  75.57   0
        73     88.1907    916.7114 307.8780892  +6.3066996     1423.797     2104.292     1895.867     81.07951     162.2238      324.771      1.606     5.36     936.9429     57.28606     184.9766        15     1.325     0.779  66.40   0
        74    224.3379    914.9848 307.8216174  +6.3119849     1269.213      1722.06     2050.435     80.94988     162.4825     324.8034      1.459     4.37     937.4528     57.28606     335.2491        14     1.443     0.640  75.61   0
        75    431.0106    906.3497 307.7360925  +6.3224801     1141.485     1684.776     1529.864     80.82005     162.4178      324.674      1.530     5.35     935.6451     57.28606     168.2863        12     1.507     0.608  76.89   0
        76    116.5961    906.2373 307.8666488  +6.3119794     1662.579     2647.662     2688.455     80.55977     162.2885     324.8034      1.707     4.22     936.9055     57.28606     231.9125        16     1.395     0.785  83.01   0
        77    511.8260    903.4858 307.7026313  +6.3263686     679.5786     1014.566     986.8716     81.59595     162.2885      324.868      1.462     4.92     934.6544     57.28606      101.278         9     1.186     0.579  64.30   0
