#   1 NUMBER                 Running object number                                     
#   2 X_IMAGE                Object position along x                                    [pixel]
#   3 Y_IMAGE                Object position along y                                    [pixel]
#   4 ALPHA_J2000            Right ascension of barycenter (J2000)                      [deg]
#   5 DELTA_J2000            Declination of barycenter (J2000)                          [deg]
#   6 FLUX_APER              Flux vector within fixed circular aperture(s)              [count]
#   9 FLUXERR_APER           RMS error vector for aperture flux(es)                     [count]
#  12 FLUX_RADIUS            Fraction-of-light radii                                    [pixel]
#  13 FWHM_IMAGE             FWHM assuming a gaussian core                              [pixel]
#  14 BACKGROUND             Background at centroid position                            [count]
#  15 THRESHOLD              Detection threshold above background                       [count]
#  16 FLUX_MAX               Peak flux above background                                 [count]
#  17 ISOAREA_IMAGE          Isophotal area above Analysis threshold                    [pixel**2]
#  18 A_IMAGE                Profile RMS along major axis                               [pixel]
#  19 B_IMAGE                Profile RMS along minor axis                               [pixel]
#  20 THETA_IMAGE            Position angle (CCW/x)                                     [deg]
#  21 FLAGS                  Extraction flags                                          
         1    163.4463     25.3121 307.8651040  +6.6680517     10539.67     16955.93     18273.43     78.25571     156.0153     312.2169      1.754     4.29     843.9002     55.02784     1367.056        39     1.648     1.025  54.69   0
         2    973.8486     19.2929 307.5284739  +6.6977006     1905.182     3312.067     3148.902     78.13179     156.0153       312.31      1.843     4.25     826.9398     55.02784     259.3964        21     1.451     0.891  54.48   0
         3    693.2175     15.9439 307.6452318  +6.6897014      7264.39     11349.36     12086.82     77.75884     156.0774     311.9375      1.648     4.02     831.9715     55.02784      962.043        36     1.594     0.995  50.97   0
         4    613.4148     15.1440 307.6784283  +6.6873588     3603.518      5646.32     5331.589     77.63412     156.0153     311.9064      1.677     4.62     833.7405     55.02784     508.5842        25     1.614     0.839  55.02   0
         5    315.4855     14.7050 307.8022727  +6.6775422     858.2716     1501.571     1921.991     78.25571     156.5114      312.248      1.814     5.27     842.5477     55.02784      126.832        10     1.379     0.569  54.63   1
         6    369.5292     13.1389 307.7798637  +6.6800042     741.7622     1050.246     813.1602     78.37943     156.1395      312.279      1.540     5.22     840.1288     55.02784     118.8856         9     1.269     0.731  74.26   0
         7     14.5502     10.8299 307.9274771  +6.6690112     8271.679     13397.57     13991.17     77.88335     156.2016     312.0928      1.751     4.53     842.7322     55.02784     1076.499        40     1.730     0.996  53.60  16
         8    413.5597     11.2602 307.7616268  +6.6822581     6158.807      9691.84     10211.54     78.25571     156.1395      312.248      1.725     4.48     837.2709     55.02784     818.9347        32     1.655     0.926  51.92   0
         9    660.7959     10.1506 307.6589029  +6.6910063     888.9363     1520.165     1368.349     77.63412     155.9532     311.8443      1.662     6.11      832.371     55.02784     116.1898        14     1.463     0.718  48.97   0
        10    489.4840      8.2508 307.7301716  +6.6860480     1005.004     1526.448      1498.09     78.25571     156.0774     311.7821      1.604     3.66     833.7482     55.02784      162.847        12     1.237     0.653  49.40  16
        11    310.1443      6.2147 307.8047798  +6.6808659     12121.31     20006.11     21380.36     77.63412     156.0153     298.0214      1.740     4.48      842.673     55.02784     1534.337        43     1.710     1.031  49.91  16
        12     83.6013      6.4024 307.8989291  +6.6731652     2386.095     3923.981     3783.195     77.63413     155.7045     299.6426      1.713     4.74     843.8306     55.02784     311.2732        21     1.604     0.780  50.73  16
        13    404.8162      6.1885 307.7654322  +6.6840572     667.0911     1062.867     1280.536     78.00767     155.8289     297.8262      2.272     5.49     837.8371     55.02784     107.1499         9     1.521     0.558  57.89  16
        14    778.6131      4.9834 307.6101062  +6.6970816     719.2949     1147.328     1222.993     78.00767     155.8289     285.5685      1.731     5.00     831.0555     55.02784     103.0057         8     1.094     0.648  51.97  16
        15    445.3798      4.8344 307.7486183  +6.6859777     750.3381     1256.382      1223.51     77.75884     155.9532     283.8327      1.753     4.49     835.5837     55.02784     135.7076        10     1.355     0.653  52.13  16
        16     75.1715      5.3354 307.9024688  +6.6733214     1533.862      2365.42     2494.941     78.00767     156.1395     289.4109      1.670     4.46     843.5944     55.02784      217.813        17     1.362     0.821  46.22  16
        17    376.3558      4.1185 307.7773313  +6.6839556     2380.011     3700.292     3665.677     78.25571     154.7056     275.3065      1.641     4.43     839.6537     55.02784     311.5189        17     1.381     0.767  49.64  16
        18    637.8244      1.4053 307.6687458  +6.6938455     4687.424     5442.144     4996.327     68.76499     124.9799      235.961      0.994     1.94     832.8134     55.02784     1374.076        13     0.971     0.593   2.15  24
        19    582.2965    996.9799 307.6582681  +6.2811765     1386.846     2235.875     1974.527     78.13179     155.9532     311.9996      1.551     4.86     865.7748     55.02784     208.8953        14     1.352     0.715  50.23   0
        20    941.1357   1021.6249 307.5084067  +6.2830033     5814.727     10332.04     10158.47     77.88335     149.2868     265.4875      1.856     4.66     862.6578     55.02784     752.7368        34     1.762     1.038  44.13  24
        21    695.8030   1022.3945 307.6102718  +6.2744886     902.2238     1727.605     1859.343     77.63413     141.1461      254.531      2.023     6.99     865.6665     55.02784     125.5062        14     1.702     0.805  54.98  24
        22    225.7543   1021.5861 307.8055101  +6.2590619     1248.448     1893.704     1561.483     77.63413      149.611      265.998      1.629     5.35     866.5933     55.02784     185.9307        13     1.266     0.746  58.07  24
        23    623.2747    995.0435 307.6413144  +6.2833476     1443.544     2426.502     2322.367     78.13179     156.2016     312.2169      1.696     5.19     865.5697     55.02784     181.9312        17     1.536     0.748  57.84   0
        24    513.9555    995.5375 307.6866996  +6.2794821     3987.698     6754.257     7681.603     78.25571     156.0774      312.248      1.917     4.56     866.2194     55.02784     529.8604        39     1.944     1.100  27.50   0
        25    466.9790    992.1433 307.7063239  +6.2793080     2105.307     3436.587     3388.154     77.88335     156.1395     311.9996      1.758     4.47     866.5809     55.02784     314.1896        20     1.543     0.788  51.03   0
        26     47.9945    993.5137 307.8802804  +6.2646662     929.6109     1448.658     2018.543     77.75884     155.8289     311.9064      1.753     5.67     863.2538     55.02784     125.1437        12     1.453     0.624  45.21   0
        27    901.2196    984.0844 307.5262451  +6.2971618     39516.91     68736.99     73504.22     77.88335     155.8289     312.1549      1.854     4.48     861.9596     55.02784     4634.903        73     1.841     1.200  52.50   0
        28    306.9854    985.8157 307.7729838  +6.2765505     550.2983     819.5818     1273.669     78.00767     155.8289     312.1238      1.623     3.85      866.606     55.02784      92.3717         5     0.845     0.503  66.65   0
        29    208.3110    982.2647 307.8140832  +6.2747006     1572.197     2791.213      2383.86     78.13179     156.3875     312.2169      1.775     6.41     865.8295     55.02784     194.9414        17     1.498     0.784  46.58   0
        30     97.0498    981.9494 307.8602999  +6.2710889     649.1853     898.5981     760.2201     78.25571     156.0153     312.1238      1.369     4.83     863.7361     55.02784     103.1099         7     1.041     0.635  84.40   0
        31    747.3220    975.7824 307.5904427  +6.2954457     6091.381     10309.58     11728.34     77.75884     155.8911     312.1238      1.876     4.34     864.1651     55.02784     819.0841        37     1.755     1.138  68.76   0
        32    607.4523    980.6401 307.6483707  +6.2887612     808.9183     1555.601     976.9733     78.13179     156.2016     312.1859      1.814     5.34     865.4965     55.02784     108.7336         9     1.477     0.545  63.55   0
        33    799.1892    977.9030 307.5688293  +6.2963045     2118.085     3397.788     3830.663     78.00767     155.7667     311.9996      1.729     4.44     862.8761     55.02784     298.8748        21     1.517     0.849  53.90   0
        34    534.0534    974.8099 307.6790511  +6.2887085     846.0881     1571.582     1441.344     77.63412     156.0774     311.9064      1.942     6.47     865.5361     55.02784     125.3422        14     1.443     0.814  48.92   0
        35    216.6611    974.7204 307.8108705  +6.2780943     1408.635     2371.535     2295.035     78.37943     156.1395     312.1859      1.760     6.23     865.8134     55.02784     180.4924        16     1.405     0.777  53.32   0
        36    181.4250    974.3751 307.8255156  +6.2770523     784.7446     1370.214     1541.021     77.75884     155.9532     312.0617      1.784     6.35     865.3373     55.02784     101.4785        11     1.589     0.712  54.58   0
        37     41.5826    972.7172 307.8836473  +6.2730314     2542.704     4055.549      4426.85     77.88335     155.8289     312.1238      1.736     4.16     863.1935     55.02784     341.8469        25     1.536     0.932  52.76   0
        38    935.5703    970.8325 307.5124228  +6.3037768     6336.949     10671.82     10892.76     77.75884     155.8911     311.9064      1.794     4.30     860.5433     55.02784     813.6771        34     1.709     0.986  50.56   0
        39    192.0059    967.0363 307.8213695  +6.2804362     607.3889     1111.904     1107.805      77.3841     155.8911     311.9686      1.798     3.75     865.3221     55.02784     94.81476         5     0.671     0.602 -89.86   0
        40    618.1788    965.8469 307.6444138  +6.2952246     629.3591     992.0496     1091.861     77.88335     156.1395     312.0307      1.484     4.00     865.1941     55.02784     125.9875         6     1.114     0.412  61.17   0
        41    909.3416    962.6876 307.5235901  +6.3062623     2039.299     3499.535     3227.998     78.25571     156.1395       312.31      1.807     5.51     861.0388     55.02784     287.0211        25     1.754     0.887  49.08   0
        42    242.2109    958.5189 307.8008071  +6.2856381     4304.452     7034.918     7385.325     77.88335     155.8911     312.0307      1.747     4.26     865.8782     55.02784      575.447        31     1.560     1.036  50.12   0
        43    768.9784    958.8964 307.5820158  +6.3031376     1267.991      1971.62     1825.091     78.13179     155.9532     311.9996      1.576     5.17     863.3722     55.02784     167.0972        17     1.419     0.816  50.51   0
        44    630.0335    958.3747 307.6397418  +6.2987048     4447.812      7036.36     7238.727     77.63412     155.8911     311.9996      1.681     4.26     864.9262     55.02784     578.7145        27     1.582     0.910  50.20   0
        45    979.1498    958.3361 307.4947418  +6.3103875     698.9588     1151.531       1142.7     78.25571     156.0774     312.2169      1.619     5.23     858.1391     55.02784      87.6651         8     1.174     0.790  87.86   0
        46     10.9661    956.2112 307.8969210  +6.2788112     1971.565     3111.542     3388.949     77.75884     155.9532     311.9996      1.671     4.73     862.8906     55.02784     259.7501        20     1.520     0.929  58.98   0
        47    452.4105    956.6551 307.7135711  +6.2934632     1119.315     1746.432     1301.852     77.63413     156.0774     311.8754      1.678     5.10     866.2244     55.02784     160.9306        14     1.245     0.897  51.05   0
        48    861.7246    955.1124 307.5436218  +6.3077982     917.7234     1348.897     1200.727     78.25571     156.4495      312.279      1.543     4.76     862.2595     55.02784     131.3279        10     1.020     0.898  19.08   0
        49    933.2350    952.6124 307.5140043  +6.3112173     651.3764     1208.468     628.8509     77.75884     155.9532     312.0307      1.767     6.12     859.7907     55.02784     126.8907         9     1.514     0.895  55.10   0
        50    278.5970    952.6895 307.7858926  +6.2892659     914.6134     1314.974     1889.492     77.63413     155.8289     311.8754      1.771     4.42     866.2461     55.02784     158.9419        12     1.291     0.658  65.74   0
        51    954.1871    952.7970 307.5052958  +6.3118404     531.7336     784.0674     753.4988     77.88335     155.8289     312.0617      1.524     4.31     858.9704     55.02784     79.81677         5     0.767     0.690  36.70   0
        52    554.7349    950.9186 307.6712666  +6.2992599     1729.829     2634.532     2645.517     78.50296     156.2636     312.1859      1.640     4.49     864.8768     55.02784     228.5357        18     1.368     0.857  48.59   0
        53    985.3339    950.4921 307.4924364  +6.3138306     772.1471     1352.305     1584.415     78.25571     156.3256     312.1859      1.836     5.03     857.6803     55.02784     119.0998         8     1.101     0.651  41.41   0
        54    594.0146    947.5567 307.6550658  +6.3019628     1247.546     1761.903     2128.706     77.50922     155.9532     311.9375      1.575     4.48     864.9942     55.02784     171.9121        16     1.343     0.820  63.47   0
        55     43.6778    947.4834 307.8836316  +6.2835139     775.1297     1406.256     2418.994     78.37943     156.4495      312.279      2.185     5.23     863.2119     55.02784     102.9441        10     1.254     0.617  56.56   0
        56    273.4936    944.9246 307.7882745  +6.2922985     1421.418     2177.271     3023.981     78.13179     156.3256     312.1859      1.754     5.62     866.0968     55.02784     201.3594        19     1.586     0.908  35.05   0
        57    541.8149    943.3334 307.6768882  +6.3019569     721.2805     1202.456     1037.687     77.75884     156.0153     312.1238      1.426     3.27     864.7112     55.02784     144.8444         5     0.924     0.353  44.01   0
        58    740.9435    941.3177 307.5942508  +6.3094540     919.6801     1645.828     1967.002     78.25571     156.1395      312.279      2.098     4.93     863.5331     55.02784     157.8978        11     1.210     0.643  69.32   0
        59    878.3027    937.7509 307.5373193  +6.3155159     6548.262     10787.94     11217.47     78.25571     156.0774     312.3411      1.763     4.76     861.4944     55.02784     787.7619        35     1.741     0.981  55.92   0
        60    116.2514    938.9065 307.8537821  +6.2894955     641.1658     1000.449     908.2374     78.13179     155.9532     312.3721      1.468     4.69     863.8193     55.02784      96.9751         8     1.276     0.488  66.71   0
        61    414.0925    934.7119 307.7302257  +6.3012325     2070.324     3346.026      3458.25     78.25571     156.5733      312.279      1.681     4.60     866.2817     55.02784     268.8534        21     1.595     0.790  53.92   0
        62    315.7278    933.1122 307.7711329  +6.2985911     9120.598     14615.48     15345.86     78.37943     156.3875     312.1859      1.716     4.28      866.229     55.02784     1219.423        34     1.599     0.965  53.23   0
        63    235.8223    932.0264 307.8043558  +6.2963549     6688.588     10735.21     10908.51     77.75884     155.9532     312.1238      1.688     4.34     865.4513     55.02784     890.7037        32     1.558     0.975  53.22   0
        64    154.9226    931.1929 307.8379826  +6.2939791     502.4358     877.2819     1294.088     77.88335     155.6422     311.9996      1.984     3.90      863.799     55.02784     90.69788         6     0.934     0.467  35.74   0
        65    748.2484    926.3891 307.5917188  +6.3158584      720.163     977.2819     1356.574     77.75884     156.0153     311.8754      1.392     3.54     863.0692     55.02784     133.9451         8     1.039     0.537  53.28   0
        66    563.7261    926.4534 307.6683565  +6.3096564     1204.049     1832.112     1630.467     78.13179     156.1395     312.1549      1.663     5.25     864.4099     55.02784     175.3009        13     1.320     0.792  43.52   0
        67    894.1309    922.9124 307.5312433  +6.3221675     993.9306     1637.884     1543.604     78.25571     156.3875     312.2169      1.573     5.80     860.3252     55.02784     170.0764        11     1.508     0.628  46.25   0
        68    126.9900    922.5250 307.8498766  +6.2966161     638.1882     1081.586     1642.237     77.88335     155.7667     311.9996      2.136     5.77     863.6906     55.02784     84.28455        10     1.356     0.690  74.26   0
        69    393.5112    922.0629 307.7392005  +6.3057614      567.908     1026.295       1368.4     78.25571     156.2636     312.2169      1.780     4.09     865.9937     55.02784     79.41052         5     1.120     0.427 -25.27   0
        70    849.8561    921.2222 307.5496898  +6.3213863     715.9018     1110.644     1023.422     77.88335     156.1395     311.9996      1.605     3.98     861.8144     55.02784     134.5731         6     1.113     0.407  31.43   0
        71    961.7018    919.0089 307.5033084  +6.3260337      901.666     1469.894     1942.855     78.00767     155.7667     311.9686      2.001     5.80     857.5786     55.02784      133.213        10     1.230     0.770  20.31   0
        72    554.4172    916.8083 307.6725478  +6.3133244     583.8413      972.565     416.2059     77.88335     155.8911     312.0307      1.624     4.46     864.1861     55.02784     121.2967         7     1.161     0.488  86.24   0
        73    730.1511    915.7775 307.5995924  +6.3196320     1646.672     2836.726     3098.438     77.88335     156.2016     312.0928      1.710     5.07     862.8513     55.02784     231.3112        21     1.631     0.839  47.28   0
        74    823.2175    916.3919 307.5609165  +6.3224895     596.1703     802.1309     604.0286     77.88335     155.8911     312.0307      1.415     3.39     861.8725     55.02784     98.67865         5     0.750     0.445  19.51   0
        75    961.9368    911.8544 307.5034509  +6.3289938     1222.865     2277.174     2676.891     78.25571     156.0774     312.1549      2.131     5.17     857.4391     55.02784     225.4119        17     1.613     0.899  49.13   0
        76    594.3179    912.2271 307.6561297  +6.3165513     895.5443     1266.371     839.1962     78.13179     155.9532     312.1238      1.461     5.19      864.029     55.02784     153.8743        10     1.029     0.739  29.59   0
        77    515.4346    911.5835 307.6889149  +6.3141741     1114.517     1736.568     2162.384     77.88335     155.8911     312.0307      1.729     5.07     864.6227     55.02784     158.8576        11     1.388     0.642  37.24   0
