#   1 NUMBER                 Running object number                                     
#   2 X_IMAGE                Object position along x                                    [pixel]
#   3 Y_IMAGE                Object position along y                                    [pixel]
#   4 ALPHA_J2000            Right ascension of barycenter (J2000)                      [deg]
#   5 DELTA_J2000            Declination of barycenter (J2000)                          [deg]
#   6 FLUX_APER              Flux vector within fixed circular aperture(s)              [count]
#   9 FLUXERR_APER           RMS error vector for aperture flux(es)                     [count]
#  12 FLUX_RADIUS            Fraction-of-light radii                                    [pixel]
#  13 FWHM_IMAGE             FWHM assuming a gaussian core                              [pixel]
#  14 BACKGROUND             Background at centroid position                            [count]
#  15 THRESHOLD              Detection threshold above background                       [count]
#  16 FLUX_MAX               Peak flux above background                                 [count]
#  17 ISOAREA_IMAGE          Isophotal area above Analysis threshold                    [pixel**2]
#  18 A_IMAGE                Profile RMS along major axis                               [pixel]
#  19 B_IMAGE                Profile RMS along minor axis                               [pixel]
#  20 THETA_IMAGE            Position angle (CCW/x)                                     [deg]
#  21 FLAGS                  Extraction flags                                          
         1    989.2654     21.6786 307.5286661  +6.6977303     1697.575     3417.251     4043.871     90.57697     180.5099     360.7329      2.265     6.52     1103.542     63.59137     193.3038        24     1.588     1.203 -62.02   0
         2    708.6354     18.2406 307.6455273  +6.6898332     4633.716      10397.5     10833.69     90.14735     180.4382     360.5535      2.207     5.21     1119.688     63.59137     455.9792        45     1.741     1.516 -80.76   0
         3    628.7586     17.6615 307.6787758  +6.6874153     2372.991     5184.562     5547.393     90.43399     180.4382     360.8405      2.223     5.69     1120.539     63.59137     272.0427        35     1.629     1.461 -67.61   0
         4    429.2439     13.6829 307.7619079  +6.6824123      3617.23     8686.537     9395.534     90.43399     180.4382     360.7329      2.309     5.91     1130.583     63.59137     360.8912        46     1.818     1.598 -36.62   0
         5     30.3212     13.5230 307.9278557  +6.6691472     5529.539     12369.19     13423.46     90.71973     180.7248     360.8764      2.245     5.42     1150.682     63.59137     626.7164        46     1.804     1.486 -64.24   0
         6    325.7984      8.6879 307.8051095  +6.6810241     7092.556     17975.59     20124.88     89.57133     180.0074     360.4458      2.419     5.82     1140.886     63.59137     837.9537        57     1.922     1.680 -54.22  16
         7     99.6173      9.1843 307.8991787  +6.6732591     1493.105     3496.932     3888.624     90.14735     180.0793     360.6971      2.356     7.59     1149.384     63.59137     194.1344        24     1.717     1.133 -42.13  16
         8     90.9905      7.8669 307.9028120  +6.6735146      929.365     2042.846     3136.967      89.8598     180.2229     358.2853      2.646     6.95     1149.507     63.59137     117.9954        12     1.545     0.876 -22.83  16
         9    392.1049      6.7180 307.7775937  +6.6840507     1461.077     3600.541     3929.635     90.14735     180.7964     349.6207      2.395     7.11     1133.897     63.59137     174.3726        28     1.681     1.326 -45.06  16
        10    652.6243      2.7133 307.6693537  +6.6943845     6724.295     12771.91     13494.61     90.43399      164.376      295.896      1.997     5.72     1119.783     63.59137     671.9584        38     1.700     1.272 -16.50  24
        11    817.3463      1.8666 307.6008562  +6.7002100     1157.626     1975.926     2258.632     85.73286     152.3647     281.3241      2.064     5.87     1113.285     63.59137     158.2046        11     1.159     0.869  -5.93  24
        12    528.7372      2.6033 307.7208949  +6.6903055     606.7385     1059.998     1139.494     89.71568     163.2701     294.1415      1.665     4.94     1121.283     63.59137     102.9261         5     1.138     0.607 -58.01  26
        13    531.5790      2.4731 307.7197171  +6.6904539     635.2073     826.7953     888.6015     90.00369     161.3568     291.9779      1.202     3.53     1121.131     63.59137     119.3033         5     0.790     0.455  17.69  18
        14    252.2736      1.5046 307.8359386  +6.6815358     1762.036     2362.038     2125.384     81.07837     146.6522     274.7618      1.415     4.89     1147.336     63.59137     305.0321        13     1.389     0.614  -8.51  24
        15   1006.9340    997.7936 307.4884127  +6.2950679     5438.141     7570.251     7065.844      89.8598     180.1511     360.5535      1.458     3.35     1172.222     63.59137     799.6453        27     1.328     0.938 -69.14   0
        16    957.1935   1023.0110 307.5082395  +6.2830019     6643.759     8214.156     8218.121      86.3345     153.9699     283.2494      1.303     3.11     1175.528     63.59137      1075.74        20     1.189     0.836 -32.21  24
        17    716.9203   1021.5508 307.6081644  +6.2756318     2677.508     4266.314     4797.613     90.43399     173.4168     308.1919      1.812     3.79      1178.38     63.59137     346.5804        24     1.385     1.047 -43.31  24
        18    241.6379   1023.2881 307.8056601  +6.2590865     990.1228     1361.147     1292.376     83.90206     149.7951     278.4576      1.455     4.76     1183.859     63.59137     163.2202        10     1.118     0.714   4.34  24
        19    885.2426    998.2412 307.5389832  +6.2908490     12740.38     19208.27     20555.49     90.14735     180.4382     360.6253      1.618     3.25     1174.489     63.59137     1829.138        42     1.458     1.149 -47.57   0
        20    597.8788    998.5431 307.6584241  +6.2811792     1384.314      2197.94     2179.751     90.43399     180.4382     360.7329      1.562     4.19     1179.188     63.59137     196.5499        14     1.316     0.774 -41.77   0
        21    529.6530    997.3293 307.6868246  +6.2794104      3715.26     6022.081     7288.326     90.29079     180.3665     360.6971      1.834     3.77     1180.471     63.59137     450.6801        33     1.582     1.191 -42.31   0
        22    639.2422    996.4809 307.6413002  +6.2834067     1281.618     2108.108     2071.844     90.43399     180.4382     360.7329      1.657     4.50     1178.687     63.59137     178.4717        13     1.278     0.697 -49.61   0
        23     65.1929    995.8255 307.8799307  +6.2645364     620.6506     1051.216      1114.92      89.8598     180.2947     360.5894      1.824     2.87     1182.146     63.59137      119.576         5     0.717     0.683  42.46   0
        24    482.4873    993.9978 307.7065427  +6.2792164     1847.289     3271.404     3125.322     89.71568     180.0074     360.4458      1.859     5.03     1181.835     63.59137     237.8418        20     1.356     1.113 -47.31   0
        25    916.9547    985.8748 307.5262179  +6.2970095     46160.01     68535.14     71716.16     90.29079     180.5099     360.8047      1.565     3.24     1173.472     63.59137     6226.097        66     1.521     1.194 -62.21   0
        26    224.6796    984.2501 307.8140337  +6.2746469     1502.464     2356.169      2620.05     90.43399     180.5099     360.7688      1.716     4.64     1182.875     63.59137     181.0867        14     1.217     0.890 -74.71   0
        27    623.5680    982.6353 307.6482837  +6.2886052     739.3827     1025.324     1281.875     90.00369     180.1511     360.4817      1.405     4.28     1178.482     63.59137     133.1791         7     0.959     0.683 -46.25   0
        28    112.9619    982.4365 307.8605309  +6.2716642     708.7121      898.531     854.7709     90.14735     180.2947     360.5894      1.486     5.05     1182.252     63.59137     89.57361         6     1.055     0.684  54.57   0
        29    814.9613    979.7429 307.5688223  +6.2961590     2406.014     3564.998     3905.579     90.43399     180.5099     360.7688      1.598     4.26     1173.451     63.59137     317.9095        16     1.377     0.747 -56.87   0
        30    763.1878    977.6254 307.5904154  +6.2953148     6430.064     10274.97     11398.32     90.00369     180.2229     360.6971      1.746     3.54     1174.747     63.59137     876.2063        36     1.559     1.122 -62.48   0
        31    549.7494    976.6698 307.6791702  +6.2886139     844.5471     1579.414     2002.607     90.29079     180.3665     360.8047      2.077     5.90     1179.526     63.59137      141.012         9     1.409     0.871  84.06   0
        32    232.8988    976.4337 307.8108827  +6.2781502     1192.895     1903.459     1987.804     90.43399     180.2947     360.9122      1.641     6.46      1182.71     63.59137     142.6003        13     1.475     0.794 -32.41   0
        33    197.4612    976.5869 307.8256073  +6.2769037     688.7056     1136.888     1433.179      89.8598     180.2229     360.4458      1.996     5.21     1182.693     63.59137     105.6924         6     1.153     0.666 -43.09   0
        34     57.8653    974.9652 307.8836855  +6.2729086     2507.627     4154.004     4388.317     90.29079     180.4382     360.8047      1.747     4.13     1181.953     63.59137     277.6023        23     1.262     1.169 -69.19   0
        35    951.2594    972.5952 307.5124052  +6.3036328     7176.279     10173.22     10433.65     89.71568     180.2947     360.5176      1.523     3.25     1171.803     63.59137     1002.278        27     1.327     0.960 -60.15   0
        36    207.8198    968.3709 307.8215806  +6.2806436     599.0991     1189.581     1314.165     90.00369     180.2229     360.6612      2.078     4.79     1182.459     63.59137     118.9802         6     0.996     0.652 -79.23   0
        37    925.1077    964.2263 307.5235585  +6.3062232     2152.108     2792.767     2858.112     90.57697     180.1511     360.5894      1.433     3.61     1171.689     63.59137     286.1716        16     1.183     0.871 -55.54   0
        38    784.5934    960.7208 307.5820880  +6.3030092     1472.558     2350.393     2108.006     90.00369     179.8636     360.5176      1.765     5.07      1172.97     63.59137     198.0364        16     1.370     0.878  89.37   0
        39    645.7858    960.2794 307.6398039  +6.2985795     4142.741      6686.92     7102.066     90.00369     180.1511     360.5176      1.735     3.64     1177.295     63.59137     524.4611        30     1.417     1.182 -76.14   0
        40    258.2409    960.7249 307.8008821  +6.2854854     3792.312     6692.907     7027.023     90.29079     180.4382     360.8047      1.878     4.31     1182.529     63.59137     423.8427        31     1.410     1.263 -52.12   0
        41    995.3318    959.7086 307.4945185  +6.3104171     719.8035     1515.016      2042.44     90.43399     180.5816     360.7688      2.170     3.70     1169.726     63.59137     139.6052         5     0.965     0.408 -74.46   0
        42     27.1181    958.0997 307.8970390  +6.2788472     1997.777     3535.928     3235.204     90.43399      181.011     360.8764      1.848     4.22     1182.002     63.59137     232.0052        23     1.412     1.048  74.55   0
        43    468.4951    958.6224 307.7135566  +6.2933642     945.0272     1188.875     1080.313     90.43399     180.2229     360.5894      1.484     5.11     1180.674     63.59137     128.2478         9     1.012     0.730 -53.26   0
        44    877.9602    956.5981 307.5434148  +6.3078109     916.2044     1476.384     1459.788     89.42673     180.1511     360.4458      1.823     4.92       1171.8     63.59137     109.7588        10     1.067     0.644 -63.89   0
        45    570.3647    953.1794 307.6713955  +6.2990040     1473.634     2449.374     1818.506      89.8598     180.2229     360.5176      1.673     5.63     1178.741     63.59137     182.4911        16     1.375     0.892 -56.34   0
        46    969.3504    954.1768 307.5055054  +6.3118414     655.4671     895.8561     580.0109     90.00369     180.5099     360.6612      1.427     3.38     1169.895     63.59137     120.6576         6     0.721     0.654 -37.86   0
        47   1001.7061    952.4749 307.4921124  +6.3136166     963.6782     1646.508     2455.736     90.14735     180.6532     360.7329      2.152     5.98     1168.967     63.59137     127.0752        13     1.435     0.700 -53.10   0
        48    294.4214    953.5245 307.7860873  +6.2896672     803.7156     1123.269     1111.714     90.00369     180.2229     360.6971      1.584     4.30     1182.584     63.59137     93.13477         6     1.121     0.469   9.72   0
        49    609.7974    949.0414 307.6551438  +6.3020252     1090.478     1650.448     1348.692     89.71568     180.0793     360.4458      1.668     4.38     1178.051     63.59137     149.8844        11     1.009     0.893 -24.98   0
        50    289.5609    946.9173 307.7883318  +6.2922345     1339.708     2214.702     1861.829     90.43399     180.5099     360.7329      1.779     6.47     1182.522     63.59137     158.9908        18     1.277     1.097 -15.36   0
        51    756.6565    942.9327 307.5943018  +6.3094299      891.112     1352.555     904.4722     90.57697     180.3665     360.7329      1.524     4.33     1173.182     63.59137     135.2765         7     0.782     0.681  60.34   0
        52    893.9640    939.5627 307.5373366  +6.3153793     7131.405     10540.86     10449.19     90.14735     180.2947     360.5176      1.568     3.34     1170.378     63.59137     1006.466        31     1.352     1.055 -61.04   0
        53    331.7280    935.2917 307.7711983  +6.2984437     7813.498     13954.08     14513.12     90.29079     180.6532     360.7688      1.914     4.06     1181.478     63.59137     789.9368        41     1.580     1.321 -65.49   0
        54    599.4117    937.5137 307.6598509  +6.3064420     564.9835     863.5856     611.9715     90.00369     180.1511     360.5894      1.468     4.89     1178.025     63.59137     95.11902         5     1.140     0.594 -54.68   0
        55    430.0862    936.8146 307.7302611  +6.3010935     1820.411     3132.155     3556.856     90.00369     180.1511     360.6253      1.823     4.69     1180.209     63.59137     215.2837        21     1.371     1.026 -47.35   0
        56    251.8674    934.2128 307.8044310  +6.2962248     5882.532      10612.6     11065.45      89.8598     180.2229     360.6612      1.920     4.15     1181.892     63.59137     602.6836        38     1.582     1.270 -69.31   0
        57    579.4690    928.0952 307.6684595  +6.3096694     907.5588     1506.831     1281.451     90.29079     180.5816     360.8047      1.467     3.61     1178.085     63.59137     131.0627         6     1.115     0.337 -39.85   0
        58    909.8401    924.7665 307.5312357  +6.3220184     1145.894     1662.672      1837.73     90.14735     180.2947     360.5535      1.622     4.10     1169.098     63.59137     161.0709        11     0.931     0.861 -46.12   0
        59    866.4009    922.7938 307.5493603  +6.3213925     655.0449     1243.575     1470.201     89.71568     180.0793     360.5535      2.601     4.37     1169.898     63.59137     109.5521         5     1.043     0.624 -23.76   0
        60    977.0403    920.6086 307.5034398  +6.3259639     922.6193     1413.257       1587.9     89.71568     180.2229     360.4458      1.639     4.87     1167.435     63.59137     125.4314         8     0.947     0.709 -72.36   0
        61    746.2447    917.7041 307.5994820  +6.3195064     1480.319     2364.999     2524.479     90.43399     180.2947     360.9481      1.729     4.02      1172.34     63.59137     180.2394        17     1.093     1.078 -21.41   0
        62    622.2061    913.9928 307.6511708  +6.3169169     512.5345     558.3271    -279.9949     89.71568     180.2229     360.5894      1.233     3.68     1176.248     63.59137     92.27673         5     1.438     0.272  77.74   0
        63    977.4215    913.3799 307.5035249  +6.3289629     1400.532     1903.225     2197.345     90.14735     180.3665     360.6971      1.439     3.13      1167.06     63.59137     218.8737        13     1.062     0.805 -61.11   0
        64    664.6911    911.2394 307.6336027  +6.3194670     1956.518     3098.109     2940.872     90.43399     180.3665     360.8047      1.710     4.55     1174.623     63.59137     248.6007        23     1.485     1.023 -55.60   0
        65    531.4299    913.2856 307.6889303  +6.3141886     955.3215     1913.703     2027.909     90.57697     180.1511     360.6253      2.286     5.47     1178.176     63.59137     126.4884        13     1.059     1.012  33.96   0
        66   1015.9951    909.5198 307.4876192  +6.3318356     626.2886     652.0495     405.7786     90.00369     179.9355     360.5176      1.343     5.44     1165.886     63.59137     112.2441         6     0.965     0.865  39.65   0
        67    955.4577    908.8429 307.5128086  +6.3301092     572.5621     950.0443     1526.457     90.29079     180.3665     360.8047      2.130     4.91     1167.461     63.59137     123.0056         5     1.363     0.500 -48.30   0
        68     78.9758    906.5793 307.8772356  +6.3018642     1707.475      3062.99     3342.227     90.00369     180.2229     360.7329      1.981     5.45     1181.008     63.59137     193.0038        21     1.498     1.080 -67.97   0
        69     61.5132    907.3207 307.8844691  +6.3009740     2499.333     4565.552     4857.869     90.14735     180.7964     360.9122      1.953     4.63     1181.166     63.59137     285.8739        28     1.413     1.305  81.01   0
        70    824.8132    907.6001 307.5671614  +6.3262892     833.3775     1266.915     1252.271     90.00369     180.0793     360.5535      1.645     6.21     1169.555     63.59137     106.1019        11     1.308     0.828 -14.80   0
        71    204.8509    906.2191 307.8249249  +6.3062192     1779.854     3345.538     3632.138      89.8598     180.5099     360.5176      2.049     5.43     1181.226     63.59137     193.7281        22     1.339     1.157 -40.02   0
        72    942.7717    906.1603 307.5181728  +6.3307969     820.4211     905.0366     1088.295     90.00369     180.1511     360.6253      1.327     4.23     1167.669     63.59137     124.7958         7     1.081     0.473 -61.11   0
        73    659.3389    900.2969 307.6361975  +6.3238095     5977.493     10248.16     10605.14     90.14735     180.4382     360.8764      1.808     3.90     1174.349     63.59137     656.6135        35     1.491     1.225 -54.36   0
        74    239.6701    902.4054 307.8105807  +6.3089573     647.2186     1037.397     1283.475      89.8598     180.0074     360.5894      1.666     3.91     1181.356     63.59137      87.3125         5     1.034     0.424 -15.22   0
        75     19.6767    898.8952 307.9021457  +6.3030551     1056.451      1804.31     2357.043     90.14735     180.5816     360.8764      2.126     7.16     1181.339     63.59137      126.429        14     1.396     1.030  85.25   0
        76    896.9429    896.5329 307.5375493  +6.3332545     2672.612     3918.485     3771.698     90.57697     180.3665     360.7329      1.563     3.74     1168.152     63.59137     340.1327        19     1.312     0.871 -59.26   0
        77     32.7539    897.0295 307.8967734  +6.3042633     932.6398     1784.743      1543.05      89.8598     180.5816     360.6253      1.940     6.77     1181.193     63.59137     115.9762        13     1.253     1.026  28.49   0
