#   1 NUMBER                 Running object number                                     
#   2 X_IMAGE                Object position along x                                    [pixel]
#   3 Y_IMAGE                Object position along y                                    [pixel]
#   4 ALPHA_J2000            Right ascension of barycenter (J2000)                      [deg]
#   5 DELTA_J2000            Declination of barycenter (J2000)                          [deg]
#   6 FLUX_APER              Flux vector within fixed circular aperture(s)              [count]
#   9 FLUXERR_APER           RMS error vector for aperture flux(es)                     [count]
#  12 FLUX_RADIUS            Fraction-of-light radii                                    [pixel]
#  13 FWHM_IMAGE             FWHM assuming a gaussian core                              [pixel]
#  14 BACKGROUND             Background at centroid position                            [count]
#  15 THRESHOLD              Detection threshold above background                       [count]
#  16 FLUX_MAX               Peak flux above background                                 [count]
#  17 ISOAREA_IMAGE          Isophotal area above Analysis threshold                    [pixel**2]
#  18 A_IMAGE                Profile RMS along major axis                               [pixel]
#  19 B_IMAGE                Profile RMS along minor axis                               [pixel]
#  20 THETA_IMAGE            Position angle (CCW/x)                                     [deg]
#  21 FLAGS                  Extraction flags                                          
         1    727.1843     20.3042 307.6453302  +6.6898069     6497.851     10647.18     11106.33      86.0645     172.0605      344.258      1.768     3.99      1022.17     60.71125     836.4348        33     1.515     1.117  34.87   0
         2    647.4167     19.5382 307.6785183  +6.6874588     3242.601     5634.801     5737.193     85.78997     172.1975     344.2237      1.829     4.29     1024.497     60.71125      368.422        28     1.478     1.126  36.37   0
         3    447.5784     15.8110 307.7617230  +6.6823132     5012.144     9407.732     10152.81     85.92735     171.9919      344.258      1.996     4.39     1030.224     60.71125     548.9985        39     1.706     1.246  40.62   0
         4     48.5048     15.3947 307.9276358  +6.6690942      6834.44     12605.92     13334.19      86.0645     171.9233     344.1552      1.954     4.56     1052.141     60.71125      765.296        43     1.662     1.340  44.65   0
         5    693.9940     14.5870 307.6593218  +6.6910594     813.6193       1384.5     1058.001     85.92735     172.0605     344.2922      1.632     4.56      1023.35     60.71125     130.8682         7     0.995     0.593  60.94   0
         6    344.1491     10.7778 307.8048912  +6.6809263       9942.5     19355.66     21221.69     85.78997     172.3344     344.2922      2.051     4.53     1042.889     60.71125     1128.097        53     1.726     1.435  43.80  16
         7    117.8150     11.1735 307.8989671  +6.6731669     2027.656     3773.153     3929.792     85.92735      172.129     344.3607      1.935     5.32      1050.14     60.71125     230.1704        28     1.536     1.298  34.95   0
         8    522.6226     11.5341 307.7306699  +6.6865912     704.1608     1336.313     1948.612     85.92735      172.266     344.3265      2.899     5.79     1026.008     60.71125     99.11975        10     1.339     0.705  61.34   0
         9    109.0486     10.2421 307.9026430  +6.6732569     1367.005      2402.36     2768.934     86.33816     172.1975     344.3607      2.026     5.43     1050.306     60.71125     180.6952        19     1.476     0.929  21.98   0
        10    410.3011      8.8062 307.7774573  +6.6839572      1907.05      3334.16     3679.641      86.0645     171.8547     344.1552      1.980     4.70     1033.547     60.71125     218.1423        22     1.330     1.155  17.53  16
        11    671.0248      4.1295 307.6692244  +6.6946104     9312.482      16406.6     17400.04     85.92735     170.6148     303.8185      1.841     4.14     1023.845     60.71125     1135.081        42     1.623     1.217  38.92  24
        12    835.8959      3.5949 307.6006982  +6.7003345     1541.404     2636.719      2909.49      86.0645     166.4862     296.0718      1.814     4.25     1017.319     60.71125     229.9329        17     1.363     0.856  33.93  16
        13    812.0312     10.0462 307.6104022  +6.6968745      597.446     887.7606     877.5459     85.92735      172.266     344.3265      1.410     4.39     1017.541     60.71125      103.705         6     1.170     0.469  28.96   0
        14    548.7902      3.5713 307.7200608  +6.6907547     944.4921     1741.404     2029.946     85.92735     166.3444     295.7928      2.067     6.51     1024.803     60.71125     115.4496        13     1.234     0.964  36.91  16
        15    906.0029      1.8986 307.5716084  +6.7033722     1262.092     1828.876     2419.341     81.70572     145.6261     268.8021      1.600     4.58     1016.354     60.71125     233.0974        14     1.330     0.848  26.04  24
        16    271.4642      1.9505 307.8354070  +6.6821338     4411.735     7037.094     7025.051     82.56731     146.5947     269.9406      1.728     5.13     1050.225     60.71125     582.3094        27     1.671     0.952   2.04  24
        17    663.1602      1.3357 307.6725885  +6.6955013     2877.637     3600.084     3724.287     74.92861     136.7716      259.151      1.136     3.29      1023.75     60.71125     704.0731        13     1.252     0.527  -1.08  25
        18    432.8405      1.3915 307.7683384  +6.6877739     2633.549     3492.532      3626.14     75.39938     137.5455      259.969      1.297     4.30     1031.279     60.71125     516.2748        15     1.486     0.580   0.27  24
        19    693.3051      1.1745 307.6600615  +6.6965749     1161.219     1524.748     1458.554     72.85351     134.0716     255.9914      1.121     3.53     1022.805     60.71125     304.3591         8     1.202     0.378   1.51  24
        20     82.7795    998.5550 307.8799919  +6.2642741     849.4195     1396.557     1140.919     85.92735      172.129     344.2237      1.567     5.00      1078.03     60.71125     134.7124        10     1.470     0.481  36.69   0
        21    974.3947   1023.8127 307.5087651  +6.2836498      1284.53     1482.677     1520.058     72.03948     133.9836     256.2216      0.918     2.25     1063.203     60.71125     387.5452         7     0.962     0.390   0.45  24
        22    750.9418   1023.0084 307.6016166  +6.2765367     1104.223     1411.456     1359.018     82.42434      147.237      270.508      1.439     5.61     1068.707     60.71125     151.8729        11     1.413     0.629  21.12  24
        23    734.6930   1023.3591 307.6083546  +6.2758498     2254.364     2722.813     2457.871     79.36241     141.8514     264.9572      1.235     4.13     1069.385     60.71125      377.437        13     1.233     0.639  16.38  24
        24    381.9080   1021.4338 307.7549648  +6.2648551      1944.05     3081.585     2987.277     86.47466     166.2735     295.7131      1.708     4.56     1075.559     60.71125     255.4634        18     1.370     0.893  50.26  24
        25    813.4589    997.8486 307.5764945  +6.2890111     679.5177       1196.6     1623.231     86.33816      172.266     344.4977      1.721     4.19     1065.413     60.71125     106.3467         5     0.888     0.564  43.50   0
        26    500.8951    996.3251 307.7063876  +6.2792046     2348.132     3293.294     3447.809      86.0645     172.4713     344.4293      1.579     4.40     1073.178     60.71125     287.1028        18     1.343     0.879  32.74   0
        27    935.2797    988.1677 307.5262137  +6.2970674     47882.06     69846.68     72980.41     86.20144      172.266      344.395      1.574     3.96     1063.266     60.71125     7088.345        57     1.550     1.024  42.53   0
        28      8.3937    988.1169 307.9112440  +6.2660859     3089.332     4956.797      4910.87     85.92735     171.9233     344.1209      1.694     3.94     1078.286     60.71125     437.0256        25     1.490     0.985  40.32  16
        29    242.7010    986.5903 307.8139695  +6.2745799     1745.596      2719.03     3042.711      86.0645     171.8547     344.2237      1.634     4.06     1075.473     60.71125      221.225        18     1.308     0.903  62.10   0
        30    641.3981    984.6334 307.6484167  +6.2887276     799.7758     1255.542     1234.036     85.51456     172.0605     344.1895      1.738     6.30      1069.68     60.71125     96.51294        12     1.253     0.890  34.97   0
        31    833.1488    981.9382 307.5688510  +6.2962376      2623.49     3653.927     3935.147     86.33816     172.1975     344.4293      1.554     4.09     1064.585     60.71125     360.9863        20     1.348     0.907  38.16   0
        32    781.3701    979.7512 307.5904347  +6.2954145     7097.546      10713.1     12149.96     85.92735     172.3344     344.3265      1.648     4.30     1065.768     60.71125     983.2357        31     1.532     0.918  37.44   0
        33    568.4732    979.4344 307.6788861  +6.2884384     941.3024     1634.415     1762.292     86.20144     172.1975      344.395      1.853     4.12     1071.552     60.71125     176.0315        12     1.394     0.840  20.00   0
        34    251.0476    978.9489 307.8107614  +6.2780151     1534.884     2393.736      3026.58     86.47466      172.129     344.4293      1.742     4.70     1075.555     60.71125     226.8215        12     1.258     0.718  40.53   0
        35    214.7551    978.2422 307.8258608  +6.2770901     887.1379     1517.186      1716.08     86.20144      172.266      344.258      1.951     4.24      1075.45     60.71125     132.8616         8     1.168     0.639   1.73   0
        36     75.8326    977.0052 307.8836089  +6.2729394     2833.461     4168.044     4406.272     85.65237      172.129     344.2237      1.567     4.35     1077.518     60.71125     342.0884        19     1.368     0.853  40.16   0
        37    969.6021    974.9715 307.5123993  +6.3036595     7483.978      10849.9     11027.71     85.78997     171.9919     344.2237      1.547     4.10     1060.671     60.71125     1026.385        28     1.476     0.862  42.87   0
        38    226.2476    971.3859 307.8213194  +6.2803067     708.8839     1116.553     1391.801     85.65237      172.129     344.1209      1.511     4.48     1075.227     60.71125     99.49683         7     0.992     0.574  55.55   0
        39    652.1157    969.0507 307.6444904  +6.2955203     712.4968     1229.642     1243.024     86.33816     172.1975      344.532      1.872     4.65     1068.792     60.71125     101.9325         7     1.123     0.547  50.52   0
        40    943.2407    966.7357 307.5236278  +6.3061829     2280.783     3268.626     3223.909     86.33816     172.1975      344.532      1.523     4.21     1061.516     60.71125     314.5901        19     1.455     0.802  38.05   0
        41    276.4642    962.9648 307.8007450  +6.2854674     4433.269      6951.61      7067.99     86.20144      172.266     344.4635      1.688     4.04     1075.698     60.71125     538.3922        27     1.401     1.033  42.22   0
        42      1.7515    964.9305 307.9147906  +6.2754369     977.8923     1293.947     1658.385     80.54259     143.5869     266.5992      1.388     3.78     1077.134     60.71125     163.9631         9     1.017     0.596  59.50  24
        43    803.1017    963.2027 307.5819647  +6.3029729     1288.148     1841.243     1454.098      86.0645     171.9919     344.0866      1.540     5.41     1064.406     60.71125     205.5088        15     1.424     0.723  42.48   0
        44    664.1512    962.5598 307.6397098  +6.2986026     4834.993     7378.142      7553.82     86.20144      172.266     344.3607      1.640     4.16      1068.23     60.71125     630.1971        23     1.417     0.899  40.21   0
        45   1013.5534    962.6313 307.4945556  +6.3102180     819.8572     1389.175     1585.163     85.78997      172.266     344.3265      1.928     5.18     1057.917     60.71125     126.5813        10     1.224     0.657  45.05   0
        46     45.1169    960.2386 307.8969368  +6.2788312     2237.168     3252.704     3301.566     86.33816     172.1975      344.395      1.596     3.85     1076.985     60.71125     301.3994        20     1.351     0.894  42.61   0
        47    486.5227    960.9147 307.7135551  +6.2933464     1084.008      1629.01     1722.764     86.33816      172.608      344.532      1.721     5.25     1072.783     60.71125     129.7264        13     1.049     0.921   2.91   0
        48    895.8188    958.9889 307.5435892  +6.3078027     999.6631     1274.571     863.5913     85.92735     171.9233     344.3265      1.359     4.70     1062.297     60.71125     176.4624         9     1.196     0.524  42.94   0
        49    967.5007    956.2515 307.5139022  +6.3113200      832.869     1189.188     1062.344     86.33816      172.266     344.6689      1.488     5.77     1059.685     60.71125     123.2523        11     1.441     0.662  53.22   0
        50    987.7261    957.0022 307.5054746  +6.3116832     750.2829     937.0502     856.3886     85.78997     171.7174     344.2922      1.400     4.25     1058.828     60.71125       102.48         7     1.145     0.450  34.31   0
        51    312.4395    956.5443 307.7860184  +6.2893241     896.9736     1319.395     1376.846     86.33816     172.3344      344.395      1.845     5.37     1075.532     60.71125     112.8317        10     1.213     0.672  44.42   0
        52   1020.1053    955.6799 307.4920675  +6.3133066     813.8214      1555.41     1854.936      86.0645     172.5396     314.0879      2.170     6.38     1057.321     60.71125     162.0675        10     1.706     0.669  55.62  18
        53    588.8546    954.9621 307.6712460  +6.2992252     1672.439      2323.14     2253.827     86.33816     172.3344     344.4635      1.458     4.46     1070.271     60.71125     231.5543        14     1.268     0.755  41.47   0
        54    628.1953    951.3813 307.6550239  +6.3020180     1372.272     1825.526     1881.856     85.92735     171.8547     344.2237      1.518     5.33      1068.99     60.71125      164.833        11     1.066     0.751  45.85   0
        55    307.8310    949.1014 307.7881848  +6.2922431     1478.381     2393.501     2252.367     86.33816     171.9919     344.5662      1.781     5.87     1075.476     60.71125     246.8052        16     1.485     0.811  47.37   0
        56     78.1196    951.9399 307.8835098  +6.2833663     863.7255     1429.355     2139.812     86.47466      172.266      344.395      1.900     5.24     1076.862     60.71125     115.9028        10     1.291     0.600  61.36   0
        57    774.5836    945.4453 307.5944106  +6.3093548     944.4095     1120.332     689.2441     85.78997      172.129     344.1895      1.450     4.51     1064.772     60.71125     147.8694         8     1.025     0.588  50.03   0
        58    912.3287    941.8318 307.5373081  +6.3154377     7815.219     11252.94     11362.19     86.20144      172.266      344.395      1.559     3.95     1060.911     60.71125     1101.138        25     1.410     0.869  39.62   0
        59    448.2570    939.0173 307.7301917  +6.3011087     2009.912     2949.301     3084.358     85.78997     172.1975     344.1552      1.610     3.94     1073.147     60.71125     275.7479        17     1.308     0.802  36.78   0
        60    349.8921    937.4962 307.7711053  +6.2984443     9392.018     14615.96     15307.41     86.33816     172.8129      344.395      1.692     3.87     1075.194     60.71125     1172.779        37     1.492     1.105  40.56   0
        61    269.9981    936.3854 307.8043316  +6.2962263     6857.729     10899.06     10800.49     85.92735     171.9233     344.2237      1.701     4.02     1075.356     60.71125     894.7828        32     1.515     1.033  37.46   0
        62    598.0373    930.8315 307.6682463  +6.3094966     1250.484     1694.249     1353.537     85.92735     171.9919     344.2237      1.518     4.71     1069.094     60.71125     162.0236        16     1.377     0.776  43.49   0
        63    928.2603    926.8383 307.5311942  +6.3221599     1125.802     1989.697     2242.098     86.33816     172.3344     344.4635      1.692     5.76     1059.611     60.71125     157.8458        16     1.387     0.867  37.66   0
        64    884.1912    925.7922 307.5495377  +6.3211241     827.7617     1236.705     818.3649     85.65237     172.0605     344.2922      1.711     6.14     1060.702     60.71125     128.6221        11     1.469     0.722  22.89   0
        65    426.6372    925.2447 307.7396388  +6.3060726     556.0005     775.6733     505.2474      86.0645      172.266     344.3265      1.605     5.31     1073.239     60.71125     84.20459         5     1.432     0.557  52.26   0
        66    232.3794    926.3802 307.8202977  +6.2990967     655.2249     717.9658     1011.555      86.0645     172.1975     344.3607      1.629     3.99     1075.289     60.71125      103.139         5     1.176     0.387  36.78   0
        67    996.3641    923.8299 307.5030020  +6.3256693      1375.88     1754.371     1819.412     85.92735     171.9919      344.258      1.524     0.00     1056.834     60.71125     834.0952        10     1.617     0.607  53.07   0
        68    857.8852    920.5776 307.5606420  +6.3224010     657.6661     1024.306     905.9075     86.20144     171.9919     344.3265      1.371     4.16     1061.293     60.71125     101.3993         6     1.036     0.476  56.36   0
        69    764.5839    919.9357 307.5994249  +6.3195555     1687.088     2659.693     3003.291     85.78997      172.129     344.2922      1.641     4.51      1064.21     60.71125     255.7159        17     1.375     0.871  42.18   0
        70    587.9223    919.9916 307.6728145  +6.3136350     666.3052     1111.962     990.3298     85.92735     171.7174      344.258      1.507     5.26     1069.052     60.71125     123.3792         9     1.426     0.547  38.23   0
        71    995.7732    915.6830 307.5035215  +6.3290139     1529.652     1973.292     1638.944     86.20144     171.9919     344.3607      1.499     4.67     1056.492     60.71125     195.6719        14     1.207     0.809  44.38   0
        72    640.4625    916.4317 307.6511078  +6.3168601     720.1315     912.4108      673.718      86.0645     172.3344      344.395      1.624     4.74      1067.43     60.71125     123.1008         7     1.218     0.522  47.57   0
        73    628.9951    916.7281 307.6558617  +6.3163547      743.595     1125.477     794.1134     85.92735      171.786     344.3265      1.576     5.56     1067.719     60.71125     126.6547         8     1.334     0.673  37.48   0
        74     15.0932    916.9039 307.9108801  +6.2957167     796.7249     1396.395     1461.231     86.33816     172.8129     344.3607      1.572     3.77     1075.255     60.71125     153.9236         6     0.962     0.424  43.44   0
        75    549.5512    915.5860 307.6889038  +6.3141719     1163.039     1845.786     1931.088     85.65238     172.1975     344.1209      1.676     5.74     1070.296     60.71125     152.2023        14     1.394     0.755  26.42   0
        76    682.9620    913.4865 307.6335513  +6.3194952     2460.074     4044.621     4191.394     86.33816     172.1975     344.4293      1.799     4.65      1066.28     60.71125     309.2072        19     1.456     0.840  40.41   0
        77    973.5126    911.7021 307.5129037  +6.3299170     713.3611     1035.528     1110.298     86.33816     172.7446     344.4635      1.585     4.53     1057.201     60.71125     100.0073         7     0.906     0.644  17.69   0
