#   1 NUMBER                 Running object number                                     
#   2 X_IMAGE                Object position along x                                    [pixel]
#   3 Y_IMAGE                Object position along y                                    [pixel]
#   4 ALPHA_J2000            Right ascension of barycenter (J2000)                      [deg]
#   5 DELTA_J2000            Declination of barycenter (J2000)                          [deg]
#   6 FLUX_APER              Flux vector within fixed circular aperture(s)              [count]
#   9 FLUXERR_APER           RMS error vector for aperture flux(es)                     [count]
#  12 FLUX_RADIUS            Fraction-of-light radii                                    [pixel]
#  13 FWHM_IMAGE             FWHM assuming a gaussian core                              [pixel]
#  14 BACKGROUND             Background at centroid position                            [count]
#  15 THRESHOLD              Detection threshold above background                       [count]
#  16 FLUX_MAX               Peak flux above background                                 [count]
#  17 ISOAREA_IMAGE          Isophotal area above Analysis threshold                    [pixel**2]
#  18 A_IMAGE                Profile RMS along major axis                               [pixel]
#  19 B_IMAGE                Profile RMS along minor axis                               [pixel]
#  20 THETA_IMAGE            Position angle (CCW/x)                                     [deg]
#  21 FLAGS                  Extraction flags                                          
         1     97.1611     21.4649 307.8993097  +6.6621506      696.105     954.6161     1025.836     78.12373     155.8142     311.7523      1.452     4.74     835.6696     54.93504     84.50299         8     0.938     0.679  53.90   0
         2    257.7903     15.2857 307.8327717  +6.6700627     898.2327     1277.743     1112.933       77.752     155.5661     311.5044      1.503     4.20     836.0546     54.93504     155.2437        11     1.286     0.625  79.36   0
         3    180.4933     13.5871 307.8649473  +6.6681856     11665.74     16505.48        16790     77.87611     155.6282     311.4734      1.555     3.68     835.8481     54.93504     1624.951        34     1.445     0.922  59.79   0
         4    926.0638     10.8643 307.5552210  +6.6940939     4068.133     6115.388     6690.825     78.12373     155.8762     311.6904      1.594     3.97     818.6453     54.93504     568.6132        24     1.443     0.874  61.03   0
         5    524.7717     11.5267 307.7219571  +6.6805048     3312.973     4404.489     4636.233     78.00002     155.8762     311.5974      1.472     3.75     823.1052     54.93504     481.4229        21     1.311     0.850  63.68   0
         6    726.9624      9.6624 307.6379991  +6.6879907     2089.707     2728.338     2385.046     78.12373     155.9381     311.6594      1.383     4.26     822.4941     54.93504     322.1628        13     1.210     0.636  61.54   0
         7    462.7517      9.8892 307.7477836  +6.6791180     2057.489     3001.114     3599.838     78.12373     155.7522     311.8143      1.518     3.48      825.064     54.93504     317.5646        15     1.205     0.720  62.64   0
         8    990.9402      7.2257 307.5283814  +6.6977439         2035      3365.29     4144.996       77.752     155.8762     305.7469      1.831     4.25     818.4108     54.93504      250.539        19     1.382     0.913  68.81  16
         9    785.8236      6.6999 307.6136375  +6.6911665     673.2499     788.3807     796.1871     78.37057     155.6282     301.6129      1.263     3.91     822.6523     54.93504     105.5958         6     1.193     0.367  60.86  16
        10    710.2654      3.7575 307.6451340  +6.6898750     7977.383     11071.67     11225.45     78.12373       152.05     270.1642      1.492     3.74     822.3289     54.93504     1141.109        26     1.397     0.849  61.54  24
        11    630.4914      3.1304 307.6783052  +6.6874853     4199.704     5808.981     5956.732     78.12373     146.8154     261.7399      1.448     3.61     822.4482     54.93504      624.014        22     1.379     0.791  57.81  24
        12    332.4212      2.9604 307.8021720  +6.6776396     1052.422      1479.26     1413.093       77.752     144.7619     259.2189      1.418     4.46     834.9152     54.93504     170.2186         8     1.066     0.573  56.86  16
        13    386.4777      1.8813 307.7797456  +6.6798858     639.4695     586.0208      769.246     74.32286     131.9173     243.4657      1.100     3.32     831.0978     54.93504     124.2836         6     0.781     0.489  80.36  24
        14    431.4987      1.2013 307.7610603  +6.6816654     1982.093     2300.011     2446.857     66.06837     121.7924     232.2187      0.899     2.31     827.1277     54.93504     647.6399         9     1.118     0.399  -2.30  24
        15     32.2500      1.2256 307.9269588  +6.6683388     2176.091     2376.051     2521.106     66.36007      122.425     232.7172      0.905     2.14     834.9207     54.93504     681.2409         9     0.952     0.416   3.01  24
        16    518.0976    996.9036 307.6919121  +6.2733874     953.2382      1725.67     1344.447     78.12373     156.4328     311.5044      2.114     5.33     855.4407     54.93504     129.3479        11     1.108     0.763  26.49   0
        17    893.7974   1023.7040 307.5350246  +6.2747813     825.8488      1060.57     861.4289     67.08376      122.976     233.6283      1.343     3.84     851.2038     54.93504     160.0314         7     1.080     0.446   5.64  24
        18    752.6951   1022.5978 307.5936496  +6.2705636     697.4244     1117.642     1534.886      77.6277     138.5583     251.0814      1.867     5.64     853.5419     54.93504     96.32916         8     1.270     0.706  83.17  25
        19    719.5859   1020.1313 307.6074790  +6.2704843     6502.395     11157.82     11786.75      77.6277     155.8142     283.6606      1.829     3.98     853.9482     54.93504     808.2957        38     1.582     1.172  60.03  24
        20    586.3585   1022.8498 307.6627063  +6.2649407     60714.99     80285.54     83050.17     76.37354     135.3143     247.3614      1.451     4.42      856.012     54.93504     8153.558        58     1.421     1.071  22.62  24
        21    434.4071   1020.4938 307.7258757  +6.2608641     3814.076     6497.104     7181.362     77.75201     155.5661     279.3726      1.847     4.05      855.776     54.93504     480.0309        32     1.615     1.044  67.62  24
        22    216.2209   1022.7534 307.8163902  +6.2526675     1887.731     2572.491     2726.726     76.87766     136.7342     248.8017      1.503     4.33     854.6266     54.93504     227.0507        16     1.252     0.806  38.19  24
        23    298.0651    994.2623 307.7833595  +6.2671588     14586.31     23328.89     25142.26     78.12373     155.8762     311.6904      1.735     3.72     855.5209     54.93504     1738.521        58     1.560     1.500 -71.88   0
        24    813.7090    994.4080 307.5692509  +6.2842265     952.5185     1995.333     2027.395     77.75201     155.5661     311.4734      2.094     6.72      852.002     54.93504     175.6449        17     1.659     0.998  74.12   0
        25    422.6930    995.1741 307.7315828  +6.2709299     987.1232     1618.116     1446.571     78.24725     155.6282     311.5044      1.668     5.42     855.3795     54.93504     140.6475        10     1.240     0.669  71.01   0
        26    269.2056    991.6360 307.7954296  +6.2672820     957.5195     1696.543       2024.5     77.25359     155.6282     311.4424      1.712     4.80     855.0054     54.93504     156.8691        13     1.354     0.804  57.28   0
        27    913.7415    988.2200 307.5279196  +6.2900944     7368.995     13590.98     14943.76       77.752     155.7522     311.4734      1.977     4.58     850.0307     54.93504     852.3528        43     1.679     1.254  58.31   0
        28    887.2484    984.3596 307.5390484  +6.2908115        10670     19566.45     21258.08     78.00002     155.8142     311.5664      1.980     4.22     850.4751     54.93504     1178.445        53     1.732     1.348  51.30   0
        29    600.0446    985.1086 307.6582786  +6.2809799     1389.059     2517.628     2882.784     78.12373     155.8142     311.7833      1.994     4.69     855.2414     54.93504     185.0038        17     1.435     0.872  68.36   0
        30   1009.0755    983.7358 307.4884820  +6.2951001     3792.239     7518.657     8159.476     78.24725     155.8762     311.6284      2.057     4.84     847.0507     54.93504     401.8212        40     1.715     1.305  49.65   0
        31    531.5546    983.5929 307.6867675  +6.2793310     4089.817      6786.96     7812.625      77.6277     155.6902     311.3184      1.871     4.60     855.2787     54.93504     489.3656        31     1.609     1.090  43.25   0
        32    641.1370    982.6964 307.6412963  +6.2833401     1225.297     1975.138     2126.149     78.00002          156     311.7214      1.598     4.47     854.6429     54.93504     168.1525        15     1.340     0.823  54.74   0
        33     66.1757    982.3640 307.8800366  +6.2643410     814.5882     1376.405     981.2911       77.752     155.6902     311.4424      1.740     4.37     851.6953     54.93504     122.0408         9     0.949     0.867  89.81   0
        34    484.5884    980.0058 307.7063881  +6.2792514     2073.072     3124.502     3375.745       77.752     155.6902     311.5664      1.699     3.84     855.1828     54.93504     252.3553        19     1.291     0.886  60.92   0
        35    919.0726    971.8989 307.5262469  +6.2970105     36861.41     67373.09     73176.46     77.87611          156     311.6594      1.961     4.29     849.6309     54.93504     4025.321        79     1.849     1.359  57.02   0
        36    226.2074    970.4138 307.8139908  +6.2746127     1694.573     2673.282     2469.797     77.75201     155.6282     311.5044      1.659     3.98     853.4732     54.93504     238.1082        17     1.330     0.833  55.94   0
        37    114.2069    969.1071 307.8605373  +6.2714178     656.1436     751.2481     627.9265       77.752     155.5661     311.4734      1.449     4.99     852.0986     54.93504     94.61938         6     1.052     0.669 -81.67   0
        38    624.8975    968.5148 307.6485108  +6.2886572     848.8658     1520.194     1542.385     78.12373     156.2475     311.7214      1.838     5.10     854.6412     54.93504     123.8021        11     1.333     0.833  34.69   0
        39    816.9568    965.6278 307.5688573  +6.2962186     2238.403     3565.712     2848.972       77.752     155.9381     311.5664      1.723     4.13     851.4239     54.93504     257.7251        24     1.422     1.002  62.50   0
        40    765.1921    963.5422 307.5904211  +6.2953644     6087.681     10319.94     11207.32      77.5032     155.7522     311.4424      1.847     3.97     852.4693     54.93504     713.3424        36     1.584     1.118  63.15   0
        41    234.5720    963.1298 307.8107609  +6.2778992     1381.671     2350.688     2188.043     77.87611     155.8762     311.5974      1.706     4.90     853.4633     54.93504     178.2277        14     1.267     0.747  62.55   0
        42    551.8486    963.0630 307.6790240  +6.2884828     893.0558     1333.256       1383.7     78.00002     155.8142     311.7213      1.555     4.63     854.9681     54.93504     120.2275        10     0.951     0.784 -17.17   0
        43    199.1115    962.1569 307.8255168  +6.2771191     784.4634     1325.545     1343.785     78.12373     155.8142     311.6904      1.711     6.45      852.774     54.93504     92.91455        12     1.356     0.862 -38.92   0
        44    953.3753    958.5873 307.5124441  +6.3036426     5738.341     10237.71     10651.03     77.87611     155.6902     311.5974      1.925     4.18     848.6031     54.93504     672.7991        42     1.683     1.283  59.00   0
        45     59.4827    961.0829 307.8835269  +6.2729050     2726.612      4111.74     4333.233     77.87611     156.1238     311.7523      1.607     3.60     850.9356     54.93504     325.9871        23     1.290     1.047  43.51   0
        46    635.7990    952.8481 307.6445050  +6.2954884     716.2779     1143.417     995.8753      77.5032      155.504     311.2253      1.504     4.81     854.2198     54.93504      105.681         8     1.239     0.530  59.66   0
        47    927.1249    950.3913 307.5236161  +6.3061585     1732.493     3060.187     2941.955       77.752      155.504     311.4734      1.910     5.36      849.093     54.93504     202.4529        23     1.412     1.154  56.54   0
        48    260.0698    946.8517 307.8007171  +6.2854704      4372.57     6876.771     7035.077     78.00002     155.7522     311.6594      1.653     3.77     853.4549     54.93504     578.5112        28     1.478     0.993  57.11   0
        49    786.7375    946.8901 307.5820273  +6.3029548     1288.321     2227.179     2420.946     78.12373          156     311.7214      1.840     5.11     851.7357     54.93504     157.5624        16     1.233     0.949  61.94   0
        50    647.8196    946.2334 307.6397334  +6.2986189      4551.19     7225.865     7375.799      77.6277     155.6902     311.4734      1.661     3.70     854.0009     54.93504     567.3407        31     1.466     1.043  58.94   0
        51    997.0232    945.9569 307.4947378  +6.3103021      667.861     1277.718     1474.588      77.6277     155.7522     311.4734      2.032     6.05     847.4846     54.93504     100.2844         8     1.093     0.941  88.00   0
        52    470.2635    944.7961 307.7135084  +6.2933145     1039.087     1669.095     1536.565      77.5032     155.6282     311.4424      1.557     4.87     854.6954     54.93504     156.5662        12     1.227     0.818  54.61   0
        53     28.6943    944.3972 307.8968682  +6.2787671     2071.751     3391.503     3573.355     77.87611     155.5661     311.3804      1.753     4.10     849.8217     54.93504     255.7962        22     1.333     1.088  47.96   0
        54    879.4524    942.6537 307.5436685  +6.3077755     852.9782     1543.441     1140.636     78.37057     155.8142     311.6904      1.871     4.50     849.6754     54.93504     128.3621        11     1.274     0.918  57.93   0
        55    971.2800    940.0377 307.5056238  +6.3118950     536.8763     749.5278     678.7124     78.00002     155.9381     311.6284      1.721     6.33     848.0241     54.93504     85.81104         8     1.341     0.839  34.08   0
        56    295.5757    940.4227 307.7861889  +6.2893078     898.8598     1245.903     1330.964      77.6277     155.7522     311.6594      1.598     5.45     853.7914     54.93504     116.1243        10     1.157     0.774  44.58   0
        57    951.6396    940.4078 307.5137672  +6.3110923     679.3715     1163.522     970.7859      77.5032     155.6282     311.3804      1.859     4.95     848.4136     54.93504     83.79926         8     1.023     0.679   0.90   0
        58    572.5078    938.9882 307.6712466  +6.2991103     1715.475     2555.068      2590.42     77.87611     155.5661     311.4424      1.582     3.71     854.4457     54.93504     247.3282        17     1.268     0.844  62.31   0
        59   1003.8480    938.1830 307.4921613  +6.3137380     602.8047     1484.672     1779.279      77.6277     155.8762     311.4424      2.499     3.73     847.3538     54.93504     107.9045         6     0.899     0.620  64.95   0
        60    611.5004    935.7136 307.6551643  +6.3017573     1339.973     2009.433     2017.521     78.12373      156.371     311.7214      1.650     4.46     854.0773     54.93504     149.4463        16     1.226     0.922  48.33   0
        61     61.3658    936.4218 307.8835696  +6.2831510     684.3098      1079.01     1382.493      77.6277     155.6902     311.4114      1.726     5.50     850.2756     54.93504     107.7109         8     1.073     0.794  77.39   0
        62    291.6432    933.2156 307.7880621  +6.2921528     1483.937     2192.744     2263.791      77.6277     155.6902     311.4424      1.619     5.25     853.5123     54.93504     171.3595        16     1.388     0.827  51.53   0
        63    758.4009    928.3953 307.5944080  +6.3096528     827.5115     1154.403     1160.816      77.5032     155.4419     311.4114      1.631     5.52     852.1096     54.93504     118.1473        11     1.214     0.708  31.25   0
        64    896.0786    925.5466 307.5373317  +6.3153903     6377.449     10928.93     11326.83     78.24725     155.8762     311.6904      1.858     4.13     849.1007     54.93504     776.6302        37     1.644     1.152  53.23   0
        65    133.6995    927.2072 307.8538439  +6.2893696     541.6299     774.6821       1014.4     77.87611      155.504     311.4734      1.362     3.34      851.045     54.93504     107.6994         5     1.181     0.273  33.74   0
        66    333.6187    921.3459 307.7710287  +6.2984519     9863.847     14891.93     15546.62      77.6277     155.8762     311.4734      1.652     3.54     853.7516     54.93504     1225.796        39     1.543     1.062  64.91   0
        67    431.9979    922.8151 307.7301296  +6.3011188     2089.909     3046.253     2983.833       77.752     155.5661     311.4734      1.564     3.79     854.1776     54.93504     267.9893        18     1.334     0.818  58.17   0
        68    253.6485    920.2907 307.8042697  +6.2962243     7137.725     10865.79     11409.35     78.12373     155.6902     311.8143      1.651     3.72     852.6718     54.93504     895.8192        36     1.530     1.020  58.52   0
        69    765.8458    913.9519 307.5917960  +6.3158639     692.6561     1187.224      340.819     78.12373     155.7522     311.6904      1.468     4.75     851.7794     54.93504     100.5967         7     1.487     0.430  39.82   0
        70    581.4301    914.3178 307.6683623  +6.3095940     1100.149     1959.516     2221.431     78.00002     155.6902     311.6284      1.901     4.51     854.0649     54.93504     153.3589        13     1.313     0.806  50.18   0
        71    911.7631    910.8376 307.5313063  +6.3219835     987.0142     1704.839      2064.52     77.87611     155.7522     311.5354      1.765     4.17     848.7559     54.93504     149.7375        14     1.139     0.982  22.41   0
        72    144.3318    910.8253 307.8499764  +6.2964887     629.3961     794.7262     881.9581       77.752     155.7522     311.5664      1.370     4.18     850.8905     54.93504     91.68445         6     0.755     0.660  45.15   0
        73    868.1809    909.0627 307.5494630  +6.3212735     771.7337     1129.761       1208.4       77.752     155.8762     311.5354      1.597     4.15     849.3503     54.93504     124.6451         8     0.982     0.711  70.94   0
        74    747.9987    903.4950 307.5995543  +6.3195904     1497.254     2478.284     2704.247      77.6277      155.504     311.2873      1.749     4.68     852.1542     54.93504     222.3978        17     1.483     0.823  72.57   0
        75    571.8443    904.3401 307.6726746  +6.3133957     687.7759     947.9534     1191.417     78.00002     155.8142     311.7833      1.726     3.15     854.0308     54.93504     117.8003         7     0.852     0.584  33.49   0
        76    612.5046    900.4774 307.6559189  +6.3163410      771.675     1057.709     1034.546     77.87611          156     311.7214      1.518     5.80     853.7601     54.93504     108.1339        10     1.155     0.820  68.61   0
        77    979.0127    899.2543 307.5037639  +6.3289921     1091.124     1996.208     2365.044      77.5032     155.8142     311.3804      2.129     6.19     846.7107     54.93504     130.2404        13     1.209     0.891  52.00   0
