#   1 NUMBER                 Running object number                                     
#   2 X_IMAGE                Object position along x                                    [pixel]
#   3 Y_IMAGE                Object position along y                                    [pixel]
#   4 ALPHA_J2000            Right ascension of barycenter (J2000)                      [deg]
#   5 DELTA_J2000            Declination of barycenter (J2000)                          [deg]
#   6 FLUX_APER              Flux vector within fixed circular aperture(s)              [count]
#   9 FLUXERR_APER           RMS error vector for aperture flux(es)                     [count]
#  12 FLUX_RADIUS            Fraction-of-light radii                                    [pixel]
#  13 FWHM_IMAGE             FWHM assuming a gaussian core                              [pixel]
#  14 BACKGROUND             Background at centroid position                            [count]
#  15 THRESHOLD              Detection threshold above background                       [count]
#  16 FLUX_MAX               Peak flux above background                                 [count]
#  17 ISOAREA_IMAGE          Isophotal area above Analysis threshold                    [pixel**2]
#  18 A_IMAGE                Profile RMS along major axis                               [pixel]
#  19 B_IMAGE                Profile RMS along minor axis                               [pixel]
#  20 THETA_IMAGE            Position angle (CCW/x)                                     [deg]
#  21 FLAGS                  Extraction flags                                          
         1    177.3738     16.7570 307.8652392  +6.6681696     5707.425     13863.27     16481.94     84.39216     169.1883     338.1747      2.552     8.50     1010.134     59.62658     753.4891        57     2.486     1.252 -20.58   0
         2    923.0103     14.3737 307.5554983  +6.6940465     2370.058     5494.222     5982.117     84.39215     168.9864     338.1411      2.329     8.38     981.0311     59.62658     397.2536        37     2.336     0.959 -20.30  16
         3    521.6309     14.9006 307.7222626  +6.6804531     1552.146      3753.41     4415.248     84.79562     168.9191     338.4101      2.522     7.71     990.7133     59.62658     211.8579        33     2.342     1.049 -13.74  16
         4    724.0271     12.9439 307.6382287  +6.6880132     1185.188     2738.748     2821.153     84.39216     169.2555     338.1074      2.384     8.93     985.6572     59.62658     157.8439        26     2.055     1.083 -22.31  16
         5    460.9298     13.2332 307.7475400  +6.6791142     1024.524     2185.285     2641.085     84.66135     169.1883     338.3093      2.290     6.77     993.0667     59.62658     138.7122        16     1.705     0.942 -26.79   0
         6    988.4572     10.4847 307.5284319  +6.6978286     1164.624      2232.65     2654.615     84.79563     169.1883     338.3765      2.207     7.76     976.7135     59.62658     231.0046        16     1.862     0.905 -20.20  16
         7    707.3026      7.2120 307.6453687  +6.6898236     4163.622     9623.488     11308.52     84.52686     168.9191     331.7211      2.415     7.95     986.4481     59.62658     607.6808        49     2.331     1.173 -20.51  16
         8    627.3792      6.5382 307.6786010  +6.6874370     2036.478     4530.458     5054.954     84.39216     169.1883      325.978      2.383     8.42     989.3199     59.62658     284.4544        29     2.314     0.885 -17.75  16
         9    328.9175      6.9180 307.8026023  +6.6773086     605.8646     1316.689     1866.148     84.52686      169.457     329.5533      2.077     7.46     1005.043     59.62658     88.90656        12     1.640     0.949 -31.16  16
        10     28.3979      2.6427 307.9276084  +6.6690032     4410.142      10161.4     11965.56      84.1221     153.1649     276.2146      2.422     9.92     1012.518     59.62658     593.5574        47     2.442     1.123 -15.09  24
        11    427.5852      2.7506 307.7617444  +6.6823300     3267.819     7409.995     8673.216      84.1221     154.6434     278.0211      2.352     8.73     997.5969     59.62658     452.3221        41     2.444     1.080 -16.31  24
        12    321.6888      1.0851 307.8058005  +6.6794762     635.5783      1055.28     1129.305     70.10625     130.3738      250.284      1.465     3.85     1005.928     59.62658     148.8741         7     1.523     0.278   0.68  24
        13    418.7425    998.3072 307.7322467  +6.2707775     809.8412     1387.404     1037.114     84.66135      169.121     338.4101      1.955     6.37     1030.533     59.62658     164.2797        13     1.956     0.583 -23.64   0
        14    930.5936   1022.8009 307.5189193  +6.2777121     416.1169     549.7855     993.9268     82.75861     147.4116     269.1637      1.294     4.04     1021.579     59.62658     97.75952         5     1.464     0.319 -50.33  24
        15    715.1395   1022.9460 307.6083689  +6.2704845     3706.901     8492.481     10593.77     82.34515     145.6256     267.1271      2.662    10.18      1026.74     59.62658     818.2639        44     3.337     0.866  -3.07  24
        16    583.8875   1023.5153 307.6628435  +6.2658755       2145.4     3909.232      5403.99     75.72341     137.0115     257.3659      2.425     5.53     1029.622     59.62658     645.5089        26     2.494     0.815  -2.57  25
        17    571.8833   1022.3820 307.6678650  +6.2659433     2375.048     5473.656     5972.456     84.39216     153.0906     276.2558      2.366     8.56     1029.571     59.62658     443.2745        31     2.240     0.913 -13.78  24
        18    431.1212   1023.1312 307.7262809  +6.2609362     2302.719      4305.57     4822.068     80.52901     143.1833     263.9566      1.950     7.16     1031.155     59.62658     397.1035        21     2.045     0.703 -12.34  24
        19    810.3300    997.3534 307.5696956  +6.2842256     782.7117     1682.012     1737.095     84.79562      169.121     338.2756      2.103     6.24     1022.836     59.62658     129.4495        11     1.809     0.604 -26.12   0
        20    909.8431    991.4499 307.5285734  +6.2899738     5521.242     12397.14     14601.09     84.92969      169.121     338.2756      2.317     8.83     1020.764     59.62658     1036.715        41     2.390     0.911 -18.61   0
        21    541.3356    990.8438 307.6815964  +6.2779528     5237.962     11425.64     13781.38     84.79562      169.121     338.2756      2.344     9.33     1029.012     59.62658     892.1377        45     2.371     1.024 -18.67   0
        22    883.5040    987.6216 307.5396363  +6.2906797     8484.774     18033.66     21247.17     84.66135     168.9864     338.0738      2.340     9.28     1021.264     59.62658     1464.919        54     2.453     0.980 -18.89   0
        23    597.1495    987.5828 307.6585315  +6.2811614     944.0408     1846.216     2009.933     84.25723     169.2555     338.0401      2.109     7.74      1028.82     59.62658     123.4894        16     1.835     0.914 -26.32   0
        24   1005.0679    987.0060 307.4891825  +6.2949734     3088.005     7170.709     7862.055     84.25723     168.7843     338.0738      2.340     8.36     1016.224     59.62658     619.1708        32     2.393     0.817 -17.12   0
        25    527.8368    986.5916 307.6873424  +6.2792590     2535.516     5855.951     7299.678     83.98675     168.9191     338.0065      2.513     8.68      1029.21     59.62658     393.0356        37     2.499     0.957 -12.47   0
        26    637.3884    985.7908 307.6418841  +6.2832431     910.3228     1909.608      1774.55     84.52686     168.9864     338.2084      2.122     7.81     1027.668     59.62658     138.1559        19     2.466     0.691 -21.80   0
        27    481.0428    983.0637 307.7068880  +6.2791547     1504.964     2941.424     3188.413     84.79562      169.121     338.3093      2.201     7.43     1030.109     59.62658     235.4661        21     2.168     0.713 -16.71   0
        28    915.2031    975.1788 307.5268869  +6.2968737     27852.36     62259.91     71713.31     84.39215     168.8517     338.0401      2.319     9.79     1020.007     59.62658      4574.18        78     2.448     1.093 -19.14   0
        29    223.2753    973.4632 307.8142278  +6.2745053      1203.81     2713.756     3532.101     85.06355     169.1883      338.242      2.759     8.60     1031.301     59.62658     184.3766        20     2.230     0.925 -29.10   0
        30    813.2224    969.0444 307.5694336  +6.2960165     1604.307     3262.036      3794.63     84.25723     169.0537     338.0738      2.198     7.52     1021.785     59.62658     278.1547        21     2.136     0.742 -22.41   0
        31    761.4331    966.8621 307.5910092  +6.2951944     4160.822     9366.091     10890.84     84.52686     169.2555     338.2084      2.356     9.74     1023.346     59.62658     709.5306        43     2.370     1.117 -21.66   0
        32    231.8207    965.6151 307.8109418  +6.2780332     983.8128     1661.935     1636.121     84.52686     168.9191     338.1747      1.935     6.22     1031.272     59.62658     145.6104        13     1.781     0.611 -24.56   0
        33    196.2606    965.2657 307.8257172  +6.2769875     510.3643     858.4394     763.6352     84.79562      169.121     338.2756      1.874     4.24     1031.109     59.62658     101.1964         5     1.589     0.322 -29.40   0
        34     56.0853    963.9031 307.8839592  +6.2728549     1855.279       4070.5     4830.153     84.79562     169.5912     338.3429      2.414     8.35     1029.842     59.62658     259.8042        27     2.317     0.841 -18.05   0
        35    949.5148    961.9341 307.5130790  +6.3034855     4467.186     9913.729     11247.98     84.92969      169.457     338.3429      2.323     8.53     1018.331     59.62658     831.5944        36     2.320     0.877 -17.13   0
        36    923.5191    953.4891 307.5241525  +6.3061103      1347.33     2759.466     3100.614     84.52686     169.3899     338.3765      2.281     7.09     1018.827     59.62658     237.7558        20     2.145     0.657 -15.62   0
        37    780.5987    950.7548 307.5835859  +6.3024864     600.5316     810.5573      873.551      84.1221     168.7843     337.8381      1.146     3.38     1021.993     59.62658     98.54541         5     0.766     0.433  68.63   2
        38    784.2261    949.4913 307.5821217  +6.3031290     957.0331     1281.045     1146.126      84.9297     168.9191     338.1074      1.553     4.46     1021.804     59.62658     161.2024        10     1.173     0.664 -20.21   3
        39    643.9791    949.5085 307.6403530  +6.2984510     2812.761     6414.737     7224.216     84.66135     168.9864     338.1074      2.373     8.81      1026.35     59.62658     560.1431        35     2.284     0.949 -19.84   0
        40    256.3555    949.6761 307.8012871  +6.2854384      2639.53     5917.949     6976.435     84.66135     169.2555     338.3093      2.435     8.77      1031.28     59.62658     422.0378        35     2.380     0.902 -18.16   0
        41    467.7588    947.3340 307.7135924  +6.2934711     683.7425      1264.02     1420.297     84.79562      169.121     338.3765      2.103     4.58     1029.071     59.62658     108.5686         5     1.305     0.456 -42.19   2
        42     25.4579    947.0814 307.8972368  +6.2787769     1431.366     3118.351     3462.751     84.92969     169.1883     338.3093      2.277     7.98     1029.809     59.62658      240.177        24     2.042     0.872 -17.90   0
        43    570.2770    941.5494 307.6712191  +6.2992817     1146.737     1867.059     2518.769     84.79563     169.2555      338.242      2.147     6.40     1027.856     59.62658     178.9086        14     1.957     0.587 -26.73   2
        44    608.9838    938.2204 307.6552584  +6.3019476      745.024     1400.105     1508.824     84.52686     168.9864     338.1747      2.242     6.55     1027.658     59.62658     148.0679        12     1.831     0.657 -31.11   0
        45    289.3797    935.7291 307.7880409  +6.2923044     1179.234     1467.326     1817.826     84.39216     169.0537     338.2084      1.461     3.60     1031.469     59.62658     187.9777        10     1.061     0.623 -23.80   0
        46    756.3672    931.9986 307.5942695  +6.3094280     588.1548     999.7156     1157.905     83.98675     168.9864     338.0065      2.052     4.24     1022.222     59.62658     94.05176         5     0.830     0.618  -0.17   0
        47    892.2189    928.8641 307.5379650  +6.3152426      4473.04     10014.01     11680.71     84.39216     169.1883     338.1074      2.332     8.92     1019.057     59.62658     864.9645        40     2.349     0.947 -18.93   0
        48    428.4429    925.8572 307.7306312  +6.3010302     1207.405     2621.277     3228.196     84.66135      169.121     338.2756      2.217     7.27     1028.814     59.62658     229.6646        18     2.124     0.698 -17.93   0
        49    329.8370    924.4152 307.7716204  +6.2983309     5633.376     13038.64     14930.83     84.39216     168.9864     338.0065      2.406     9.58      1030.77     59.62658     911.8461        48     2.469     1.036 -18.21   0
        50    250.0435    923.3792 307.8047848  +6.2960902     4166.062     9577.851     11063.34     84.25723     169.0537     338.1074      2.384     9.08      1031.12     59.62658     639.0919        41     2.363     0.974 -18.59   0
        51    763.1005    917.1513 307.5919664  +6.3157857     497.9374      783.294     1221.953     84.79562      169.121     338.4774      1.648     3.48     1021.509     59.62658     104.2985         5     1.340     0.260 -10.80   0
        52    578.3284    917.2336 307.6686845  +6.3095951     668.3486     1102.655      1324.24     84.66135     169.1883     338.3429      1.931     4.73     1027.151     59.62658     119.8837         7     1.498     0.423 -19.25   0
        53    910.0410    913.3215 307.5310798  +6.3222558     745.5325     1365.989     1614.336     84.66135     169.1883     338.3093      1.773     3.66     1018.003     59.62658     128.8541         7     0.973     0.638 -16.43   0
        54    975.4390    909.9277 307.5040368  +6.3258311     483.3531     908.7797     1496.546     84.66135     169.1883     338.3429      2.077     6.70     1015.869     59.62658     96.92761         9     1.825     0.690 -19.11   0
        55    745.8748    906.5481 307.5994708  +6.3195924     1141.484     1745.528     2842.062     84.79562     169.2555     338.2756      1.975     4.78     1021.731     59.62658     211.8388        10     1.377     0.591 -25.94   2
        56    977.3318    902.3251 307.5035026  +6.3290346     934.0281     1463.428     2065.158      84.9297     169.3227     338.2756      1.827     5.21     1015.287     59.62658     151.0014        10     1.291     0.810 -14.66   0
        57    609.4550    903.2157 307.6562261  +6.3164238     724.6295     889.9879      717.132      84.1221      169.121     337.9728      1.433     4.43     1026.005     59.62658     131.6938         6     0.985     0.568 -26.09   0
        58    530.1213    902.6336 307.6891863  +6.3140182     711.5814     1486.406     1356.234     84.66135     169.1883     338.2756      2.007     4.97     1027.562     59.62658     103.7238         8     1.478     0.472  -3.87   0
        59    661.6706    900.6654 307.6346298  +6.3192178     1239.116     2538.201     3597.746     84.79562     169.2555     338.2756      2.442     6.77     1023.952     59.62658     146.1179        12     1.575     0.817 -13.70   2
        60    665.1382    899.6099 307.6332250  +6.3197694     1521.215     2094.374     2881.245      84.1221     168.9864     338.0738      1.583     4.63      1023.81     59.62658     264.9346        13     1.302     0.846 -31.08   3
        61     59.8243    896.4575 307.8846606  +6.3008409     1577.537     3884.065     4492.485     84.39216     169.1883     338.1074      2.530     8.25     1030.196     59.62658     294.3237        29     2.288     0.912 -15.58   0
        62     77.5349    895.8181 307.8773288  +6.3016986     1134.244      2599.85     2918.226     84.39216     169.1883     338.1747      2.450     8.39     1030.169     59.62658     169.2152        23     2.251     0.874 -16.52   0
        63    203.2175    895.5698 307.8251544  +6.3060109     1229.297     2851.115     3428.391     84.39216     168.9864     338.2084      2.473     8.73     1030.899     59.62658     198.3206        25     2.287     0.930 -11.26   0
        64    941.6369    895.4019 307.5185538  +6.3307087     534.5113     1064.671     1313.304     83.85117     168.9864     338.0738      2.389     4.43       1016.5     59.62658     87.66022         7     1.627     0.343 -12.72   0
        65    343.5295    891.1420 307.7670441  +6.3125336      718.613     1442.535     1731.666     84.92969     169.1883     338.2756      2.369     4.92     1030.314     59.62658     114.6091         7     1.634     0.420 -36.10   0
        66    657.6113    889.4350 307.6366884  +6.3237218      4320.02     9562.915      11263.4     84.25724     168.9864     338.0738      2.341     9.06     1023.687     59.62658     695.7815        42     2.377     0.965 -20.67   0
        67    795.8505    890.2526 307.5792601  +6.3279878     586.3902     900.7546     673.9682     84.92969     169.0537     338.3093      1.620     4.41     1019.994     59.62658      101.834         7     1.299     0.427  -3.80   0
        68     19.2246    887.4763 307.9018173  +6.3031896     909.7206     1344.652     1690.881     84.39216      169.121      338.242      1.744     5.79     1030.378     59.62658     160.8964        11     1.191     0.793 -30.48   2
        69    895.4446    885.6932 307.5380562  +6.3331841     1834.151     3784.116     4209.731     84.79563      169.121     338.4101      2.256     7.78     1017.745     59.62658     316.7983        26     2.336     0.725 -16.67   0
        70    340.6002    882.6409 307.7685437  +6.3159474     9601.092     22383.04     26020.78     83.98675     168.7843     337.9391      2.407     9.25     1030.327     59.62658     1470.035        63     2.450     1.143 -20.47   0
        71     33.0334    885.7977 307.8961401  +6.3043461     655.8775     825.1371     689.7776     83.98675     168.9864     338.0401      1.467     4.93     1030.364     59.62658      102.636         8     0.871     0.789  -7.72   0
        72     76.4665    883.3121 307.8781902  +6.3068289     726.3221     1585.213     1839.464     84.79563     169.3899     338.2756      2.163     6.88     1030.313     59.62658     120.1506        14     1.847     0.718 -15.72   0
        73    213.6901    881.6112 307.8212720  +6.3121276      768.192     1131.342     1303.184     84.52686     168.8517     338.0738      1.585     4.01     1030.899     59.62658     115.4915         6     0.913     0.503 -44.18   0
        74    104.6773    872.9972 307.8668218  +6.3120352     1076.889      2333.34     2797.293     84.25723     168.6494     338.0738      2.148     7.83     1030.435     59.62658     165.0056        18     1.892     0.907 -21.00   0
        75    419.0868    873.2037 307.7362692  +6.3224687     683.4915     1468.276     1108.815     84.25723     168.7843     337.9728      2.224     5.22     1027.817     59.62658     126.2155         6     1.335     0.576 -15.04   0
        76    884.2440    867.6462 307.5433053  +6.3402670     1086.006     2265.734      2599.49     84.79562     169.1883     338.2084      2.582     6.07     1017.412     59.62658     228.7795        13     1.669     0.621 -24.30   2
        77     84.7326    867.7545 307.8752779  +6.3135325     1175.204     2000.962     2069.905     84.79562      169.121     338.3093      1.951     6.23     1030.451     59.62658     149.8206        15     1.316     0.925  -5.96   3
