#   1 NUMBER                 Running object number                                     
#   2 X_IMAGE                Object position along x                                    [pixel]
#   3 Y_IMAGE                Object position along y                                    [pixel]
#   4 ALPHA_J2000            Right ascension of barycenter (J2000)                      [deg]
#   5 DELTA_J2000            Declination of barycenter (J2000)                          [deg]
#   6 FLUX_APER              Flux vector within fixed circular aperture(s)              [count]
#   9 FLUXERR_APER           RMS error vector for aperture flux(es)                     [count]
#  12 FLUX_RADIUS            Fraction-of-light radii                                    [pixel]
#  13 FWHM_IMAGE             FWHM assuming a gaussian core                              [pixel]
#  14 BACKGROUND             Background at centroid position                            [count]
#  15 THRESHOLD              Detection threshold above background                       [count]
#  16 FLUX_MAX               Peak flux above background                                 [count]
#  17 ISOAREA_IMAGE          Isophotal area above Analysis threshold                    [pixel**2]
#  18 A_IMAGE                Profile RMS along major axis                               [pixel]
#  19 B_IMAGE                Profile RMS along minor axis                               [pixel]
#  20 THETA_IMAGE            Position angle (CCW/x)                                     [deg]
#  21 FLAGS                  Extraction flags                                          
         1   1000.3880     19.5865 307.5285051  +6.6977466     2097.861     2945.184     2697.753     78.30357     156.1715       312.81      1.497     3.58     823.5277     55.14882     299.4865        18     1.296     0.837  81.44   0
         2    719.7061     15.9867 307.6452646  +6.6898630     8190.817     11297.04     12096.85     78.17917     156.2338     312.7167      1.435     2.96     827.1202     55.14882     1238.324        30     1.338     0.936  80.79   0
         3    639.8799     15.2192 307.6784619  +6.6875101     4131.604     5743.511     5690.475     78.05458     156.1715     312.7789      1.455     3.10     827.7171     55.14882     635.0295        26     1.246     1.000  84.08   0
         4    395.4578     13.3312 307.7800926  +6.6801011     768.3006     1079.544     827.6325     78.55175     156.4206       312.81      1.484     3.69     831.4807     55.14882      118.246         6     0.986     0.397  70.54   0
         5    440.0923     11.4671 307.7616081  +6.6823675     7129.997     9811.499     10328.24     78.30356     156.6693     312.9034      1.494     3.11     829.2544     55.14882     1010.918        30     1.326     0.983  78.69   0
         6     41.0676     11.1114 307.9274245  +6.6691080     9239.271     13096.87     13711.54     78.55175     156.6693     312.8723      1.483     3.16     831.6578     55.14882     1383.083        36     1.375     1.040  81.16   0
         7    687.0703     10.4031 307.6590136  +6.6910769       1011.9     1387.337     1270.533     77.92979     156.1092     312.7167      1.625     3.66     826.9218     55.14882     165.2723        10     1.027     0.637  67.13   0
         8    515.9095      8.8514 307.7301910  +6.6859883     926.3612     1284.565     820.6382     78.42776     156.2961     312.9966      1.498     3.29     828.5814     55.14882     137.8628         9     0.942     0.655  76.39   0
         9    431.7052      7.6335 307.7652222  +6.6836688     983.6342     1444.874     2013.835     78.55175     156.3583     309.7145      1.601     4.29     829.2435     55.14882     146.0806        10     1.148     0.612  80.07  16
        10    336.6749      6.4050 307.8047519  +6.6809879     14538.12     20154.84     20963.53     78.05459     155.9844     300.6253      1.499     3.04     835.5658     55.14882     1991.335        38     1.353     1.026  83.97  16
        11    110.1874      6.7465 307.8988515  +6.6732361     2843.587     3987.362      4541.28     77.80481     156.4206     303.1079      1.445     3.14     831.5832     55.14882      420.184        18     1.222     0.809  79.31  16
        12    101.4321      5.5536 307.9025297  +6.6734340     1686.574     2333.195     2799.994     78.17918     156.4828       292.32      1.640     3.75     831.5103     55.14882     219.2116        16     1.170     0.896  78.47  16
        13    471.2991      5.0684 307.7488556  +6.6860551     582.0409     679.3582     327.0593     78.42776     156.6071     287.2486      1.239     4.72     829.0975     55.14882     118.6356         7     1.112     0.568 -68.08  16
        14    805.1513      4.8311 307.6101313  +6.6973236     943.3637     1253.484     1445.292     78.05458     156.4828     284.4225      1.410     3.80      825.752     55.14882     171.9333        11     1.070     0.907 -58.93  16
        15    402.9428      4.3281 307.7772851  +6.6840687     2566.271     3827.743     4014.236     78.55175     155.9844     278.5097      1.595     3.46     830.6208     55.14882        376.1        16     1.145     0.842 -86.08  16
        16    998.0321      1.5484 307.5300872  +6.7051147     646.8918     914.4698     852.0817     70.45248      127.488     238.8549      1.399     2.72     822.3903     55.14882     138.8295         7     0.735     0.681   3.43  24
        17    663.8176      1.3977 307.6689784  +6.6940168     5072.266     5787.411     6261.286      68.7748     124.9434     236.2327      0.973     1.85     826.7859     55.14882     1569.128        13     0.931     0.600   3.33  24
        18     81.8517      1.4266 307.9108050  +6.6744787     528.0309     652.0949     875.5861     69.19804     126.0292     236.9731      1.303     2.72     831.2544     55.14882     127.6428         5     0.790     0.655 -40.47  24
        19    609.1624    996.9479 307.6583012  +6.2811958     1232.505     1897.241     1693.881     78.30356     156.4828     312.8723      1.582     5.37     860.4641     55.14882     161.3918        15     1.423     0.838  70.78   0
        20    967.9751   1021.7726 307.5084844  +6.2829267     5894.024     10100.03     10791.52     77.92979      148.177     264.0517      1.819     4.00     854.6567     55.14882     669.8376        36     1.436     1.294  66.58  24
        21    722.3925   1022.3275 307.6104363  +6.2745031      1054.28     1727.378     2215.163     78.05459     142.2113     256.0046      1.819     3.52     858.8348     55.14882      149.949        12     1.101     0.746  61.07  26
        22    727.8874   1020.0420 307.6082313  +6.2756302     2614.996     4325.652     4856.533     78.42776     156.4828     285.8901      1.784     3.77     858.7854     55.14882     318.5691        27     1.371     1.140  67.70  18
        23    252.4486   1021.9062 307.8055722  +6.2589411     1223.975     1666.451     1411.979     78.30356     146.7912     262.3879      1.461     3.61     859.9559     55.14882     175.3489        11     1.199     0.610  86.67  24
        24    540.2634    995.6118 307.6869540  +6.2794422     4220.567      6586.52     7305.975     77.92979     156.2961     312.6855      1.690     3.43     860.4451     55.14882     540.4813        30     1.418     1.064  74.53   0
        25    805.5355    993.0724 307.5768925  +6.2893572     556.8652     979.8729     1233.589     78.42776     156.4828     312.9034      1.727     5.57     857.1315     55.14882     79.78333         7     1.241     0.704  85.63   0
        26    493.5178    991.9841 307.7064850  +6.2793749     2311.232     3756.049     4059.737     78.05458     156.1715     312.7478      1.706     4.17     860.3443     55.14882     270.1793        25     1.477     1.033  77.23   0
        27     74.9755    993.9122 307.8801991  +6.2645361     939.6252      1256.31     1064.016     78.42776     156.2961     312.7478      1.428     3.52     854.6589     55.14882     155.4579         9     0.924     0.740 -72.45   0
        28     36.3599    990.7622 307.8963379  +6.2645379     560.9412      912.866     674.9466     78.17918     156.4828     312.7478      1.622     3.52     853.5474     55.14882     92.79028         5     0.793     0.452 -75.61   0
        29    927.9800    984.1458 307.5263482  +6.2971273     40556.55      68271.8      73156.2     77.92979     156.4828     312.6855      1.804     3.59     856.0081     55.14882     4936.777        78     1.693     1.382  76.60   0
        30    649.8399    995.0840 307.6414736  +6.2833254     1340.085     1881.436     2046.283     78.42776     156.4206       312.81      1.491     4.46     859.4287     55.14882     180.4493        13     1.200     0.732 -83.80   0
        31      1.5160    983.9169 307.9110353  +6.2661917     2311.135     3220.083     3442.973     70.31421      127.488     238.4879      1.392     3.80     852.6026     55.14882     424.6655        14     1.346     0.654  88.81  24
        32    333.6298    984.8910 307.7731102  +6.2769453     438.1498     746.4323     747.9036     78.55175     156.2338       312.81      1.409     3.44     859.6725     55.14882     83.00616         5     0.805     0.424  70.25   0
        33    235.3010    982.7044 307.8140102  +6.2745489      1734.09     2679.311     2568.711     78.42776     156.9796     312.7167      1.646     3.25     857.8968     55.14882     238.4179        17     1.170     0.881  89.27   0
        34    825.9127    977.8831 307.5689393  +6.2963080     2287.635     3647.616     4420.147     78.17917     156.6693     312.9034      1.783     5.75     856.7842     55.14882     281.3057        26     1.685     0.980  61.42   0
        35    634.3026    980.7117 307.6484065  +6.2887393     992.2683     1465.845     578.9233     78.42776     156.9175     312.9034      1.278     5.55     859.6402     55.14882     163.0139        10     1.433     0.606  50.96   0
        36    774.1093    975.9064 307.5905158  +6.2953947     6609.177     10769.26      11885.4     78.42776     156.9796     312.8723      1.774     3.54     857.6011     55.14882     857.0428        42     1.627     1.205 -89.94   0
        37    560.6212    975.3834 307.6791793  +6.2884743     1065.825      1403.88     1392.349     78.17918     156.2338     312.7789      1.513     2.98     860.0977     55.14882     164.7782        10     0.946     0.722 -67.44   0
        38    243.6631    974.9102 307.8108004  +6.2780472     1481.031     2297.136     2504.603     78.42776     156.6071     312.9344      1.578     4.09     857.8294     55.14882     219.2422        17     1.221     0.945  86.18   0
        39    207.6824    974.9054 307.8257399  +6.2768412     836.4393     1230.089     1415.375     78.17917     156.7934     312.9966      1.566     4.86     856.9056     55.14882      125.714         9     1.141     0.587 -76.16   0
        40     68.3738    972.9016 307.8836479  +6.2729876     2646.551     4111.297     4349.566     78.55175     156.2338     312.8412      1.628     3.70     854.0377     55.14882     307.0274        21     1.370     0.913  80.82   0
        41    962.3225    970.9492 307.5125287  +6.3037202     6313.764     10620.69     11093.87     78.42776      156.545     312.8723      1.805     3.80     854.4233     55.14882     703.1275        38     1.520     1.242  71.12   0
        42    218.7720    966.8729 307.8214057  +6.2805295     693.8377     831.5514      694.231     78.30356     156.4206       312.81      1.286     4.32     856.9603     55.14882     111.8937         6     1.062     0.502  66.66   0
        43    644.5797    965.6802 307.6446428  +6.2952884     685.3011     657.5781      651.356     78.17918     156.1715     312.8412      1.324     3.29     859.2278     55.14882     114.1156         6     0.874     0.466  -1.78   0
        44    936.1718    962.3708 307.5236740  +6.3063900     2023.469     3260.763     3109.214     77.92979     156.2338     312.6233      1.719     4.34     855.2416     55.14882     239.9677        21     1.304     1.092  58.61   0
        45    656.7305    958.5447 307.6398364  +6.2986404     4796.573     7070.757     7422.361     78.42776     156.3583       312.81      1.610     3.22     858.9228     55.14882     660.4104        31     1.437     1.062  70.64   0
        46    795.6863    959.1356 307.5821174  +6.3030387     1306.711     1933.007     2424.932     78.55175     156.6693     312.8723      1.582     3.63     857.2001     55.14882     194.7446        14     1.185     0.800  74.20   0
        47    268.9956    958.6482 307.8008291  +6.2856107     4609.758     6858.361     6710.325     77.80481     156.2961      312.561      1.563     3.36     857.6962     55.14882     643.0286        27     1.310     1.045  81.36   0
        48    479.1468    956.7992 307.7136327  +6.2934190      1182.85     1787.131     1732.771     77.80481     156.1092     312.4365      1.464     3.80     859.5999     55.14882     179.2779        11     1.159     0.687  89.11   0
        49     37.5901    956.1510 307.8969936  +6.2788673     2232.278     2959.696     3166.229     77.92979     156.2961      312.561      1.480     3.26     853.1351     55.14882     263.1777        17     1.111     0.946  73.60   0
        50    888.7861    954.7708 307.5436045  +6.3079473     989.7302     1487.255     1289.164     78.05458     156.2961     312.7789      1.576     5.23     855.5818     55.14882     134.8253        11     1.261     0.613  74.94   0
        51    960.6208    951.9297 307.5138704  +6.3115155     721.5125     1196.955     1224.467     78.05458     156.3583     312.8412      1.684     6.11     854.2401     55.14882     117.6334         9     1.131     0.929  89.14   0
        52    304.8718    951.8996 307.7861597  +6.2896004      949.241     1487.423     1597.589     78.17917     156.6693     312.8723      1.871     5.06     858.1189     55.14882     155.7992        11     1.292     0.621  86.71   0
        53    581.2715    950.8586 307.6714270  +6.2992899     1692.107     2542.704     2620.137     78.55175     156.4828     312.8723      1.546     3.53     859.6979     55.14882     243.8579        15     1.166     0.785  83.22   0
        54   1012.7527    950.5294 307.4922696  +6.3138307     959.7185     1729.138     2134.651     78.42776     156.4206     312.8723      2.029     5.81     852.5969     55.14882     125.6609        12     1.105     0.859 -58.55   0
        55    620.9755    947.7140 307.6550460  +6.3019161     1360.513     1962.676     2317.938     78.42776     156.2961     312.7167      1.610     3.76      859.441     55.14882     201.7596        14     1.107     0.882  87.14   0
        56     70.3965    948.0737 307.8836446  +6.2833049     644.7757     935.6433     1093.514     77.92979     156.0468     312.7167      1.595     4.46     853.5606     55.14882     103.7694         7     1.093     0.519 -62.77   0
        57    300.5389    945.0470 307.7881892  +6.2922839     1383.602     2151.783     1961.938     78.30356     156.4206     312.9344      1.626     4.21     857.7016     55.14882     202.0106        14     1.109     0.923  89.51   0
        58    568.1978    942.9087 307.6771221  +6.3021344     632.8205      843.884     596.7936     77.80481     156.1715     312.6544      1.326     4.33     859.5646     55.14882     96.12738         5     0.765     0.698  59.34   0
        59    767.5688    941.2626 307.5943908  +6.3094785     813.9949     1203.135     950.9175     78.17918      156.545     312.8412      1.593     4.05     857.4526     55.14882     120.1283         6     0.850     0.551  48.30   0
        60    905.0168    937.7938 307.5374321  +6.3154974     6745.111     10911.75        11170     78.05458     156.2338     312.7167      1.703     3.56     855.1039     55.14882     847.2188        36     1.487     1.164  75.04   0
        61    440.7697    934.9525 307.7303012  +6.3011525     2312.004     3381.086     3752.157     78.05458      156.545     312.7789      1.504     3.50     859.1203     55.14882     350.0206        18     1.214     0.850  87.77   0
        62    342.5020    933.3819 307.7711573  +6.2985071     10178.78     14516.53     15315.45     78.42776     156.3583     312.6233      1.556     3.03     858.7079     55.14882     1339.062        35     1.431     1.018  85.38   0
        63    610.0440    935.4341 307.6599967  +6.3066200     560.8701     679.6572     821.3614     78.17917     156.4828     312.7478      1.295     4.12     859.4161     55.14882      86.5387         5     0.782     0.620  83.66   0
        64    262.6201    932.3117 307.8043620  +6.2962690      7637.87     10995.91     11330.82     78.30357     156.2338     312.7478      1.573     3.08     856.3779     55.14882     1037.729        32     1.370     1.039  85.46   0
        65    590.7972    926.8838 307.6682753  +6.3095061      1196.29     1505.531     557.4581     77.80481     156.1092      312.561      1.428     3.82     859.2642     55.14882     182.4443        12     1.135     0.692  81.25   0
        66    920.7180    922.5324 307.5314221  +6.3223215      1057.24     1870.136     2270.848     78.55175     156.7314     312.9344      1.981     4.68     854.6947     55.14882     155.7177        13     1.207     0.928 -86.95   0
        67    152.7905    922.7591 307.8502866  +6.2965245     606.2131     787.1918     1024.758     77.80481     156.2961     312.5922      1.484     4.66     854.9385     55.14882     90.25055         8     1.222     0.504  43.17   0
        68    876.5317    921.3509 307.5498101  +6.3213356      821.334     1217.714     1014.561     78.30357     156.4206     312.8723      1.693     5.06      855.073     55.14882     105.0746         9     1.120     0.646 -58.25   0
        69    988.2778    918.9058 307.5034886  +6.3260707     738.8998     1378.587     1323.993     78.17917     156.6693     312.9344      1.882     5.20     853.0656     55.14882     107.3447         6     1.007     0.926  88.27   0
        70    757.0168    916.1038 307.5996144  +6.3195125     1745.687     2320.004     2807.614     78.30356     156.2961     312.7167      1.414     3.24     857.2807     55.14882     245.2765        16     1.145     0.845  71.98   0
        71    580.7076    916.7236 307.6728055  +6.3133629     811.7797     1069.472     597.4908     78.17918     156.6693     312.8723      1.412     3.06     858.9326     55.14882      143.605         8     0.879     0.647  65.88   0
        72      7.6271    913.2856 307.9108793  +6.2955548     1009.485      1377.84     1075.236     78.55175     156.2338     309.4945      1.532     5.79     852.2595     55.14882     155.6726        12     1.372     0.688  83.91  16
        73    988.7240    911.5795 307.5035479  +6.3291102      1296.03     2059.675     2302.031     78.05459     156.2338       312.81      1.782     4.43      852.846     55.14882     177.1333        17     1.327     0.971  71.50   0
        74    621.1559    912.5030 307.6561510  +6.3164584     897.4546     1039.527     1095.409     78.42776     156.4206     313.0277      1.303     3.61     858.6545     55.14882     128.8794         8     0.888     0.650  51.36   0
        75    542.0748    911.7747 307.6890134  +6.3141133     1118.612      1610.89     1666.673     78.05458     156.2961     312.8412      1.548     5.00     858.7779     55.14882     187.0037        12     1.297     0.672  72.96   0
        76    675.5971    909.1998 307.6336551  +6.3196423     2659.724     3972.729     4270.678     77.80481     156.0468     312.6233      1.562     3.50     857.9901     55.14882     387.2242        23     1.338     0.968  89.38   0
        77    965.9241    907.5205 307.5131514  +6.3300261     676.3705     1168.979     1116.006     78.67555     156.7314     312.9966      1.678     4.64     853.3682     55.14882     98.58813         7     1.226     0.499   1.05   0
