#   1 NUMBER                 Running object number                                     
#   2 X_IMAGE                Object position along x                                    [pixel]
#   3 Y_IMAGE                Object position along y                                    [pixel]
#   4 ALPHA_J2000            Right ascension of barycenter (J2000)                      [deg]
#   5 DELTA_J2000            Declination of barycenter (J2000)                          [deg]
#   6 FLUX_APER              Flux vector within fixed circular aperture(s)              [count]
#   9 FLUXERR_APER           RMS error vector for aperture flux(es)                     [count]
#  12 FLUX_RADIUS            Fraction-of-light radii                                    [pixel]
#  13 FWHM_IMAGE             FWHM assuming a gaussian core                              [pixel]
#  14 BACKGROUND             Background at centroid position                            [count]
#  15 THRESHOLD              Detection threshold above background                       [count]
#  16 FLUX_MAX               Peak flux above background                                 [count]
#  17 ISOAREA_IMAGE          Isophotal area above Analysis threshold                    [pixel**2]
#  18 A_IMAGE                Profile RMS along major axis                               [pixel]
#  19 B_IMAGE                Profile RMS along minor axis                               [pixel]
#  20 THETA_IMAGE            Position angle (CCW/x)                                     [deg]
#  21 FLAGS                  Extraction flags                                          
         1      2.5147     80.7168 307.9325264  +6.6319268     3588.623     8912.026     15982.22      77.3945     139.2854     251.4326      5.152    12.62      836.144      54.5953     564.5953       116     5.243     1.633  89.43  24
         2    614.1842     23.0871 307.6803192  +6.6761605     3287.888     5702.458     6761.192     77.27116     154.6657     309.6088      1.958     7.15     820.4729      54.5953      595.778        27     2.093     0.762  66.04   0
         3    433.0935     24.1739 307.7555266  +6.6696733     26220.52     35600.12     36628.07     77.76334     154.6657      309.578      1.423     3.35     823.5974      54.5953     4195.871        45     1.379     0.982  48.36   0
         4    931.5767     14.1849 307.5487340  +6.6903917     1069.948     1409.629     1422.992      77.3945     154.7274     309.6396      1.533     5.71     818.8237      54.5953     145.0995        14     1.475     0.742  63.48   0
         5    683.0406     13.6839 307.6520223  +6.6823357      2171.55     2893.675     2638.007     77.64059     154.8506     309.6704      1.384     3.47     820.2046      54.5953     342.1912        14     1.259     0.679  47.50   0
         6     87.8961     14.6904 307.8992698  +6.6620465     673.1407     902.9056     639.7161     77.64059      155.404      309.732      1.211     4.44     829.2666      54.5953     111.0399         6     0.963     0.583  62.32   0
         7    193.9983      9.6630 307.8553547  +6.6676741     751.1932     1111.777     857.2113      77.0239     154.7274     309.4856      1.468     5.08      829.051      54.5953     100.5913         9     1.285     0.567  60.44   0
         8    248.5877      8.7008 307.8327057  +6.6698973     932.7096     1398.156     1694.314      77.3945     154.6657     309.5164      1.641     5.02      828.541      54.5953     142.2919        10     1.138     0.626  48.64   0
         9    171.1485      6.6036 307.8649511  +6.6681725     11894.14     16584.64     17150.32      77.0239     154.6657     298.8872      1.485     3.45     828.9149      54.5953     1863.421        34     1.351     0.977  49.74  16
        10    916.6964      4.1904 307.5552497  +6.6940240     4543.334     6553.478     6798.378      77.3945     153.6758     273.8748      1.529     3.23     818.6551      54.5953     664.1545        25     1.327     0.936  49.89  24
        11    515.3874      4.7061 307.7219839  +6.6804563       3463.7     4688.044     4711.527      77.3945     154.6657     280.0734      1.399     3.31     819.8198      54.5953     593.6104        17     1.221     0.740  50.41  16
        12    717.6157      2.7040 307.6380220  +6.6880196     2387.865     3106.873     3336.942      77.3945     141.0547      253.999      1.413     3.62     819.5123      54.5953     361.4467        15     1.174     0.731  54.28  24
        13    453.5432      3.1914 307.7477313  +6.6790185     2065.441     2754.496     2885.278      77.0239     146.3643      260.817      1.389     3.19     821.9161      54.5953     320.5466        16     1.150     0.816  53.85  24
        14    981.7978      1.6203 307.5282837  +6.6972462     1183.009     1478.243     1316.161     70.83096     127.1121     237.4237      1.105     2.15     816.2062      54.5953     315.2618         9     0.883     0.693  55.72  24
        15    356.2508    998.7024 307.7548669  +6.2647632     1868.382     3069.019     3332.716     77.51765     154.8506     309.9167      1.752     4.59     852.8233      54.5953     245.9961        21     1.463     0.993  43.58   0
        16    786.1880   1020.9459 307.5756257  +6.2698983     5983.496     10478.39     11083.71      77.0239     153.1162     272.0928      1.843     4.21     849.1332      54.5953     717.3487        37     1.561     1.202  57.30  24
        17    566.1840   1012.4053 307.6672511  +6.2661050     4194.518     6811.403       8243.5     77.27116      154.604      309.578      1.825     3.79     852.7615      54.5953     520.5762        33     1.653     1.057  40.60   3
        18    575.0455   1023.2135 307.6632117  +6.2619378     122056.7     156363.7     159406.4     72.29705      129.491     240.1399      1.309     3.48     853.0513      54.5953     18566.53        45     1.405     0.884  12.43  27
        19    576.9816   1016.8211 307.6626210  +6.2646415     70876.33     114613.8     122910.9      77.3945     154.8506     308.8994      1.732     3.69     852.9402      54.5953     8797.828        95     1.746     1.307  47.17  19
        20    694.6689    994.9148 307.6144894  +6.2776029     554.2213     798.0422     772.7731     77.76334     155.1583     309.7628      1.376     3.85     851.3206      54.5953     133.8332         5     1.145     0.370  74.46   0
        21    538.3094    988.7223 307.6796138  +6.2749544      4105.19     6490.092     7072.742      77.3945     155.1583     309.7628      1.732     3.89     852.2972      54.5953      520.975        29     1.476     1.044  53.76   3
        22    535.4932    980.8334 307.6810462  +6.2781177      8466.39     12868.18     14416.97     77.76334      154.789     309.7936      1.705     3.66      852.188      54.5953      1043.16        41     1.520     1.191  46.06   2
        23    508.5298    989.7300 307.6919441  +6.2735461     1198.452     1828.828     1758.366     77.64059     155.0353     309.7012      1.575     3.75     851.9958      54.5953      156.468        15     1.156     0.855  55.82   0
        24    742.8448    987.9420 307.5947195  +6.2820839     7569.612     12098.34     12575.97     77.51765     154.9122     309.7936      1.677     3.77      850.059      54.5953     955.9027        36     1.520     1.083  48.17   0
        25    288.6338    987.3151 307.7833199  +6.2672071     15000.08     23170.29     25990.49     77.64059      154.789     309.7012      1.727     3.70     852.4628      54.5953     1960.169        55     1.679     1.406 -31.72   0
        26    804.1302    987.4044 307.5692921  +6.2843429     946.1869     1543.911     2069.542     77.14763     154.5423     309.5472      1.815     5.50     848.7224      54.5953     131.3327        14     1.256     0.957  86.90   0
        27    412.7629    988.1520 307.7317570  +6.2710047     1053.064     1723.356     1690.902      77.3945     154.9122     309.6396      1.738     4.75     851.7278      54.5953      170.155        14     1.174     0.864  68.73   0
        28    259.7620    984.8196 307.7953900  +6.2672730     1147.819     1494.894     925.3348     77.27116     154.7274     309.4239      1.491     4.06     851.7334      54.5953     158.3519        12     1.129     0.778  22.71   0
        29    904.1902    981.4435 307.5279457  +6.2901272      7787.47     13696.46     14513.35     77.14763     154.7274     309.4856      1.887     4.28     847.7015      54.5953     912.9493        44     1.697     1.219  53.38   0
        30    999.5307    976.9892 307.4885082  +6.2951297      3983.38     7835.279     8463.088     77.14763     154.7274     309.5472      2.046     4.95     843.9963      54.5953     445.1197        39     1.718     1.287  44.62   0
        31    877.8090    977.5510 307.5390286  +6.2908584     11066.02     19767.31      21882.1     77.14763     154.7274     309.4239      1.913     4.11     848.2706      54.5953     1261.405        55     1.654     1.394  45.54   0
        32    590.6110    978.1131 307.6582527  +6.2810766     1518.033     2349.599     2286.844     77.27116     154.6657      309.578      1.710     4.66     852.0189      54.5953     193.7842        17     1.404     0.790  59.99   0
        33    521.9419    976.7430 307.6868089  +6.2793549     4322.355     6647.991     7802.747     77.76334     154.9122     309.7628      1.755     3.73      852.035      54.5953      569.542        32     1.582     1.123  33.71   0
        34    631.5785    976.0583 307.6413120  +6.2832889     1413.647     2250.075     1903.791     77.27116      154.789     309.5472      1.667     4.29     851.6645      54.5953     178.1125        17     1.208     0.971  43.69   0
        35     56.3619    975.4573 307.8801475  +6.2643367     825.6099      1082.97     1069.304     77.64059     154.9738      309.732      1.767     5.45     848.2128      54.5953     92.21161        11     0.987     0.849  78.51   0
        36    475.0811    973.2123 307.7063826  +6.2792508      2371.13     3588.095     3837.464     77.27116      154.604      309.578      1.638     3.54     851.6626      54.5953     320.4321        22     1.296     0.983  47.99   0
        37    909.5171    965.1127 307.5262767  +6.2970466     39252.57     68006.12     72937.91      77.3945     155.0968     309.7936      1.869     4.13     847.2392      54.5953     4766.876        77     1.754     1.343  50.10   0
        38    314.6068    966.7011 307.7732258  +6.2765852     553.1411     701.0906     954.8828      77.3945     154.5423     309.5164      1.449     3.47     851.7722      54.5953     88.49091         5     0.753     0.463  74.68   0
        39    216.7718    963.5420 307.8139500  +6.2746212     1785.794     2815.272     3098.422     77.27116     154.9738     309.6396      1.738     3.97      849.944      54.5953     238.9079        19     1.355     0.890  36.19   0
        40    616.0256    961.7070 307.6482477  +6.2886964     941.8232     1322.747     1305.184     77.76334     154.6657      309.578      1.717     3.92     851.3524      54.5953     129.1207        12     1.057     0.863  83.87   0
        41    104.6086    962.9397 307.8605368  +6.2711192     617.9149     761.3619     842.3813      77.0239      154.789     309.4856      1.510     2.93     847.8303      54.5953     99.04449         5     0.856     0.484  84.75   0
        42    807.4667    958.9636 307.5688529  +6.2961962     2277.565     3861.176     4549.878     77.51764     154.8506     309.7936      1.959     4.30     848.7154      54.5953     277.7872        25     1.544     0.955  56.58   0
        43    755.5932    956.6595 307.5904676  +6.2954234     6590.016     10586.22        11555      77.0239      154.789     309.4856      1.778     3.78     849.5917      54.5953     871.2493        40     1.541     1.180  55.29   2
        44    225.2049    956.2435 307.8106930  +6.2779163     1513.961     2111.607     1830.486      77.0239      154.604     309.4239      1.462     4.24     849.8491      54.5953     245.5444        16     1.320     0.916  25.63   0
        45    542.4012    956.2269 307.6789987  +6.2885070      1082.88     1323.032     1181.949     77.27116      154.604     309.5164      1.499     4.98     851.9851      54.5953     145.6392        14     1.254     0.775  61.71   0
        46    189.3714    955.7696 307.8255860  +6.2769142     939.5085     1227.258     1338.517     77.14763     154.6657     309.4856      1.533     4.55     849.0442      54.5953     121.0336        11     1.088     0.690  39.13   0
        47     49.9548    954.1497 307.8835216  +6.2729191     2779.989     4385.353     4480.123     77.76334      154.789     309.7628      1.711     3.68     847.4276      54.5953     337.4382        22     1.330     0.990  44.27   0
        48    943.8215    951.8244 307.5124747  +6.3036715     6091.429     10640.14     11271.31     77.27116     154.7274      309.732      1.849     4.04     845.8458      54.5953     712.6394        39     1.606     1.199  47.45   0
        49    200.1056    948.3467 307.8213779  +6.2803377     513.4001     914.8594     459.9563     77.51765      154.789     309.9783      1.682     3.43      849.072      54.5953     82.28381         5     0.791     0.429  18.08   0
        50    625.8774    945.5727 307.6446949  +6.2956857     656.6894     1169.184      853.467     77.51765     154.8506     309.7012      1.670     3.91     850.7612      54.5953     103.4103         6     1.362     0.322  43.04   0
        51    917.5072    943.4115 307.5236802  +6.3062717      2029.84     3269.077     3503.897      77.3945      154.604     309.5472      1.788     4.19     846.4711      54.5953     281.6649        20     1.373     0.923  54.37   0
        52    777.1393    940.1932 307.5820695  +6.3029381     1378.714     2208.792     2227.998      77.0239     154.7274     309.4856      1.687     4.17     849.1398      54.5953      174.052        17     1.208     1.000  69.89   0
        53    638.4202    939.5739 307.6396870  +6.2985799     4519.915     6791.129     7132.627     77.27116     154.7274     309.6396      1.674     3.94     850.4818      54.5953     558.0789        30     1.493     1.002  50.02   0
        54    250.5283    939.7712 307.8007304  +6.2855632     4529.983     6724.927     6798.252     77.51765     154.9122     309.7012      1.586     3.44     849.8954      54.5953     605.4745        28     1.373     1.027  49.70   0
        55    988.0767    939.1564 307.4945201  +6.3103701     625.0549     1149.664     2044.521     77.51765     154.9122     309.7628      2.190     4.78     844.5405      54.5953     93.19727         7     0.933     0.745 -85.76   0
        56     19.0866    937.3033 307.8969018  +6.2788407      2098.23     3474.502     3288.966     77.64059     155.2812     309.7628      1.674     4.33     846.7924      54.5953     257.9025        21     1.448     0.920  47.81   0
        57    460.3738    938.0348 307.7136630  +6.2932841     1200.851     1639.895     1699.542      77.0239     154.6657     309.4856      1.432     3.22     851.5581      54.5953     186.5392        11     0.981     0.741  18.57   0
        58    870.3560    935.5771 307.5435184  +6.3079409     698.4169     1317.218      949.309     77.14763      154.789     309.5472      1.885     4.77     848.3666      54.5953     143.9469         9     1.387     0.637  52.36   0
        59    669.6566    936.2364 307.6268288  +6.3009974     386.8177     696.1074     936.7154     77.51765     154.9122     309.7628      2.219     3.77     850.1255      54.5953     82.57947         5     0.985     0.415   5.87   0
        60    286.3037    933.7328 307.7860790  +6.2892513     967.9503     1462.452     1815.925     77.64059     154.9738     309.7628      1.630     4.63     850.5573      54.5953     153.3406        12     1.197     0.810  56.13   0
        61    994.6241    931.4618 307.4920570  +6.3137641     777.3613     1579.723     1547.071     77.27116     154.8506     309.6396      2.067     6.71     844.4125      54.5953     127.3947        15     1.444     1.089 -86.94   0
        62    941.2771    932.9539 307.5141581  +6.3113783     740.3998     1331.417     1210.514     77.51765     154.9738      309.732      2.060     6.44      845.499      54.5953     92.82855         9     1.291     0.902  54.51   0
        63    563.0490    932.0599 307.6712318  +6.2991726     1716.848     2387.083     1933.593     77.64059     154.9122     309.7936      1.451     3.27     851.3682      54.5953     258.2386        16     1.187     0.806  50.85   0
        64     51.9692    929.5311 307.8835105  +6.2831504      762.764     1248.413     1949.834     77.51764     154.9122     309.7012      2.042     5.62     846.5239      54.5953      114.147        10     1.375     0.647  55.69   0
        65    602.0427    928.3765 307.6551643  +6.3019920     1387.964     2044.928     2042.401     77.27116      154.789      309.578      1.461     3.56     850.4752      54.5953     195.8057        13     1.157     0.724  49.66   0
        66    282.0283    926.3812 307.7881000  +6.2921437     1511.578     2064.618     2472.402     77.27116     154.7274     309.6704      1.418     5.10     850.1868      54.5953      195.801        11     1.102     0.669  50.03   0
        67    749.0078    922.1493 307.5943505  +6.3094528     807.2063     1275.751      1164.01     77.14763     154.7274     309.4239      1.603     4.79     849.4664      54.5953     122.1578         8     1.057     0.614  57.99   0
        68    886.6049    918.6730 307.5373336  +6.3154598     6573.129     10846.99     11260.65     77.27116     154.4806     309.6396      1.779     4.02     847.3298      54.5953     787.5112        35     1.568     1.090  50.32   0
        69    124.5883    920.9766 307.8536474  +6.2891123     550.9324     951.7746     1107.401     77.27116     154.7274     309.6704      1.732     4.03      847.022      54.5953     91.84515         5     1.076     0.431  24.57   0
        70    422.4047    916.2076 307.7301565  +6.3010295     2250.249     3422.607     3746.272      77.0239     154.6657      309.578      1.639     3.99     851.0598      54.5953     286.1446        19     1.334     0.906  48.07   0
        71    578.8939    917.5211 307.6651378  +6.3057029     2958.671     3016.751     2844.106      77.3945     155.0968     309.7936      0.687     0.79     850.7742      54.5953     1243.959         6     0.500     0.415  87.98   0
        72    324.0659    914.4659 307.7710446  +6.2984669     9953.974     14570.65     15335.98     77.64059     154.9122     309.7628      1.598     3.43     850.0854      54.5953     1438.875        35     1.441     0.999  46.51   0
        73    244.1814    913.4495 307.8042461  +6.2962183     7585.245     11317.01     11952.76     77.14763     154.9738     309.5472      1.619     3.47     848.9846      54.5953     1069.268        33     1.447     1.006  48.76   0
        74    572.1747    907.8173 307.6682512  +6.3094856     1210.547     1978.422     2197.216      77.3945     154.7274     309.6704      1.609     4.22     850.6968      54.5953     181.7313        13     1.227     0.721  60.07   0
        75    756.2878    907.5852 307.5918125  +6.3157079     720.0467     1103.705      1421.18      77.3945     154.7274      309.578      1.849     5.82     849.1874      54.5953     103.8354        10     1.275     0.749  51.31   0
        76    902.0558    904.0217 307.5314050  +6.3220219     946.2793     1499.794     1698.733     77.27116     154.9122     309.5472      1.779     6.65     846.4167      54.5953     122.0975        15     1.263     1.072   6.60   0
        77    134.3989    903.4117 307.8501625  +6.2966922     657.7574     938.0553     799.4678     77.27116      154.604     309.5472      1.668     4.15     846.8207      54.5953     123.1226         7     0.951     0.543  60.88   0
