#   1 NUMBER                 Running object number                                     
#   2 X_IMAGE                Object position along x                                    [pixel]
#   3 Y_IMAGE                Object position along y                                    [pixel]
#   4 ALPHA_J2000            Right ascension of barycenter (J2000)                      [deg]
#   5 DELTA_J2000            Declination of barycenter (J2000)                          [deg]
#   6 FLUX_APER              Flux vector within fixed circular aperture(s)              [count]
#   9 FLUXERR_APER           RMS error vector for aperture flux(es)                     [count]
#  12 FLUX_RADIUS            Fraction-of-light radii                                    [pixel]
#  13 FWHM_IMAGE             FWHM assuming a gaussian core                              [pixel]
#  14 BACKGROUND             Background at centroid position                            [count]
#  15 THRESHOLD              Detection threshold above background                       [count]
#  16 FLUX_MAX               Peak flux above background                                 [count]
#  17 ISOAREA_IMAGE          Isophotal area above Analysis threshold                    [pixel**2]
#  18 A_IMAGE                Profile RMS along major axis                               [pixel]
#  19 B_IMAGE                Profile RMS along minor axis                               [pixel]
#  20 THETA_IMAGE            Position angle (CCW/x)                                     [deg]
#  21 FLAGS                  Extraction flags                                          
         1    711.3478     21.1969 307.6452512  +6.6898661      8377.68      11178.2     11780.96     78.73464      158.164     316.1703      1.379     2.64     853.4421      55.8079     1363.253        30     1.208     0.971  64.97   0
         2    431.7649     16.6411 307.7615683  +6.6823724     7131.374     9758.808      10203.8     79.11348     158.3529     316.4224      1.463     2.91     859.2886      55.8079     1040.983        29     1.249     1.012  55.48   0
         3     32.7652     16.1613 307.9273561  +6.6691446     9541.655        13525     13719.57     79.11348      158.227     316.4224      1.501     2.96     871.6526      55.8079      1346.79        33     1.320     1.051  66.35   0
         4    507.5613     13.7308 307.7301742  +6.6861182     1060.388     1487.063     1337.507     79.23936     158.3529     316.7057      1.533     5.06     855.8587      55.8079     139.0466        11     1.125     0.715  61.84   0
         5    423.6817     12.8844 307.7650535  +6.6836520     903.1562     1241.433     1832.688     79.11348     158.6044     316.6743      1.502     3.71      859.787      55.8079     141.6233         9     1.068     0.673  65.20   0
         6    328.3364     11.5331 307.8047130  +6.6810064     14757.69     20556.07     22109.34     79.36504     158.3529     316.6428      1.512     2.87     865.9888      55.8079     2048.527        36     1.284     1.101  65.19   0
         7    101.7841     11.5513 307.8988378  +6.6733742     2900.119     4267.583     4544.327     78.86112     158.3529     316.3594      1.595     3.36     867.4779      55.8079     392.0853        21     1.212     1.001  62.96   0
         8    796.9580     10.0422 307.6100552  +6.6973367     1008.012      1155.67     882.8357     79.11348     158.3529     316.4854      1.304     3.72     852.8932      55.8079     177.6151        10     1.022     0.756 -84.80   0
         9     92.9236     10.7051 307.9025476  +6.6734250     1715.764     2304.274     2596.864     79.11348     158.4787     316.6743      1.461     3.11     867.6098      55.8079     246.3224        16     1.016     0.993  25.15   0
        10    462.8185     10.0128 307.7488896  +6.6861516     656.6021     1043.798     748.9923     79.11348     158.0379     316.5169      1.610     5.13     857.1688      55.8079     87.81189         8     1.130     0.657  17.98   0
        11    394.6626      9.4738 307.7772254  +6.6840854     2664.174      3518.78     3061.677     79.61579     158.3529     316.6113      1.467     3.20     861.4963      55.8079      368.407        18     1.197     0.874  42.43   0
        12    655.2906      5.0210 307.6690870  +6.6946672     12411.92     16991.63     17810.02     79.23936      158.164      290.201      1.441     2.90     853.6462      55.8079     1949.996        38     1.336     1.035  53.39  24
        13    989.4281      6.3375 307.5302065  +6.7052984     757.1888     799.6377     633.0698      78.9874     158.3529     303.4636      1.077     3.37     844.9791      55.8079     139.0058         5     0.728     0.452  69.29  16
        14    533.0076      5.0276 307.7198948  +6.6905652     1547.123     2270.379     2216.535      78.9874      158.164     289.9606      1.539     3.21     855.4473      55.8079     229.6526        14     1.113     0.780  72.56  16
        15     73.2079      5.5570 307.9109129  +6.6748860     808.6824     1087.942      1002.33     78.86112      158.164     295.7123      1.470     4.26     868.6147      55.8079     110.6095         9     0.902     0.789 -10.62  16
        16    819.8251      4.5521 307.6007382  +6.7003683     1924.934     2551.556     2602.399      78.9874     158.3529      284.478      1.432     3.18     851.9301      55.8079     280.6013        13     1.048     0.763  54.82  16
        17    255.4761      2.1815 307.8353006  +6.6824171      7045.88     9064.646     9187.929     77.45847     137.8263     251.7276      1.411     3.05     868.9508      55.8079     1037.991        25     1.296     0.986   1.41  24
        18    890.2397      2.5010 307.5715492  +6.7035693     1771.841     2154.029     2390.577     79.36504     141.9584     256.8619      1.410     3.77     849.6361      55.8079     232.3064        14     1.172     0.766  48.55  24
        19    431.7903      2.4631 307.7620359  +6.6882268     735.7122     910.4994     1499.833     78.86112     141.4661     255.8511      1.524     5.12     859.1933      55.8079     98.02356         7     0.905     0.818  77.79  24
        20    777.4922      1.8922 307.6184172  +6.7000504     547.0659     621.0974     625.0298     75.50378     134.3847      247.455      1.593     4.10     852.6762      55.8079     98.75836         6     1.021     0.470  32.05  24
        21    677.0992      1.3234 307.6601499  +6.6969244     2940.287     3763.161     4418.099     68.58698     125.9628     237.9276      1.037     2.13     853.0341      55.8079     949.5745        14     1.222     0.558   7.34  24
        22    647.1219      1.4620 307.6726009  +6.6958630     6338.074     7345.236      8037.06     70.87383     127.9255     240.4692      1.031     2.26     853.7033      55.8079     1671.679        16     1.066     0.617   7.37  24
        23    416.9243      1.4448 307.7682469  +6.6881481     5520.948     6401.027      6646.74     70.30909     127.7696     240.2204      1.067     2.79     860.2571      55.8079     1291.832        14     1.073     0.607   3.57  24
        24    226.4755    987.5905 307.8140746  +6.2745975     2007.181     2750.672     2541.291      78.9874     157.8486     316.4224      1.486     3.80     889.9666      55.8079     273.3711        17     1.237     0.901  86.58   0
        25    734.6641   1023.5790 307.6018859  +6.2767801      882.385       1022.2     825.3326     70.02502      127.379      239.722      1.029     2.80     886.8113      55.8079     201.2278         8     0.986     0.493   1.75  24
        26    719.2070   1023.7424 307.6082977  +6.2761956     1316.739     1577.468     1685.586      67.7095     124.5304     236.6255      1.095     2.96     887.0428      55.8079     333.0615        10     1.181     0.436  -1.62  24
        27    365.7479   1022.4019 307.7550826  +6.2649035     2084.136     2458.699     2237.512     78.73464     143.0077     257.9074      1.355     3.27     891.2723      55.8079     264.4166        15     1.082     0.855  73.94  24
        28    114.7148    986.3637 307.8605126  +6.2713449     719.6378     1164.667     1147.291     79.36504     158.2899     316.6113      1.551     5.06     888.1926      55.8079     133.6528         9     1.270     0.571 -78.68   0
        29    625.6039    985.4421 307.6484451  +6.2888762      1002.69     1192.807     691.5442     78.73464     158.0379     316.3279      1.327     4.70     886.4825      55.8079     163.4071        11     1.193     0.809 -88.91   0
        30    765.3793    981.1033 307.5905596  +6.2953451     7271.113     10768.83     12253.44     79.23936      158.164     316.4224      1.621     3.12     884.0866      55.8079     1037.277        42     1.614     1.210 -78.97   0
        31    817.1921    983.0041 307.5689842  +6.2962925     2519.009     3685.424     4360.071     78.73464     158.0379     316.4539      1.583     3.00     882.3168      55.8079     378.9407        20     1.125     1.004  63.03   0
        32    732.8979    981.8579 307.6040198  +6.2939471      639.748     637.1541     546.1207     79.11348     158.2899     316.7687      1.217     2.16     885.5505      55.8079     133.3677         6     0.713     0.550  46.63   0
        33    552.2025    980.0812 307.6790994  +6.2886308     984.9914     1423.365     1952.013     78.73464     157.9117     316.3594      1.396     4.27     888.1022      55.8079     151.5527         9     1.077     0.603 -89.34   0
        34    235.0038    979.9916 307.8107905  +6.2780216     1590.622     2235.686     1910.915     78.73464     158.0379     316.4539      1.446     3.08     889.8765      55.8079      276.723        12     1.087     0.719  61.58   0
        35    199.2065    979.4124 307.8256712  +6.2770572     934.4582     1484.645     1060.215      78.9874      158.164     316.5169      1.558     4.46     889.1342      55.8079     152.1436        11     1.204     0.691 -89.25   0
        36     59.7933    977.9391 307.8835973  +6.2729743     3171.713     4365.383     4965.353     78.73464      158.164     316.3594      1.452     3.02     889.3487      55.8079     490.8296        19     1.095     0.932  80.25   0
        37    953.6960    976.0958 307.5125414  +6.3037043     7286.811     10911.26     11088.84     79.36503      158.981     316.4539      1.570     3.19        880.6      55.8079     981.1134        31     1.310     1.122  56.58   0
        38    210.3185    972.1459 307.8213033  +6.2804310     696.7535     882.3378     658.2314     79.36503     158.3529     316.6743      1.443     4.58     889.2791      55.8079     98.40729         6     1.164     0.512  45.22   0
        39    635.6510    970.4326 307.6447783  +6.2954098     841.6207     1086.177     881.8683     79.23936     158.4158     316.5484      1.280     3.89      886.127      55.8079     122.0037         8     0.861     0.729  81.75   0
        40    927.3778    967.8253 307.5237456  +6.3062406     2223.216      3363.99     3355.168     78.86112      158.164     316.5484      1.637     3.46      881.462      55.8079     315.3267        18     1.210     0.920  57.26   0
        41    260.2698    963.7775 307.8008482  +6.2855651     5078.792     6967.725      7062.68      78.9874     158.2899     316.5799      1.486     2.93     889.7293      55.8079     762.0305        24     1.160     1.013  87.98   0
        42    786.9286    964.2695 307.5821776  +6.3030161      1441.45     2055.155      2140.69     79.36503     158.4787     316.5484      1.566     3.52     882.7206      55.8079     208.8401        15     1.108     0.893  37.41   0
        43    648.1302    963.6642 307.6398246  +6.2986222     5061.033     6917.452     7277.671     79.36503     158.4158     316.6113      1.404     2.67     885.8738      55.8079     820.4863        25     1.232     0.927  66.78   0
        44    997.2070    962.9307 307.4949169  +6.3105921     682.1605     1194.229     972.3998     78.86112     157.9748     316.5169      1.493     6.33     878.3933      55.8079     106.5345        11     1.364     0.825  41.65   0
        45    470.3613    962.0910 307.7136827  +6.2933148     1210.995      1503.04     1612.695     79.49051     158.2899     316.6428      1.340     3.52     888.7342      55.8079     203.7864        11     1.194     0.578  61.20   0
        46     28.9213    961.1788 307.8969800  +6.2788544     2398.956     3173.387     3399.261      78.9874     158.0379     316.6113      1.403     2.82     889.5594      55.8079     367.2136        16     1.075     0.858 -77.23   0
        47    880.0206    959.9486 307.5436719  +6.3079112     1016.084     1412.223     1631.052     78.86112     158.4158     316.4224      1.417     3.37     881.7186      55.8079     159.2139         9     0.888     0.746  19.48   0
        48   1004.0225    955.8779 307.4923233  +6.3137316     992.6538     1735.071     1486.926      78.9874      158.164     316.5799      1.850     6.41     878.0093      55.8079     127.9945        14     1.525     0.756 -88.31   0
        49    951.6039    957.4594 307.5140344  +6.3113293     802.6586     709.9847     346.5678     78.73464      158.227     316.3594      1.363     4.57     880.0872      55.8079     124.5428         9     0.938     0.778  16.14   0
        50    296.5533    957.0881 307.7860104  +6.2895462     991.9906     1469.772      1470.49     79.36503      158.227     316.7057      1.761     4.36     889.7799      55.8079     142.0245        10     1.137     0.701  71.34   0
        51    572.8362    956.1985 307.6713361  +6.2991829      1942.15     2579.511     2504.634     78.48106      158.164     316.3909      1.370     2.97     886.9948      55.8079     297.6406        16     1.109     0.839  73.03   0
        52    612.1091    952.6427 307.6551503  +6.3019666     1364.798     1991.136     2185.041     79.36503     158.3529     316.7057      1.590     3.46     886.0931      55.8079     221.9843        13     1.094     0.816  29.66   0
        53     61.6937    953.0663 307.8836490  +6.2833074       816.34     1357.083      1813.03     79.23936     158.5416     316.6113      1.740     3.37     888.5955      55.8079     124.0547         7     0.816     0.619  69.21   0
        54    292.0629    950.1028 307.7881102  +6.2922794     1534.689     2263.027     2428.405     79.23936     158.4787     316.6743      1.516     3.71     889.6059      55.8079     261.5196        13     1.208     0.689  89.41   0
        55    559.6775    948.1702 307.6770693  +6.3020567     721.5661     817.2861     798.8898     79.23936     158.4158     316.6113      1.351     4.41      887.098      55.8079     134.8961         7     0.970     0.651  49.75   0
        56    758.7948    945.9466 307.5944734  +6.3096406     945.8266     1043.619      681.577     78.73464     158.1009     316.2964      1.113     2.74     883.5372      55.8079     192.3345         8     0.876     0.570 -89.02   0
        57    896.4047    942.9125 307.5374404  +6.3154925     7801.962     11120.57     10898.67     78.86112     158.0379     316.2964      1.505     3.02     881.0461      55.8079     1072.362        31     1.267     1.071  64.07   0
        58    134.2490    944.3514 307.8538221  +6.2893478     662.2477     631.6688      705.229     79.36504      158.227     316.6113      1.192     4.45     888.0963      55.8079     115.9351         7     0.881     0.638  79.36   0
        59    432.3011    940.1440 307.7302232  +6.3010996     2446.667     3400.572     3499.204     79.11348     158.3529     316.8316      1.426     2.73      888.492      55.8079     396.1185        17     1.112     0.888  73.28   0
        60    601.3802    939.6727 307.6600408  +6.3069623     580.4449     641.7438     275.0353      78.9874     158.2899     316.5799      1.137     3.39     886.1265      55.8079     111.7058         5     1.048     0.317  68.39   0
        61    333.8725    938.3817 307.7711474  +6.2985232     10936.28     14963.09     15908.09     78.86112     158.2899     316.5484      1.440     2.67     889.1471      55.8079     1746.462        35     1.226     1.088  51.48   0
        62    254.0303    937.2944 307.8043320  +6.2962896     8076.865     10900.47     11337.35     79.49051     158.1009     316.5484      1.446     2.93     889.0292      55.8079     1231.827        27     1.199     1.006  81.46   0
        63    172.2385    935.2656 307.8383573  +6.2943771     452.8925     514.7175     296.4425     79.23936     158.2899     316.7057      1.217     3.78     888.3198      55.8079     95.39014         5     0.977     0.420  45.49   0
        64    581.9677    931.8816 307.6683625  +6.3095288     1415.575     1812.005     1515.476     79.23936     158.2899     316.5484      1.318     2.77     886.3358      55.8079     212.2194        10     0.870     0.709  76.33   0
        65    766.1155    931.1887 307.5919293  +6.3159788     731.5767     723.6014     722.6538      78.9874     158.1009     316.4539      1.177     2.92     882.9269      55.8079      120.996         6     0.726     0.579  48.68   0
        66    911.9231    928.0108 307.5314966  +6.3221635     1155.805     1757.177     2208.328      78.9874     157.9748     316.4539      1.487     3.88     880.2471      55.8079     192.5966        11     1.084     0.818  40.82   0
        67    144.4574    927.8896 307.8501400  +6.2964878     702.0477      941.459     813.7234     79.23936     158.2899     316.7372      1.474     4.18      888.109      55.8079      103.279         6     0.759     0.656  46.59   0
        68    868.9971    927.2962 307.5493436  +6.3210248     698.8686     1056.472     1287.606     79.11348     158.0379     316.2964      1.591     3.77     881.2458      55.8079      96.7951         5     0.820     0.497  50.57   0
        69    215.9796    927.3190 307.8204659  +6.2991290     545.6044      857.796     634.5292     79.11348     158.0379     316.5484      1.678     4.08     888.5876      55.8079     82.14246         5     0.824     0.577 -87.70   0
        70    410.4708    925.8810 307.7397670  +6.3062559     644.1505     923.3501     955.4694     79.61579     158.6673     316.6428      1.337     3.81     888.3383      55.8079     115.9037         6     0.834     0.499  89.71   0
        71    979.6062    922.9343 307.5035643  +6.3265190     749.6539     1092.652     925.0039     78.86112     158.1009     316.4224      1.637     5.37     878.1969      55.8079     88.60388        10     1.075     0.755  52.10   0
        72    748.3570    921.1312 307.5996401  +6.3195375     1851.355     2691.416     2703.718     79.36503     158.2899     316.6743      1.504     3.20     883.2694      55.8079     278.4788        18     1.186     0.904  82.51   0
        73    572.1683    921.2228 307.6727895  +6.3136013     817.9328     1219.033     1979.341     78.86112      158.164     316.3909      1.720     3.22     886.2083      55.8079     134.5909         8     0.806     0.693 -53.15   0
        74    624.2397    917.6731 307.6512893  +6.3168112     677.3535     845.8311     1250.691     79.23936     158.4158     316.6743      1.379     4.18     885.2856      55.8079     102.9578         6     0.745     0.668  67.66   0
        75    612.5521    917.9248 307.6561335  +6.3163159     1059.827     1210.053     1071.909     79.23936     158.4158     316.6113      1.375     4.27      885.504      55.8079     158.6134        10     1.153     0.648  30.68   0
        76    533.5345    916.8212 307.6889780  +6.3141239      1482.91     1823.647     1988.525      78.9874     158.3529     316.5169      1.280     3.01     886.7372      55.8079     215.1749        13     1.073     0.766  71.34   0
        77    979.6066    916.7072 307.5037727  +6.3290901     1381.032     1769.108     1140.932      78.9874     158.0379     316.4224      1.261     2.67      878.026      55.8079     219.8168        12     0.959     0.754  30.00   0
