#   1 NUMBER                 Running object number                                     
#   2 X_IMAGE                Object position along x                                    [pixel]
#   3 Y_IMAGE                Object position along y                                    [pixel]
#   4 ALPHA_J2000            Right ascension of barycenter (J2000)                      [deg]
#   5 DELTA_J2000            Declination of barycenter (J2000)                          [deg]
#   6 FLUX_APER              Flux vector within fixed circular aperture(s)              [count]
#   9 FLUXERR_APER           RMS error vector for aperture flux(es)                     [count]
#  12 FLUX_RADIUS            Fraction-of-light radii                                    [pixel]
#  13 FWHM_IMAGE             FWHM assuming a gaussian core                              [pixel]
#  14 BACKGROUND             Background at centroid position                            [count]
#  15 THRESHOLD              Detection threshold above background                       [count]
#  16 FLUX_MAX               Peak flux above background                                 [count]
#  17 ISOAREA_IMAGE          Isophotal area above Analysis threshold                    [pixel**2]
#  18 A_IMAGE                Profile RMS along major axis                               [pixel]
#  19 B_IMAGE                Profile RMS along minor axis                               [pixel]
#  20 THETA_IMAGE            Position angle (CCW/x)                                     [deg]
#  21 FLAGS                  Extraction flags                                          
         1    250.1544     37.9807 307.8352717  +6.6646597     3014.024     4971.609     5731.588     78.64976     157.5506     315.0698      1.847     4.24      860.439     55.56934     399.6111        29     1.360     1.265 -41.44   0
         2    179.5799     23.4757 307.8650825  +6.6682716     10382.05      16591.6     17609.29     78.64976     157.4251     315.1952      1.755     3.62     860.3637     55.56934     1233.643        43     1.431     1.315 -82.48   0
         3    523.7645     21.8383 307.7221414  +6.6805239     2858.869     4475.042     4534.796     78.77529     157.5506     315.0698      1.629     3.26     847.7662     55.56934     389.3552        25     1.324     1.054 -61.21   0
         4    925.1835     21.2766 307.5553762  +6.6942050      4103.02     5971.776     5854.006     78.52402     157.4251     315.1325      1.531     3.04     843.0156     55.56934     554.3013        24     1.194     1.054 -82.63   0
         5    461.9133     20.2582 307.7478923  +6.6790991     1763.474     2541.381     2523.821     79.02577      157.676     315.3833      1.527     3.86     850.2224     55.56934     232.4057        18     1.180     1.033 -59.47   0
         6    989.9014     17.6492 307.5286078  +6.6978658      2153.15      3454.35     3762.302     79.02577     157.6133     315.4459      1.725     4.34     837.3102     55.56934     258.6647        26     1.376     1.271  80.04   0
         7    709.3046     14.0612 307.6453148  +6.6899584     7243.338     10657.29     11078.34     78.77529     157.7386     315.3206      1.549     3.04     845.8552     55.56934     949.5247        34     1.278     1.193 -81.87   0
         8    629.5248     13.2378 307.6784899  +6.6876239     3684.875     5529.574     5937.479     78.90063     157.7386     315.2893      1.639     3.17     847.1967     55.56934     473.1351        24     1.199     1.117  79.29   0
         9    429.7792      9.5009 307.7616061  +6.6824610     6193.512     9533.188     10096.67     79.02577     157.4879     315.0384      1.709     3.40     853.0968     55.56934     808.6557        37     1.426     1.266 -88.34  16
        10    385.1657     11.4777 307.7800750  +6.6801451     595.5374      813.531     465.5772     78.90063     157.7386     315.2266      1.395     4.36     855.8396     55.56934     91.29755         5     0.935     0.578 -45.22   0
        11     30.6925      9.0701 307.9274252  +6.6691991     8202.952     13058.05     14122.53     79.02577     157.8013     315.2579      1.741     3.32     859.0898     55.56934     1039.122        43     1.398     1.337 -66.13  16
        12    676.5373      8.7184 307.6591090  +6.6910663     918.1483     1186.862     1027.561     79.15071      157.676     315.2579      1.481     4.18     847.0222     55.56934     119.2269        11     1.036     0.785 -49.71   0
        13    326.3020      4.4466 307.8047685  +6.6810684     12445.72     19781.94     21096.65     79.02577     157.4879     282.3535      1.744     3.52     858.6896     55.56934     1491.064        50     1.530     1.330 -70.33  24
        14    505.3147      6.7638 307.7303151  +6.6861286      850.001     1395.247     1404.966     79.02577     157.6133     305.7748      1.669     3.69     847.9039     55.56934      128.285         9     1.018     0.654 -41.87  16
        15    421.2013      5.5330 307.7653038  +6.6838110     686.8453     1097.297     1002.719     78.39807     157.2367     294.2469      1.767     5.26     854.0011     55.56934     89.14789         7     1.168     0.670 -58.70  16
        16     99.8350      4.7827 307.8988453  +6.6733017      2436.79     4004.939     3999.132     78.64975     157.4879     285.9354      1.729     3.72     859.9711     55.56934     311.2709        24     1.269     1.145 -46.83  16
        17     91.2097      3.3663 307.9024766  +6.6735956     1460.014     2419.787     2477.249     78.52402     150.4277     267.9525      1.711     4.53     859.7955     55.56934     196.7897        19     1.331     0.969  80.55  24
        18    794.9645      2.9640 307.6100970  +6.6974096       866.55     1315.402     1165.347     78.77529     146.4334     262.2496      1.582     5.56      842.791     55.56934     113.3339        12     1.189     0.853 -63.16  24
        19    392.4754      2.6930 307.7773346  +6.6840180     2355.054      3226.58     3205.778     78.90063       143.64     258.4924      1.537     3.64     855.6102     55.56934     316.8545        19     1.200     0.962 -71.83  24
        20    598.1204    995.5341 307.6584732  +6.2809711     1253.632     1994.884     1907.992     79.15071     157.8013     315.2266      1.677     4.15     880.6802     55.56934     161.2692        14     1.212     0.791 -32.43   0
        21    529.8134    993.5479 307.6868980  +6.2795007       4041.7     6451.127     6921.909     78.39807     157.6133     315.0071      1.737     3.61      880.715     55.56934     506.7206        32     1.377     1.311  66.99   0
        22    639.2612    992.8928 307.6414821  +6.2834406      1344.43     2141.323     1950.452     78.90063      157.676     315.3206      1.633     5.17     878.8217     55.56934     174.9214        14     1.214     0.934 -78.66   0
        23     64.5361    991.8801 307.8801089  +6.2645464     882.9581     1368.065     1549.369     79.27546     157.7386     315.2266      1.632     5.54     879.2336     55.56934     144.0352        10     1.348     0.833 -83.02   0
        24    794.9896    991.9539 307.5768610  +6.2890426     598.1412      747.952     789.1562     78.52402     157.5506     314.9443      1.244     3.81     874.5322     55.56934     126.0179         5     0.805     0.517 -25.23   0
        25    482.9062    990.0394 307.7064898  +6.2793755     2072.752     3154.286     2638.118     79.15071     157.6133     315.3519      1.570     3.97     881.1165     55.56934     310.7924        22     1.218     1.196  51.74   0
        26    917.3214    982.1747 307.5264004  +6.2971711     39980.95     67447.96     73092.94     78.77529     157.6133     315.2266      1.836     3.51     873.2108     55.56934     4645.531        82     1.660     1.470  89.01   0
        27    322.0246    983.8906 307.7734866  +6.2765109     578.2728      1171.94     1182.605     79.15071     157.4879     315.1012      2.140     5.55     880.8943     55.56934     96.05365         8     1.501     0.578 -57.53   0
        28    224.6030    980.3533 307.8140497  +6.2746953     1669.895     2425.934     1952.513     78.39807     157.4251     314.9129      1.607     3.72     880.4751     55.56934     197.5023        16     1.152     0.954 -66.66   0
        29    113.2556    979.4848 307.8603032  +6.2713056     634.7134      917.608      1128.44     79.02577      157.676     315.3833      1.377     4.19      879.227     55.56934     123.3891         6     1.070     0.468 -55.24   0
        30    623.6448    978.5217 307.6484486  +6.2888513     952.2747     1392.405     903.6575     78.90063      157.676     315.2579      1.620     4.25     878.9487     55.56934     164.3879        12     1.094     0.961  29.36   0
        31    763.4194    973.9490 307.5905725  +6.2954207     6336.054     9972.298      11004.6     78.52402     157.7386     315.0698      1.771     3.39     875.1806     55.56934     796.4838        40     1.551     1.201 -76.30   0
        32    815.3187    975.9872 307.5689569  +6.2963156     2042.829     3514.501     3701.702     78.64975     157.4251     315.1012      1.827     3.82     873.7961     55.56934     295.5088        24     1.316     1.146  58.69   0
        33    232.7387    972.6349 307.8109328  +6.2781560     1359.303     2051.669     1534.722     79.02577      157.676     315.2266      1.596     5.32     880.4041     55.56934     172.7906        15     1.387     0.843 -84.09   0
        34    550.0798    972.8971 307.6791792  +6.2887074     883.4854     1170.625     753.1665     78.77529     157.9265     315.3206      1.509     5.05     879.9135     55.56934     124.6953         9     0.996     0.754 -53.36   0
        35     57.9148    970.7616 307.8835717  +6.2730430     2550.968     4267.583     4501.304     79.02577      157.676     315.2579      1.773     3.79     879.0875     55.56934     338.4603        26     1.361     1.109 -79.11   0
        36    951.6686    969.0093 307.5125816  +6.3037550     6064.277     10343.58     10648.34     78.52402     157.4879     315.1325      1.816     3.57     871.7781     55.56934     730.2401        40     1.508     1.324 -82.79   0
        37    197.5452    972.3713 307.8255519  +6.2770806     912.1755     1183.534     852.4909     78.77529     157.7386     315.1639      1.405     3.58     879.9905     55.56934     132.3556         9     1.074     0.576 -13.34   0
        38    207.3964    965.6440 307.8216894  +6.2801898     580.7664     988.0922     991.5388     78.39807     157.2995     314.9129      1.740     3.50     880.0314     55.56934     106.8902         5     0.778     0.456 -73.60   0
        39    925.3918    960.7564 307.5237679  +6.3062849     1887.015     3051.971     2964.327     78.52402     157.4879     315.0071      1.700     3.95     872.2729     55.56934     254.0812        22     1.304     1.120  70.02   0
        40    784.9411    957.3751 307.5821937  +6.3029845     1179.751     1918.972     1983.555     78.64975      157.676     315.1012      1.650     4.94     874.0723     55.56934     161.4916        13     1.215     0.917 -78.28   0
        41    646.2151    956.5492 307.6398170  +6.2986804      4492.65     7029.625     7990.655     78.39807      157.676     315.0071      1.705     3.44     877.1441     55.56934     595.7122        32     1.415     1.130 -82.67   0
        42    258.2737    956.6844 307.8008704  +6.2856009      4344.75     6889.969     7269.925     79.15071      157.989     315.2893      1.732     3.41     880.3572     55.56934     545.3475        33     1.387     1.247 -70.28   0
        43    995.1494    956.0964 307.4949618  +6.3105392     694.8856     1003.007     1149.514     78.90063     157.6133     315.4459      1.632     4.77     869.9645     55.56934     108.8809         8     1.231     0.524 -78.63   0
        44    468.3437    954.7159 307.7137250  +6.2934721     1050.939     1668.716     826.5002     79.02577      157.676     315.3519      1.667     4.54     879.7735     55.56934     168.6424        14     1.165     0.988 -76.38   0
        45     27.1260    953.9278 307.8969224  +6.2789559     2131.436     3250.865     3439.136     79.27546     157.8013     315.2892      1.611     3.58     879.0383     55.56934     318.0148        21     1.225     1.075  82.73   0
        46    878.2378    953.0704 307.5436032  +6.3078825      918.296     1548.202      1740.57     78.90063      157.676     315.3206      1.875     4.59     872.1343     55.56934     126.4784        11     1.071     0.804 -64.68   0
        47    294.5379    950.4941 307.7860242  +6.2893764     969.6751     1442.207     1346.498     79.02577     157.7386     315.3206      1.673     5.84      880.549     55.56934     138.8043        11     1.186     0.808 -54.78   0
        48    969.7636    951.0757 307.5056699  +6.3117646      621.515     1038.551     881.7261     78.90063     157.7386     315.2893      1.717     4.59     870.6038     55.56934     101.8505         6     0.834     0.717 -82.54   0
        49    570.7667    949.1325 307.6713904  +6.2992138     1584.836     2551.211      2562.25     78.90063     157.7386     315.2892      1.633     4.08     878.6933     55.56934      207.024        16     1.106     1.042  82.39   0
        50   1002.1358    949.2490 307.4922905  +6.3136000     725.5203     1360.627     1517.847     78.90063     157.5506     315.3206      2.089     5.25     869.6183     55.56934     102.3205         9     1.234     0.834 -56.64   0
        51    610.1676    945.3069 307.6551609  +6.3021144     1236.216     1940.899     1794.167     79.15071     157.5506     315.3206      1.708     4.76     877.5151     55.56934     186.4811        16     1.283     1.075 -84.99   0
        52     59.8588    946.0926 307.8835988  +6.2832942     718.3602     1215.422     1534.622     78.90063     157.6133     315.3833      1.567     3.88     878.9076     55.56934     109.5783         6     0.746     0.580 -56.99   0
        53    289.9124    943.3689 307.7881849  +6.2921629     1366.659     1909.879     2665.579     79.15071     157.4879     315.1952      1.737     4.50     880.5122     55.56934     180.8721        16     1.326     0.928 -47.27   0
        54    756.8597    939.4974 307.5944529  +6.3094267     867.6735      1553.25     1633.682     78.77529      157.676     315.3833      1.893     6.29     874.4878     55.56934     104.6695        11     1.153     0.965 -43.20   0
        55    894.4100    935.8186 307.5374674  +6.3155467      6742.46     10716.62     11284.46     78.64976     157.3623     315.1325      1.707     3.32     871.3478     55.56934     831.5869        40     1.419     1.282 -82.02   0
        56    133.0048    937.5430 307.8535219  +6.2892885     659.8116     717.7849     551.4153     78.39807     157.5506     314.9757      1.230     4.22     878.9063     55.56934     98.60297         6     1.133     0.449 -74.83   0
        57    430.3637    933.0981 307.7302212  +6.3011232     1987.832     2816.466     2916.868     79.02577     157.5506     315.4146      1.544     3.72     879.2282     55.56934     242.4941        19     1.246     0.964  82.15   0
        58    331.9390    931.2509 307.7711460  +6.2985794     9395.894     14550.57     15645.76     79.02577     157.6133     315.2579      1.657     3.37     880.4838     55.56934     1228.266        40     1.403     1.244 -72.13   0
        59    251.9206    930.1236 307.8044044  +6.2963543       6961.1     10782.52     11339.65     79.27546     157.9265     315.3833      1.632     3.37     880.0648     55.56934      881.874        36     1.449     1.188  79.79   0
        60    764.4572    924.6735 307.5917963  +6.3158021      680.175     1255.917     1155.982     79.02577      157.676     315.2266      2.037     4.81     873.9182     55.56934      130.864         8     1.031     0.840 -44.49   0
        61    580.0652    924.8123 307.6683482  +6.3095677     1170.132     1725.797     1607.681     78.52402     157.4879     315.1639      1.447     4.49     877.4206     55.56934     176.8657        12     1.169     0.792 -58.88   0
        62    910.3960    921.2068 307.5313201  +6.3221146     1042.489      1632.14     2243.309     78.39807     157.3623     315.1325      1.817     3.42     870.8326     55.56934     171.4177        11     1.027     0.737 -40.47   0
        63    866.3253    920.4550 307.5496432  +6.3209518     679.1627     1271.422     1471.699     78.90063     157.6133     315.2266      2.401     4.14     871.1715     55.56934     96.15479         5     1.007     0.486   7.16   0
        64    214.2703    920.4878 307.8203605  +6.2990662     661.3579     907.0349     870.7515     79.15071     157.9265     315.2579      1.397     3.42     879.5187     55.56934     132.8718         5     0.997     0.339 -23.04   0
        65    408.8171    919.3364 307.7396304  +6.3060820     648.2778      785.348     478.2683     78.52402     157.6133     315.1012      1.182     3.92      879.238     55.56934     111.4886         6     0.801     0.550 -41.78   0
        66    746.4498    913.8881 307.5996351  +6.3196528     1576.357     2374.468     2493.946     79.02577     157.4879     315.3833      1.570     4.15      874.119     55.56934     222.1516        18     1.246     1.048  56.23   0
        67    598.5528    913.9874 307.6610366  +6.3146573     521.9669     691.7233     765.7783     78.39807     157.5506     315.0071      1.183     4.44     876.4737     55.56934     116.2504         5     1.130     0.497  89.52   0
        68    977.7864    909.6718 307.5037264  +6.3291291     1116.668     2022.816     2498.378     78.52402     157.5506     315.1325      2.265     5.76     868.7361     55.56934     140.5835        12     1.254     0.829  85.40   0
        69    610.7006    910.5265 307.6561095  +6.3164935     884.9638     1417.564      1017.07     78.64976     157.8013     315.2266      1.628     2.99     876.0757     55.56934     153.7714         8     0.799     0.746  68.08   0
        70    531.6761    909.7163 307.6889463  +6.3141781     1060.879      1920.67     1635.948     79.15071      157.989     315.3519      2.006     3.29     878.0604     55.56934     168.2067        11     1.113     0.761 -48.81   0
        71    664.9956    907.1929 307.6336790  +6.3196895     2412.725     4088.848     4354.413     78.39807     157.3623     315.1325      1.756     3.99     875.5568     55.56934     286.2537        28     1.349     1.280  12.09   0
        72    954.6652    905.3336 307.5134718  +6.3301481     650.7249     964.8745     1106.127     79.02577      157.676     315.2893      1.688     4.98     869.3394     55.56934      95.4278         5     1.113     0.629 -37.26   0
        73     61.4874    903.3364 307.8843686  +6.3010030     2837.112     4609.981     4962.104     79.02577     157.8639     315.2892      1.746     3.86     878.6234     55.56934     340.4287        25     1.347     1.131  89.43   0
        74    825.8615    903.7327 307.5670048  +6.3265035     872.3483     1257.434     1509.558     79.02577     157.6133     315.2579      1.515     4.64     871.8098     55.56934     119.3924         7     0.978     0.626  85.89   0
        75    205.2451    902.3707 307.8247191  +6.3062431     2041.193     3314.077     3372.646     78.64976     157.7386     315.1325      1.787     4.09      879.215     55.56934      263.024        19     1.254     0.985 -53.07   0
        76     79.1669    902.7757 307.8770479  +6.3018302     2009.995     3076.205     2782.468     78.52402     157.4879     315.0698      1.628     3.54     878.4545     55.56934     260.2231        21     1.213     1.062 -67.65   0
        77    943.8693    902.3944 307.5180528  +6.3310011     690.6953      930.195     1083.385     78.52402     157.2995     315.1012      1.512     4.28     869.6635     55.56934     95.94928         7     0.865     0.775 -86.11   0
