#   1 NUMBER                 Running object number                                     
#   2 X_IMAGE                Object position along x                                    [pixel]
#   3 Y_IMAGE                Object position along y                                    [pixel]
#   4 ALPHA_J2000            Right ascension of barycenter (J2000)                      [deg]
#   5 DELTA_J2000            Declination of barycenter (J2000)                          [deg]
#   6 FLUX_APER              Flux vector within fixed circular aperture(s)              [count]
#   9 FLUXERR_APER           RMS error vector for aperture flux(es)                     [count]
#  12 FLUX_RADIUS            Fraction-of-light radii                                    [pixel]
#  13 FWHM_IMAGE             FWHM assuming a gaussian core                              [pixel]
#  14 BACKGROUND             Background at centroid position                            [count]
#  15 THRESHOLD              Detection threshold above background                       [count]
#  16 FLUX_MAX               Peak flux above background                                 [count]
#  17 ISOAREA_IMAGE          Isophotal area above Analysis threshold                    [pixel**2]
#  18 A_IMAGE                Profile RMS along major axis                               [pixel]
#  19 B_IMAGE                Profile RMS along minor axis                               [pixel]
#  20 THETA_IMAGE            Position angle (CCW/x)                                     [deg]
#  21 FLAGS                  Extraction flags                                          
         1    596.3878     21.6193 307.6805107  +6.6766228     2861.617     5261.441     6307.594      84.2206     168.3071     336.9495      2.059     4.86     984.7039     59.41055     363.7655        29     1.778     1.236 -31.23   2
         2    415.3428     23.6013 307.7556521  +6.6697502      19596.5     34447.06     36254.68     83.81731     168.2399     336.7818      1.857     4.75     993.1423     59.41055     2616.586        51     1.832     1.122 -31.58   0
         3    235.8605     24.0089 307.8301951  +6.6635688     7946.862     14187.08     15397.63     83.81731     168.4412     336.7818      1.898     4.69     1007.532     59.41055     1133.464        41     1.774     1.116 -31.55   0
         4    223.9533     20.8325 307.8352483  +6.6644812     2661.888     4693.909     5210.847      84.2206     168.5753      336.983      1.809     4.60      1007.66     59.41055      345.099        20     1.492     0.820 -33.66   0
         5    913.8883     13.7033 307.5488783  +6.6904815     920.6773     1368.578     1325.564      84.4884     169.0436     337.0835      1.680     4.95     976.8049     59.41055     139.5005        10     1.425     0.521 -33.82   0
         6    665.2278     13.2985 307.6521925  +6.6823580     1613.391     2633.803     2544.516     84.62198      168.307     337.0165      1.717     5.06     983.3717     59.41055     235.5115        17     1.521     0.751 -31.49   0
         7    176.6372      8.6338 307.8553141  +6.6679315     484.0589     1001.842     722.6711      84.2206     168.3071     336.8153      1.577     3.79     1007.251     59.41055     104.7539         5     1.313     0.314 -45.02  16
         8    153.4319      6.0080 307.8650420  +6.6682371     9146.389     16319.91     17338.55     83.95196     168.4412     319.7502      1.896     4.69     1007.514     59.41055     1324.023        41     1.775     1.096 -33.15  16
         9    899.0781      3.7686 307.5553635  +6.6940911     3886.004     6143.213     6427.968     84.35461     164.5747     292.2902      1.631     4.45     976.4797     59.41055     622.6465        25     1.516     0.905 -26.47  24
        10    497.7922      4.1543 307.7220555  +6.6805396     2468.866      4462.54     4574.239     83.95196     167.1623     297.4232      1.913     4.87     986.3989     59.41055     315.7471        26     1.572     1.022 -38.65  24
        11    435.8996      2.6418 307.7478174  +6.6790937     1674.886     2771.662     2775.404      84.4884     152.8318     275.9106      1.778     6.06     991.1986     59.41055     213.2227        20     1.536     0.896 -29.47  24
        12    700.1326      2.4808 307.6380550  +6.6879905     1697.697     2628.077     2523.651     84.62198     151.0477     273.0301      1.701     5.14     980.3579     59.41055     224.3917        15     1.368     0.781 -33.16  24
        13    962.7432      1.4780 307.5289912  +6.6971566      939.384     1366.679     1288.717     75.44906     136.3495     256.2131      1.392     5.66     971.4079     59.41055     176.4093        10     1.497     0.603   0.36  24
        14    414.5437   1001.0013 307.7231411  +6.2660861     1024.136     1751.337     1898.429     83.81731     168.2399     336.7147      1.856     5.67     1030.138     59.41055     176.9962        10     1.412     0.657 -39.47   0
        15    557.1536   1023.0480 307.6632068  +6.2617472     149388.8     206811.4     211126.7     80.79834     143.3753        264.2      1.428     4.67     1028.635     59.41055     26036.55        49     1.606     0.812 -20.53  27
        16    558.7480   1016.1242 307.6627771  +6.2646598     72461.42       114470     121805.7      84.4884     168.6423       337.05      1.690     4.72     1028.324     59.41055     12027.77        80     1.902     1.019 -32.28  19
        17    706.6635    999.3547 307.6019408  +6.2765213     1114.114     1551.323      1448.44      84.4884     168.5083     337.0835      1.553     4.41     1024.714     59.41055     185.7462        11     1.202     0.662 -29.50   0
        18    337.6031    997.9039 307.7551815  +6.2647912      1771.06      2938.17     3186.781      84.2206     168.2399     336.7147      1.820     5.30     1031.349     59.41055     280.2639        19     1.683     0.786 -36.80   0
        19    948.2118    995.4465 307.5018043  +6.2861806     679.2602     1189.953      797.056     83.95196     168.3741     336.7483      1.685     5.49     1016.014     59.41055     118.6047        10     1.558     0.545 -48.10   0
        20    588.5136    992.1484 307.6512255  +6.2755551      591.811     714.3904     717.8966      84.4884     168.4412      337.117      1.588     5.25     1025.873     59.41055     91.51379         6     1.594     0.488 -38.50   0
        21    724.5007    987.2602 307.5949414  +6.2821109     7861.762     12336.33     12635.82      84.2206     168.5083      337.184      1.681     4.97         1024     59.41055     1333.392        29     1.651     0.837 -29.72   0
        22    520.0319    987.8674 307.6797952  +6.2750360     4035.656     6519.205     6801.418     84.35461     168.5753     337.0165      1.675     4.86     1028.591     59.41055     623.5706        26     1.615     0.859 -31.27   0
        23    490.8883    989.0880 307.6918515  +6.2735582     984.4277     1491.024     1331.098      84.2206     169.1104     337.1505      1.577     5.38     1028.703     59.41055      143.146        11     1.454     0.562 -23.21   0
        24    270.2572    986.5755 307.7835159  +6.2672148     14516.79     23434.64     25650.05     84.08639     168.5753     336.8489      1.746     4.89     1031.975     59.41055     2295.856        48     1.992     0.909 -31.04   0
        25    394.7053    987.2819 307.7318363  +6.2710883     1038.879     1386.977     1152.473      84.2206     168.9099     337.1505      1.443     5.29     1030.289     59.41055     191.5232        10     1.349     0.585 -31.36   0
        26    785.9110    986.6119 307.5694715  +6.2844255     1091.342     1614.524     1245.908      84.2206     168.2399     336.9495      1.442     5.21     1021.881     59.41055     181.0308        10     1.384     0.569 -25.26   0
        27    241.4599    984.2079 307.7955486  +6.2672280     967.3817     1558.193     1540.651     83.81731     168.3741     336.7818      1.785     6.04      1031.98     59.41055     153.8976        13     1.563     0.656 -35.85   0
        28    885.8590    980.6432 307.5281820  +6.2902192     8860.783     14018.02     14868.48     84.35461     168.5753     337.1505      1.675     4.44     1017.999     59.41055      1334.49        33     1.630     0.893 -29.88   0
        29    517.2421    980.0843 307.6812143  +6.2781570     8133.624     13013.73      13709.3      84.4884     168.4412      336.983      1.648     4.60     1028.396     59.41055     1405.393        31     1.650     0.870 -30.48   0
        30    981.1572    976.2844 307.4887681  +6.2951902     4797.876     7635.185     7704.022      84.4884     168.5083     337.0165      1.693     4.50     1013.599     59.41055     760.4869        29     1.666     0.894 -30.36   0
        31    859.4228    976.8729 307.5392820  +6.2908962     12307.93     19622.98      20997.8     84.08639     168.3741     337.0165      1.667     4.68     1018.687     59.41055     1979.557        41     1.739     0.936 -27.91   0
        32    572.3159    977.3557 307.6584450  +6.2811234     1414.254     2155.212     2127.843      84.4884     168.5753     337.0835      1.623     5.39     1026.637     59.41055     209.2841        16     1.421     0.872 -40.74   0
        33    503.5520    975.8809 307.6870380  +6.2794355     4096.778     6587.705     7304.613      84.4884     168.5753     337.0835      1.742     4.96     1028.346     59.41055     694.8281        26     1.700     0.804 -23.92   0
        34    613.2185    975.3971 307.6415320  +6.2832977     1383.667     1999.596     2011.103     84.08639     168.1056     336.8153      1.479     4.46      1024.44     59.41055     243.0258        12     1.354     0.594 -32.97   0
        35     38.1382    974.7973 307.8802581  +6.2642964     748.8815     1290.694     1906.942     83.81731     168.3741     336.7483      1.822     4.74     1032.992     59.41055     182.2545         7     1.569     0.406 -24.81   0
        36    456.7699    972.3890 307.7065741  +6.2793141     2184.014     3200.343     3470.746     83.95196     168.3741     336.8824      1.576     4.72     1028.885     59.41055     346.5564        16     1.547     0.641 -27.39   0
        37    891.2033    964.4397 307.5265050  +6.2970889      43236.2     69031.62     72292.73     83.54737     168.3071     336.7483      1.678     4.48     1017.392     59.41055     7552.448        59     1.751     0.972 -27.76   0
        38    198.6943    962.6802 307.8140239  +6.2746853      1760.98      2886.26     2687.851      84.2206     168.8431      337.117      1.778     5.21     1031.842     59.41055     239.4716        18     1.635     0.848 -25.08   0
        39    597.8963    960.7800 307.6483822  +6.2888228     803.0407     1268.503     693.0776     84.35461     168.3741     336.8489      1.698     5.21     1024.931     59.41055     137.7672         8     1.209     0.634 -36.41   0
        40    737.3578    956.2325 307.5906429  +6.2953534     6472.708     10613.88     11608.69      84.2206     168.5753     336.8824      1.758     4.92     1021.537     59.41055     1101.607        33     1.684     1.000 -38.77   0
        41    789.3645    958.1321 307.5689907  +6.2963022     2147.711     3500.343      3289.34     84.35461     168.6423     337.1505      1.653     4.83     1019.953     59.41055     419.4215        21     1.693     0.846 -24.10   0
        42    206.6977    955.3432 307.8109487  +6.2779834     1404.711     2125.282     2158.116     84.35461     168.5753      337.251      1.743     5.31     1031.746     59.41055     261.5913        14     1.687     0.591 -21.50   0
        43    524.4796    955.0605 307.6790494  +6.2887330     857.3865     1590.619     1386.619     84.62198     168.5753       337.05      1.653     5.21     1027.714     59.41055     175.8711         9     1.444     0.530 -38.53   0
        44    171.8457    954.6667 307.8254379  +6.2770947     927.6091     1471.985     1448.481      84.4884     168.5083     337.0835      1.722     6.12     1031.859     59.41055     145.1849        14     1.723     0.796 -19.11   0
        45    925.5799    951.1921 307.5126773  +6.3037041     6986.468     10772.33     10782.67     84.08639      168.307     336.8489      1.650     4.95     1016.139     59.41055      1135.52        32     1.707     0.858 -26.75   0
        46     31.7203    953.2679 307.8836475  +6.2729718     2758.536     4389.472     4760.653     84.62198     168.8431       337.05      1.692     4.34     1033.057     59.41055     443.9558        23     1.550     0.891 -30.29   0
        47    608.1775    945.8557 307.6446146  +6.2953295     693.6639     1101.843     1083.085     84.08639     168.5753     336.8489      1.682     3.99      1024.26     59.41055     135.9224         7     0.920     0.496 -44.10   0
        48    899.3435    942.9145 307.5238452  +6.3062495      2016.38     2951.355     2349.438      84.4884     168.5753     337.2175      1.529     4.62      1016.62     59.41055     310.9012        17     1.576     0.675 -30.29   0
        49    758.8560    939.3954 307.5822822  +6.3030234     1384.069     2234.836     2322.698     83.81731     168.3741     336.7483      1.695     5.16     1019.607     59.41055     214.0542        13     1.393     0.661 -31.34   0
        50    619.8660    938.4238 307.6400116  +6.2987888     5220.113     8071.485     8596.509     84.08639     168.5753      336.983      1.716     7.10     1023.971     59.41055     1182.901        28     1.432     1.116 -32.07   0
        51    232.3158    939.1293 307.8008605  +6.2855377     4311.315     6780.156     6830.373     84.75535     168.8431     337.0835      1.652     4.89     1031.478     59.41055     698.9254        24     1.674     0.784 -30.74   0
        52    442.2471    937.1656 307.7137848  +6.2933749     1075.125     1540.048     1205.693     84.08639     168.5753      336.983      1.638     5.71      1028.67     59.41055     185.3247        12     1.418     0.648 -27.50   0
        53      1.8578    936.1769 307.8966187  +6.2790270     2087.475     2737.696     2251.607     79.81382     142.2681     262.4413      1.292     3.11     1033.481     59.41055     348.4613        12     1.043     0.688 -56.99  24
        54    852.2860    935.2825 307.5436350  +6.3078347     1045.804     1682.258     1929.791      84.2206     168.7762     337.1505      1.836     4.38     1017.425     59.41055       173.83        11     1.327     0.593 -31.00   0
        55    268.7267    932.5858 307.7859667  +6.2894596     754.0493     1354.722     1636.262     83.95196     168.3071     336.9159      1.863     4.64     1031.208     59.41055     147.5176         6     1.024     0.598 -26.38   0
        56    924.0262    932.1012 307.5139601  +6.3115367     702.9556     904.8425     390.1915     84.62198      168.307      336.983      1.528     4.91     1015.735     59.41055     132.3729         9     1.194     0.571 -24.48   0
        57    787.8107    932.2961 307.5705001  +6.3069203     2215.897     2219.766     2621.928      84.2206     168.1728     336.8153      0.929     3.05     1018.363     59.41055     966.8972         7     0.930     0.385  16.80   0
        58    544.7833    931.4787 307.6714121  +6.2991500      1751.24     2579.325      2426.73     84.08639     168.3071     336.9495      1.610     4.47     1026.914     59.41055     265.1824        18     1.482     0.804 -25.12   0
        59    977.0549    930.2405 307.4920085  +6.3140693     889.3787     1552.967     1933.928     84.35461     168.5753     337.0835      1.768     4.98     1012.546     59.41055     184.4509        10     1.448     0.485 -72.35   0
        60     34.1570    927.8632 307.8834924  +6.2835447     867.3635     1401.286     1943.217      84.4884     168.5083     337.0835      2.246     8.83     1032.996     59.41055     137.5889        12     2.357     0.925 -12.16   2
        61    584.0316    927.5429 307.6552516  +6.3020861     1168.266     1918.779     1689.272     84.35461     168.5753      336.983      1.610     5.69      1025.12     59.41055     209.2867        12     1.564     0.603 -24.95   0
        62    263.6141    925.5573 307.7883253  +6.2921909     1385.378     2374.202     2909.321     83.68245     168.3071     336.7818      1.896     4.76     1031.149     59.41055     242.4363        17     1.642     0.761 -25.98   0
        63    532.5859    923.3360 307.6767485  +6.3021054     712.5798     938.0095     930.1465     83.95196     168.3741     336.9159      1.468     4.01     1026.687     59.41055     105.3864         6     1.002     0.542 -54.78   0
        64    730.8642    921.7059 307.5944942  +6.3093957     1083.844     1677.491     1846.179     84.35461     168.6423     337.0835      1.590     5.59     1019.516     59.41055     181.8937        10     1.394     0.632 -35.14   0
        65    868.2289    918.1437 307.5375897  +6.3154436     6926.567     10904.07     10705.15     84.08639     168.6423     336.9495      1.622     4.64     1016.708     59.41055      1219.71        29     1.614     0.853 -27.26   0
        66    106.4586    919.4178 307.8537658  +6.2894585     490.0777     507.0864     490.3853     84.08639     168.4412     336.7818      1.261     3.84     1031.874     59.41055      100.614         5     0.942     0.507 -45.52   0
        67    404.2722    915.2411 307.7302845  +6.3011592     2146.822     3392.139     3720.781     84.35461     168.5753      337.117      1.681     4.12     1029.089     59.41055     389.8411        17     1.495     0.693 -20.24   0
        68    305.8496    913.7206 307.7711914  +6.2984935     9193.365     15061.89     15854.31      84.4884     168.6423       337.05      1.736     4.61     1030.644     59.41055     1453.379        35     1.724     0.945 -29.88   0
        69    225.9308    912.6069 307.8044031  +6.2962766      6722.85     11139.22     11757.73     83.95196     168.1728     336.9495      1.757     4.67     1031.207     59.41055     1029.811        32     1.670     0.913 -30.48   0
        70    553.9877    906.9985 307.6684122  +6.3095673     1186.086     1642.935     1143.625     84.08639     168.2399     336.8153      1.602     4.47     1025.434     59.41055     231.8861        14     1.356     0.748 -36.77   0
        71    738.2656    906.8271 307.5919198  +6.3157872     602.9221     1078.194     1328.609     84.08639     168.5083     336.9495      1.852     4.70     1018.654     59.41055     113.1542         7     1.239     0.506 -17.88   0
        72    883.8842    903.3493 307.5315852  +6.3220747     1100.773     1501.362     1570.372      84.4884     168.5083     337.1505      1.567     3.57     1015.836     59.41055     223.2523        11     1.269     0.670 -45.96   0
        73    840.2337    902.2288 307.5497435  +6.3210840     639.0178     913.6538     1135.915     83.95196     168.3071     336.8153      2.154     5.81     1016.756     59.41055     155.7761        10     1.870     0.644 -17.79   0
        74    951.3268    898.8310 307.5037382  +6.3261852      989.748      1694.89     2225.816     84.35461     168.5753       337.05      1.798     4.91     1012.902     59.41055     163.5784        10     1.578     0.433 -18.79   0
        75    813.7913    896.6134 307.5609084  +6.3225223     539.1386     822.8268     1048.297     84.08639     168.3071     336.9495      1.670     4.26     1017.005     59.41055     80.86481         5     0.933     0.554 -50.47   0
        76    720.4257    896.2032 307.5996813  +6.3195799      1664.09     2624.815     2758.967     83.95196     168.2399     336.8824      1.628     5.05     1019.048     59.41055     268.6304        14     1.418     0.669 -28.42   0
        77    544.9313    896.1408 307.6725358  +6.3137487     644.4583     890.6646     374.6071     84.62198     168.5083       337.05      1.619     3.65     1025.173     59.41055     123.1226         5     1.032     0.371 -33.07   0
