#   1 NUMBER                 Running object number                                     
#   2 X_IMAGE                Object position along x                                    [pixel]
#   3 Y_IMAGE                Object position along y                                    [pixel]
#   4 ALPHA_J2000            Right ascension of barycenter (J2000)                      [deg]
#   5 DELTA_J2000            Declination of barycenter (J2000)                          [deg]
#   6 FLUX_APER              Flux vector within fixed circular aperture(s)              [count]
#   9 FLUXERR_APER           RMS error vector for aperture flux(es)                     [count]
#  12 FLUX_RADIUS            Fraction-of-light radii                                    [pixel]
#  13 FWHM_IMAGE             FWHM assuming a gaussian core                              [pixel]
#  14 BACKGROUND             Background at centroid position                            [count]
#  15 THRESHOLD              Detection threshold above background                       [count]
#  16 FLUX_MAX               Peak flux above background                                 [count]
#  17 ISOAREA_IMAGE          Isophotal area above Analysis threshold                    [pixel**2]
#  18 A_IMAGE                Profile RMS along major axis                               [pixel]
#  19 B_IMAGE                Profile RMS along minor axis                               [pixel]
#  20 THETA_IMAGE            Position angle (CCW/x)                                     [deg]
#  21 FLAGS                  Extraction flags                                          
         1     16.9503     73.9881 307.9359996  +6.6318906     725007.6      1758657      1973569     83.61759     168.1067     335.9124      2.358    12.69     1005.709     59.26898     61771.21       456     2.381     1.884  45.55  12
         2    650.3275     26.6596 307.6743788  +6.6726679     16407.04     26902.55     28818.03     84.42034     168.1736     336.2469      1.797     4.22     974.0661     59.26898     2213.051        51     1.790     1.111  44.08   0
         3    550.1180     22.8181 307.7161564  +6.6709028     4500.675      7769.74     8805.209     83.88602      167.839       336.18      1.899     4.67     975.3848     59.26898     588.4708        34     1.689     1.056  44.63   0
         4    636.6529     16.9787 307.6803885  +6.6762075      2715.21     5460.765     6734.182     83.75191     168.1736     336.0462      2.280     6.34     973.9476     59.26898     382.4592        33     1.994     1.072  64.70   0
         5    455.6762     18.3501 307.7555577  +6.6695860     19363.68      33851.9     36407.79     84.15361     168.2404     336.2469      1.884     4.46     979.1417     59.26898     2350.776        59     1.855     1.219  42.29   0
         6    276.3232     18.7818 307.8300816  +6.6633955     7790.539     13513.11        14241     83.75191      167.906     336.2134      1.841     4.38     999.3581     59.26898     1080.282        41     1.727     1.152  39.59   0
         7    933.4195     18.2962 307.5570017  +6.6855685      1921.99     3056.111     2819.287     84.15361     167.9729     336.0128      1.640     4.04     964.4258     59.26898     355.3589        19     1.483     0.826  48.37   0
         8     41.3083     18.1265 307.9277717  +6.6557710     2024.526     3257.248     3284.041     84.28708     168.3072     336.2803      1.676     3.88     1003.306     59.26898     253.4583        20     1.349     0.911  47.62   0
         9    264.1998     15.2269 307.8352402  +6.6644562     2465.028     4147.604     4245.552     83.75191      167.839     336.0462      1.782     4.69     999.3721     59.26898     304.5015        27     1.683     0.979  46.52   0
        10     80.2158     11.1275 307.9118400  +6.6599687      525.299     552.2069      281.577     83.75191     168.0398     336.1466      1.478     5.56     1000.802     59.26898     95.08203         5     1.182     0.737  15.89   0
        11    705.4396      7.9091 307.6521053  +6.6822504     1555.062     2351.083     2155.914     84.28708     168.1067     334.2686      1.623     4.58     972.0958     59.26898     233.6912        17     1.433     0.869  50.07  16
        12    954.1727      8.2473 307.5487138  +6.6904087     910.8434     1439.708     1779.351     83.88602     168.2404     335.6781      1.361     4.62     961.8696     59.26898     157.1887         8     1.199     0.505  44.47   0
        13    216.2704      3.1678 307.8555674  +6.6678258     622.1356     1014.211     728.3681     84.15361     158.6107     282.9459      1.865     4.67      999.325     59.26898     109.9525         6     0.878     0.704  27.97  16
        14    194.2453      1.8346 307.8647660  +6.6676366     6096.449     9502.858     9963.203     79.34078     141.6913     261.6872      1.630     4.91     999.2875     59.26898     1102.914        26     1.654     0.835  14.46  24
        15    538.8940      1.0991 307.7215540  +6.6794937     556.6176     852.3197      528.151     70.00768     130.1113     248.7377      1.513     4.09     975.2012     59.26898     131.0258         7     1.746     0.273   4.03  24
        16      7.6255      1.3509 307.9423384  +6.6615632     619.4401     785.4433     52.62875     72.99475     133.8587     250.1348      1.267     3.92     1005.029     59.26898     127.0114         7     1.002     0.455   9.32  24
        17    454.0615    995.7549 307.7232435  +6.2660134     948.0944     1376.307     1301.659     84.15361     168.1067     336.3472      1.424     3.74     1016.901     59.26898     161.1862         8     1.098     0.579  60.74   0
        18    597.3634   1018.1954 307.6629772  +6.2615406     154075.1     239983.9     253937.2     83.34829      167.906     326.5113      1.666     4.22     1018.102     59.26898     27419.81        98     1.794     1.102  43.75  19
        19    599.1341   1011.0285 307.6624832  +6.2645586     71682.95     113421.6     121532.8     84.01993     168.1067       336.18      1.673     4.12     1017.744     59.26898     11295.91        86     1.816     1.152  45.95   3
        20    231.3061   1021.0800 307.8148916  +6.2480962     3595.297     5787.772     5981.894     84.01992      165.682     293.7829      1.660     4.03     1020.042     59.26898     605.1469        24     1.526     0.888  42.19  24
        21    731.2823    995.0117 307.6081427  +6.2755841     2926.582     4480.044     4984.214     83.88602      167.906     336.0797      1.644     4.12     1011.882     59.26898     504.9272        21     1.457     0.881  39.48   0
        22    746.6052    993.9136 307.6018161  +6.2765488     1195.621     1600.096     1309.896     83.75191      167.839     335.9459      1.437     2.75     1011.471     59.26898     193.2084        11     0.918     0.781   1.81   0
        23    378.1273    992.4069 307.7548902  +6.2648537     1682.669     2630.795     2692.782     83.88602      167.705       336.18      1.594     4.45     1018.185     59.26898     289.8787        16     1.450     0.763  49.58   0
        24    764.9105    982.1379 307.5946099  +6.2820212      8004.41     12231.17     12411.99     84.28708     168.3072     336.3138      1.575     3.98     1010.445     59.26898     1285.759        29     1.601     0.866  46.25   0
        25    560.3218    982.7299 307.6795544  +6.2749447     4219.579     6647.892     7003.265     84.55339     168.4407     336.2134      1.687     4.23     1016.451     59.26898      689.549        26     1.600     0.875  48.09   3
        26    557.5749    974.9432 307.6809575  +6.2780676     8239.383      12876.4     13865.17     83.88602     168.1736     336.0462      1.666     4.23     1016.255     59.26898     1420.244        38     1.760     0.952  45.26   2
        27    530.1899    983.9106 307.6920280  +6.2734498     1185.359     1621.263      1558.26     84.01992      167.839     336.0462      1.409     4.00     1016.591     59.26898     210.8348         9     1.074     0.635  46.03   0
        28    310.7305    981.3876 307.7832503  +6.2671453     14060.66     23121.14     25783.38     83.75191     167.9729     336.1131      1.823     4.11     1019.282     59.26898     2662.037        59     1.726     1.480  18.56   0
        29    825.7801    981.1597 307.5693636  +6.2844551      1076.95     1624.937     1304.081     83.88602     167.9729     335.9793      1.615     5.01     1008.854     59.26898      155.948         9     1.280     0.555  43.73   0
        30    434.5227    981.7480 307.7318300  +6.2711422     1103.985     1249.142     886.5497     84.42034     168.2404     336.2469      1.458     4.79     1016.956     59.26898     143.8829        11     1.088     0.829  27.17   0
        31    281.7072    978.8853 307.7953874  +6.2672057     972.2806     1559.331     1634.581     84.01993     168.6408     336.3472      1.637     6.00     1019.516     59.26898     151.3508        11     1.408     0.720  56.84   0
        32    926.2715    975.7483 307.5278107  +6.2900381     8449.908     13475.79     14753.44     84.15361     168.1736     336.2803      1.703     4.59     1006.432     59.26898     1452.789        34     1.707     0.928  48.16   0
        33    899.8775    971.8484 307.5389033  +6.2907689     12116.71     19818.74     20657.21     84.15361     168.2404     336.2469      1.740     4.17     1006.865     59.26898     2196.245        45     1.741     1.072  36.72   0
        34      9.4269    973.7161 307.9086305  +6.2602012     775.8024     1253.712         1421     84.42034      167.906     336.1131      1.559     3.16     1021.461     59.26898     155.9919         6     0.988     0.457  32.14   0
        35   1021.4846    971.1691 307.4884214  +6.2950985     4779.116     7597.852     7659.628     84.28708      161.838     287.9472      1.638     4.32     1000.009     59.26898       774.23        27     1.596     0.884  40.62  24
        36    612.5979    972.3856 307.6581929  +6.2809624     1308.982     2170.167     1865.339     83.88603      167.839     336.0462      1.840     5.85     1015.172     59.26898     232.2883        13     1.420     0.679  41.54   0
        37    544.1795    970.7573 307.6866615  +6.2793479     4000.008     6666.543     7324.404     83.75191     168.0398     336.0797      1.872     4.47     1016.361     59.26898     684.3966        26     1.714     0.939  28.92   0
        38    653.5183    969.9413 307.6412811  +6.2833384     1379.055     2031.191     2194.482     84.28708     168.2404     336.2469      1.526     4.09     1012.857     59.26898     210.8108        15     1.196     0.896  57.50   0
        39    497.1963    967.2814 307.7062903  +6.2792118     2223.292     3583.437     3015.025     83.75191      167.705     335.9459      1.666     4.32     1016.412     59.26898     370.6448        23     1.537     0.893  47.94   0
        40     78.3918    968.7588 307.8801601  +6.2645647     871.4639     1339.186      1808.19     83.61759     167.9729     335.9793      1.459     2.94     1020.811     59.26898     184.8987         7     0.897     0.533 -29.93   0
        41    404.7864    965.5895 307.7447241  +6.2768179     528.7245     776.4382      679.507     84.01993      167.906       336.18      1.558     3.49     1017.384     59.26898     99.64545         5     0.738     0.476  12.63   0
        42    931.6069    959.3721 307.5261445  +6.2969768     43595.11     68564.77     72598.33     83.75191     167.9729     336.0462      1.705     4.16     1005.376     59.26898     7838.732        62     1.752     1.063  41.83   0
        43      4.4666    959.1195 307.9111847  +6.2660604     3196.908      4951.99     5203.476     84.42034      168.374     301.2264      1.649     4.06     1021.575     59.26898     495.7174        23     1.577     0.865  40.43  16
        44    336.4077    960.2690 307.7733002  +6.2767244      577.752     674.5001      911.261     83.75191      167.839     336.1466      1.196     3.44     1018.784     59.26898     114.1108         5     0.720     0.480  78.52   0
        45    238.7722    957.5327 307.8139387  +6.2745815     1875.837     2795.577     2731.345     83.88603     168.1067     336.1466      1.580     4.58     1019.251     59.26898     293.2505        17     1.345     0.825  41.62   0
        46    637.5813    955.7086 307.6483788  +6.2886822     829.5727     1044.175     1047.923     84.15361      167.906     336.1131      1.356     3.43      1013.22     59.26898     161.6138         5     0.816     0.418  68.00   0
        47    126.4216    956.2683 307.8606376  +6.2713340     648.6185     478.7814     339.5937     83.88603     168.1067       336.18      1.235     4.25     1020.061     59.26898     94.42102         5     0.909     0.567 -37.18   0
        48    829.5295    953.1755 307.5687466  +6.2961336     2361.233     3644.339     3808.935     83.88603     168.0398       336.18      1.654     4.51     1007.852     59.26898     435.8459        19     1.534     0.794  43.46   0
        49    777.7281    950.8406 307.5903388  +6.2953701     6721.998     10202.67      11545.9     84.15361     168.1736     336.3138      1.610     3.92      1009.27     59.26898     1182.864        31     1.541     0.938  47.88   0
        50    564.3545    950.2684 307.6789732  +6.2884813     849.3352     1207.431     494.7012     84.28708     168.1067     336.2134      1.554     4.20     1015.407     59.26898     160.2903         8     1.225     0.581  59.19   0
        51    247.1846    950.1149 307.8106959  +6.2779260     1432.281      2500.91     2584.213     83.88602      167.906     336.1466      1.699     5.64     1019.151     59.26898     225.0002        14     1.530     0.663  48.94   0
        52    210.9926    949.2181 307.8257559  +6.2770825     800.7735     1273.375      2019.42     83.88602      167.839     336.0797      1.596     4.44     1019.218     59.26898     162.0435         6     0.943     0.595  57.09   0
        53     72.2212    948.1622 307.8834197  +6.2728604     2639.194     4290.008     4510.051     83.88602      167.906     335.9793      1.705     4.28     1020.738     59.26898     413.4658        22     1.526     0.840  42.07   0
        54    965.9551    946.0864 307.5123250  +6.3036058     6807.167     10756.06     11287.09     84.28708     168.0398     336.2134      1.635     4.18       1002.4     59.26898     1036.735        33     1.629     0.963  41.45   0
        55    221.7737    941.6132 307.8215359  +6.2805837     574.7208      920.559     1149.208     84.01993     167.9729       336.18      1.442     3.25     1019.069     59.26898     102.8014         5     0.722     0.466  14.92   0
        56    939.7177    937.7381 307.5235021  +6.3061788     2167.733     3166.413     3109.637     84.42034     168.1736     336.2134      1.618     3.82     1003.839     59.26898     370.0143        18     1.348     0.892  52.94   0
        57    272.7594    934.0476 307.8006180  +6.2854167     4199.735     6853.127     6796.743     84.15361     168.1736     336.1131      1.702     4.14     1018.955     59.26898     643.9797        29     1.654     0.942  48.42   0
        58    799.0785    934.3438 307.5820262  +6.3028930     1359.526     2046.294     2164.738     84.28708     168.1736     336.2469      1.676     5.49     1008.599     59.26898     236.3881        14     1.455     0.696  48.57   0
        59    660.4099    933.7885 307.6396358  +6.2984944     4540.995      7137.27     7107.195     84.01993     167.9729     336.2134      1.693     4.34     1012.043     59.26898     817.8191        27     1.608     0.859  43.78   0
        60   1009.6826    933.5043 307.4945861  +6.3102562     885.1994     1593.433     1556.803     84.15361     168.5742     336.3472      1.626     5.79     998.6465     59.26898     154.3632         9     1.329     0.928  69.08   0
        61    482.7133    932.0595 307.7134924  +6.2932687     1177.834     1697.319     866.0047     84.28708     168.3072     336.3806      1.376     4.19     1016.067     59.26898     238.9949        10     1.284     0.612  36.52   0
        62     41.5378    931.5480 307.8967241  +6.2786886     1913.272     2902.027      2521.13     84.28708     168.1067     336.2134      1.684     4.30     1021.106     59.26898     361.0505        19     1.552     0.809  44.75   0
        63    892.2908    930.1403 307.5434546  +6.3077358     1006.567     1352.327     1239.295     84.15361     168.1736     336.3138      1.598     4.81     1004.891     59.26898      165.217         9     1.334     0.491  40.55   0
        64    308.6104    927.9567 307.7859352  +6.2891330     948.7595     1506.709     2276.128     83.75191     167.9729     335.9459      1.902     5.33     1018.715     59.26898     138.5695        10     1.231     0.652  57.39   0
        65    963.4402    927.4435 307.5139951  +6.3112190      795.072     1121.032      1802.87     84.01993     168.1736     336.1131      1.832     5.51      1001.71     59.26898     114.1643         9     1.483     0.578  42.66   0
        66    585.1390    926.1989 307.6711520  +6.2991132     1745.063     2526.595     2631.758     83.61759     167.9729     335.9124      1.599     3.88     1013.697     59.26898     337.4266        17     1.414     0.766  50.48   0
        67   1016.2166    925.4807 307.4921415  +6.3137863     852.8485     1648.205     2366.825     83.88603      167.839     336.0797      2.291     6.83     997.9886     59.26898     131.5976        11     1.687     0.776  75.93  16
        68     73.9432    923.5722 307.8835370  +6.2830700     916.3842     1465.648     2107.798     83.88602     168.2404     336.1466      1.889     5.31      1020.51     59.26898     146.0127        10     1.256     0.797  61.97   0
        69    624.2452    922.5780 307.6550328  +6.3019148     1201.714     1779.805     1814.311     83.88603     168.1736     336.0797      1.648     5.84      1012.32     59.26898     221.3508        13     1.380     0.762  36.46   0
        70    304.0650    920.3307 307.7880804  +6.2921290     1362.644     2104.028     2683.686     84.28708     168.2404     336.2803      1.651     4.38     1018.731     59.26898     195.1049        13     1.173     0.756  48.70   0
        71    770.8224    916.0778 307.5943755  +6.3094918     941.6957     1268.723     530.9879     83.88602     167.9729     336.2134      1.273     2.17     1008.299     59.26898     202.9963         8     0.779     0.623  45.44   0
        72    908.7249    912.9656 307.5372058  +6.3153741     7052.512     11315.69     12029.23     84.15361     168.1736     336.2134      1.698     4.46     1003.956     59.26898     1156.668        37     1.728     0.950  43.56   0
        73    444.4656    910.0449 307.7301192  +6.3010776     1971.265     3243.781     2926.724     84.28708     168.1067     336.2469      1.776     4.38     1016.338     59.26898     331.5945        21     1.479     0.901  41.47   0
        74    346.2405    908.6157 307.7709606  +6.2983787     9074.867     14532.19     14950.43     83.75191     167.9729     336.0128      1.683     4.25     1018.329     59.26898     1523.252        38     1.628     1.041  46.56   0
        75    266.3394    907.4132 307.8041840  +6.2961973     6776.986     10926.38     11047.51     83.75191     168.0398     335.9124      1.723     4.11     1018.819     59.26898     1140.939        38     1.635     1.067  45.92   0
        76    594.1076    901.5301 307.6682581  +6.3095975     1128.969     1522.067     1344.769     84.28708     168.3072     336.2469      1.381     2.98     1012.733     59.26898     197.8749         8     0.886     0.614  55.61   0
        77    778.1838    901.5917 307.5918052  +6.3157181      613.819     477.7113     263.6098     83.88603      167.906     336.0797      0.996     2.10     1007.614     59.26898     132.2015         5     0.688     0.454 -21.35   0
