#   1 NUMBER                 Running object number                                     
#   2 X_IMAGE                Object position along x                                    [pixel]
#   3 Y_IMAGE                Object position along y                                    [pixel]
#   4 ALPHA_J2000            Right ascension of barycenter (J2000)                      [deg]
#   5 DELTA_J2000            Declination of barycenter (J2000)                          [deg]
#   6 FLUX_APER              Flux vector within fixed circular aperture(s)              [count]
#   9 FLUXERR_APER           RMS error vector for aperture flux(es)                     [count]
#  12 FLUX_RADIUS            Fraction-of-light radii                                    [pixel]
#  13 FWHM_IMAGE             FWHM assuming a gaussian core                              [pixel]
#  14 BACKGROUND             Background at centroid position                            [count]
#  15 THRESHOLD              Detection threshold above background                       [count]
#  16 FLUX_MAX               Peak flux above background                                 [count]
#  17 ISOAREA_IMAGE          Isophotal area above Analysis threshold                    [pixel**2]
#  18 A_IMAGE                Profile RMS along major axis                               [pixel]
#  19 B_IMAGE                Profile RMS along minor axis                               [pixel]
#  20 THETA_IMAGE            Position angle (CCW/x)                                     [deg]
#  21 FLAGS                  Extraction flags                                          
         1    989.7131     26.1173 307.5285807  +6.6977569     1947.046     3474.543     3293.569     86.73676     173.8185     347.1887      1.879     4.30     1033.928     61.18548     276.3167        23     1.498     0.977 -86.89   0
         2    629.4315     22.0679 307.6784802  +6.6873971     3036.441     5659.491     6060.896     86.87476     173.6116     347.0851      1.933     4.69     1048.111     61.18548     333.5931        32     1.584     1.222  68.58   0
         3    429.4854     18.3640 307.7617168  +6.6822295      4506.25     9456.958     10073.02     87.01256     173.5426     347.1196      2.140     5.11     1055.772     61.18548     427.1133        42     1.758     1.392  75.28   0
         4     30.5923     17.9991 307.9275299  +6.6689787     6575.928     12802.37      13639.8     86.32142     173.2662     346.9125      2.027     4.50     1072.672     61.18548      702.255        41     1.665     1.331  74.09   0
         5    676.2604     16.9487 307.6591868  +6.6910768      688.805     1091.355     864.4922     87.01256     173.5426     347.1196      1.480     4.62     1047.735     61.18548     95.33557         8     1.272     0.476 -67.80   0
         6    326.1364     13.2923 307.8048464  +6.6808563      8825.87     18893.92     21095.26     87.01256     173.8185     347.1887      2.237     5.06     1065.296     61.18548     844.4615        60     1.830     1.576  84.85   0
         7    100.0218     13.9080 307.8988107  +6.6730041     1924.047     3775.469     4151.037     87.01256     173.4044      346.947      2.004     5.66     1069.649     61.18548     212.7902        26     1.518     1.173  85.20   0
         8     90.8253     12.4215 307.9026835  +6.6733083     1058.423     2128.889     2436.532     86.59853     173.4044     347.0506      2.014     7.19     1069.864     61.18548     133.5905        15     1.220     1.187   9.20   0
         9    392.3076     11.3961 307.7774055  +6.6838592     1574.768     3225.261     2988.965     86.59853     173.2662      346.878      2.034     6.26     1059.336     61.18548      163.728        28     1.562     1.330  50.41   0
        10    653.0305      6.7253 307.6691871  +6.6945204      8518.29     16116.29     16946.01     86.87477     173.6116     336.3933      1.994     4.63     1047.634     61.18548      857.374        48     1.755     1.291  69.95  16
        11     71.5876      8.3150 307.9108185  +6.6743562     625.7269     832.2173     715.6542     86.59853     173.4044      346.567      1.678     5.78     1070.485     61.18548     95.28162         6     1.197     0.785 -51.82   0
        12    817.7138      6.0220 307.6007540  +6.7003146     1522.531     2746.655     3034.164     87.01255     173.4044     329.5939      1.979     5.45     1042.297     61.18548      205.661        20     1.492     1.125  76.49  16
        13    709.1375     22.7774 307.6453243  +6.6897699     5867.247     10737.31      11353.5     86.59853     173.6116     347.0161      1.918     4.15     1046.936     61.18548     622.8564        40     1.611     1.277  64.83   0
        14    530.8571      6.3296 307.7199854  +6.6905945     993.9598     1677.417     1656.719     87.15012     173.6116      332.633      1.721     6.38     1049.031     61.18548     123.7448        14     1.343     0.999 -14.52  16
        15    253.4558      3.6795 307.8353815  +6.6823842     4534.719     9483.694     10497.79     87.15012     168.7832     299.9462      2.177     5.17     1069.078     61.18548     421.1191        42     1.636     1.588 -47.52  24
        16    888.0726      4.3665 307.5715620  +6.7033466     1313.815     2159.399     2403.289     86.87476     173.1971     309.3832      1.802     4.35     1039.714     61.18548     187.3845        12     1.296     0.697  64.08  16
        17    414.7440      2.7049 307.7683727  +6.6881995     5807.949     10007.38     9809.073     86.87477     158.3085     284.9956      1.844     4.73     1057.583     61.18548     544.5291        31     1.452     1.266  20.15  24
        18    674.3197      1.3253 307.6605193  +6.6974617       5091.6     8064.758      8615.91     75.83051     138.1004     261.0836      1.703     4.55     1047.441     61.18548     703.7449        18     1.504     0.989  80.03  27
        19    677.9710      1.0000 307.6590124  +6.6977180      3362.82     4767.629     5160.639     69.91228     131.9792     254.8609      1.462     5.81     1047.302     61.18548     721.3192        12     1.371     0.694 -15.37  27
        20    644.8213      2.5963 307.6727385  +6.6959503      7170.62     11565.68     11611.54     86.59853     156.7113     282.8014      1.751     4.43     1047.538     61.18548      817.391        31     1.404     1.214  14.93  25
        21    730.2012      1.7669 307.6372752  +6.6991476     1287.665      1638.37     1831.396      80.4304     144.7913     268.6816      1.324     4.58     1045.542     61.18548     181.5422        12     1.184     0.705  19.25  24
        22    224.9252    989.1662 307.8139546  +6.2745981     1624.198     2677.844     2451.563     86.87476     173.6116     347.0851      1.670     4.63     1095.894     61.18548      239.662        18     1.406     0.952  53.08   0
        23    363.6358   1023.1947 307.7551963  +6.2652029     1566.161     1827.257     1880.483     81.02399      145.534      269.483      1.234     3.76     1096.936     61.18548     278.0938        10     0.986     0.795  45.12  24
        24    113.0279    987.8292 307.8604736  +6.2713922     580.0361      874.868     770.1802     86.46009     173.3353      346.878      1.620     4.98     1095.675     61.18548     94.15918         8     1.733     0.404  59.27   0
        25    623.8779    987.1946 307.6483187  +6.2887768     813.5732     1213.041     781.3176     86.59853     173.0587      346.878      1.513     3.45     1093.184     61.18548     139.0944         7     0.715     0.694  20.10   0
        26    815.3326    984.5081 307.5688863  +6.2962811     2481.404     3445.551     3622.268     86.87477     173.7495     347.1541      1.494     3.33     1089.684     61.18548     379.2745        17     1.306     0.695  72.01   0
        27    763.4828    982.3300 307.5904959  +6.2954495     7058.173     10409.07     11561.41     87.28748     173.8874     347.1541      1.661     3.51     1090.755     61.18548     949.2665        35     1.588     1.015  79.52   0
        28    550.2834    981.6276 307.6790737  +6.2886136     978.3898     1773.202      2003.48     86.87477     173.3354     347.0506      2.124     6.67     1094.168     61.18548     139.2762        13     1.473     0.888 -78.13   0
        29    233.1239    981.3144 307.8108144  +6.2781147     1321.294     2071.313     1963.104     87.15012     173.9563     347.1887      1.701     4.93     1095.924     61.18548     180.3976        14     1.369     0.708  64.15   0
        30     57.9063    979.5486 307.8836467  +6.2729579     2717.966      4040.67     4047.329     86.87476     173.4044     347.3267      1.558     3.70     1095.549     61.18548     402.0471        20     1.410     0.855  73.28   0
        31    197.4897    981.2910 307.8256152  +6.2769282     863.0068     1547.888     1407.876     87.01256     174.1627     347.2231      1.791     4.59     1095.771     61.18548     108.1981         7     0.885     0.676  15.27   0
        32    951.6356    977.4321 307.5125076  +6.3037480     7647.529     10515.03     10655.07     86.59853     173.3354     346.8434      1.466     3.08     1085.251     61.18548     1239.385        26     1.344     0.875  72.23   0
        33    633.9284    971.7544 307.6446632  +6.2954871     740.6847     1153.608     950.2888     87.01256     173.6116     347.1196      1.435     4.05      1092.33     61.18548     133.6138         5     1.012     0.464 -65.75   0
        34    925.4261    968.9484 307.5236786  +6.3063768     2249.636     3441.565      3182.61     86.59853     173.7495     347.0161      1.529     4.47     1085.038     61.18548     326.5444        18     1.389     0.893  80.91   0
        35    784.9631    965.7109 307.5821316  +6.3030277     1347.271     1881.465     2529.438     87.01256     173.5426     347.1196      1.628     4.39     1089.507     61.18548     194.7717        10     1.227     0.541  65.90   0
        36    646.1544    965.0182 307.6398114  +6.2986767     4711.064      7125.92     7671.901     86.59853     173.4735     346.8434      1.576     3.25     1091.707     61.18548     678.4905        28     1.381     1.006  69.84   0
        37    258.3080    965.2302 307.8008972  +6.2855998     4471.015     7078.687     7207.042     87.15012     173.3353     347.0851      1.694     3.61     1096.099     61.18548     533.4171        30     1.442     1.149  78.58   0
        38    995.6295    965.3752 307.4946375  +6.3101914     937.3167     1386.706     1265.089     86.46009     173.4735     346.9471      1.520     4.89     1084.289     61.18548     146.3817         9     1.045     0.647 -88.66   0
        39    468.5069    963.7556 307.7136413  +6.2932545     1189.443     1749.169     1681.104     87.01256     173.5426     347.2577      1.675     4.13     1094.909     61.18548     160.4529        14     1.225     0.828  66.07   0
        40     27.2160    962.9976 307.8969527  +6.2787585     2156.297     3320.291     3511.175     86.59853     173.1971     346.9125      1.618     3.65     1095.255     61.18548     301.5867        18     1.307     0.835  59.27   0
        41    877.5173    961.2108 307.5438381  +6.3079737     1176.398     1987.981     2846.892     86.59853     173.2662     346.9471      2.107     5.62     1085.951     61.18548      215.007        15     1.418     0.891  72.50   0
        42    969.4846    959.0596 307.5057091  +6.3119277      783.618     861.0293     857.6857     87.15012     173.6806     347.2231      1.378     4.99     1084.108     61.18548     124.7926         7     1.093     0.645  24.56   0
        43    949.3348    958.5240 307.5140969  +6.3114773     840.7014     1060.629     715.3154     87.15012     173.6116     347.0506      1.350     5.78     1084.227     61.18548     129.5243         8     1.330     0.706  40.04   0
        44    570.9169    957.6901 307.6713086  +6.2991861     1721.935     2686.252      2652.89     86.73676     173.8874     347.2231      1.631     4.24     1093.511     61.18548     225.2166        16     1.245     0.924  52.75   0
        45    294.3891    959.1118 307.7861176  +6.2893361     690.4387     1209.551     1100.938     86.59853     173.3353     346.9816      1.878     3.54     1096.369     61.18548      117.191         5     0.792     0.457  74.73   0
        46   1002.0096    957.5554 307.4922492  +6.3136323     1035.682     1404.521     1428.196     86.46009     173.4735     346.8089      1.374     5.27     1083.855     61.18548     161.2554        12     1.121     0.984  -8.90   2
        47    610.0963    954.1915 307.6551526  +6.3019408     1209.731     1852.167     1564.627     86.73676     173.1971     346.9125      1.644     3.90      1092.48     61.18548     214.0216        11     1.144     0.699  55.73   0
        48     59.8377    954.5638 307.8836891  +6.2833370     772.7754      1220.31     1819.237     86.73676     173.4735     346.9125      1.872     4.49     1095.275     61.18548     112.4624         7     1.115     0.514  49.17   0
        49    290.0041    951.7447 307.7881874  +6.2922303      1540.82     2537.352     2742.323     86.32142     173.4044     346.8089      1.707     4.68      1096.38     61.18548     199.3687        14     1.276     0.822  67.67   0
        50    756.7595    947.6272 307.5944537  +6.3095517     759.9002     1247.818     1652.272     86.59853     173.4044     346.9471      2.057     4.24     1089.283     61.18548     120.9479         7     1.384     0.370  80.79   0
        51    894.3135    944.2883 307.5374288  +6.3155201     7698.955     11003.94     11052.88     86.73676     173.9563     347.2577      1.517     3.44     1084.643     61.18548     1063.799        26     1.366     0.904  69.30   0
        52    430.3402    941.6038 307.7302401  +6.3011211      2140.41     3268.251     3264.813     86.32142     173.4735     346.8434      1.623     3.91     1095.143     61.18548      297.413        20     1.360     0.922  63.66   0
        53    331.9673    939.9536 307.7711556  +6.2985054     9110.014     14610.55     15017.83     86.73676     173.6116     347.0506      1.681     3.64     1095.818     61.18548     1155.793        34     1.526     1.068  68.72   0
        54    252.0462    938.9373 307.8043851  +6.2962440     6779.652     11041.91     11920.12     86.87477     173.4735     347.1887      1.750     3.80     1095.916     61.18548     795.0642        39     1.640     1.132  72.43   0
        55    579.9669    933.3491 307.6683683  +6.3095376      1005.59     1622.867     1611.487     86.87476     173.6806     347.0506      1.560     4.38     1092.748     61.18548     160.3458         9     1.066     0.635  76.62   0
        56    910.1163    929.6634 307.5313549  +6.3220848     1215.047     1516.441     2358.683     87.15012     173.6806     347.0851      1.514     5.11     1083.358     61.18548     167.0366        10     1.085     0.679  83.00   0
        57    866.7190    928.1786 307.5494313  +6.3212506     930.0735     1485.422     1491.885     86.73676     173.2662     347.0851      1.720     3.53     1084.866     61.18548     155.0626         8     1.084     0.604  25.82   0
        58    409.1099    926.6968 307.7395606  +6.3065638     568.0892     746.3398     779.9349     87.01256     174.0939     347.1196      1.468     5.14      1095.12     61.18548     86.52515         6     1.097     0.682  85.39   0
        59    977.4770    925.3208 307.5035195  +6.3261228     867.6542     1160.954     1476.253     87.28748     173.8874     347.2577      1.672     3.44     1082.219     61.18548     179.2993         9     1.124     0.582  42.78   0
        60    839.6692    923.6412 307.5608196  +6.3222214     565.6888       601.49     661.4605     86.87477     173.6116     347.1887      1.386     4.23     1085.522     61.18548     78.00134         6     1.108     0.460 -84.50   0
        61    746.5106    922.3872 307.5995583  +6.3196294     1682.671     2467.676     3380.116     86.73676     173.3354     346.9816      1.812     4.22     1088.429     61.18548     238.2532        17     1.347     0.853  54.11   0
        62    570.2608    922.2472 307.6727733  +6.3137962     641.4125      1022.32     396.9187     86.87477     173.5426     347.1887      1.658     5.41     1092.665     61.18548     102.0972         5     1.226     0.673  72.83   0
        63    610.8347    919.1926 307.6560227  +6.3164143     712.2097       1088.6      827.114     86.46009     173.4044      346.878      1.613     4.41     1090.997     61.18548     142.2126         6     1.372     0.403  68.03   0
        64    977.6698    918.0152 307.5036842  +6.3291453     1426.206     2253.342     3524.439     86.46009     173.5426     347.0161      1.749     4.49     1081.998     61.18548      206.688        13     1.212     0.741  63.23   0
        65    531.5259    917.9443 307.6890075  +6.3142764     1029.114     1842.288     1752.097     86.87476     173.4735     347.0506      1.895     5.05     1093.547     61.18548     176.1818        11     1.217     0.990  89.12   0
        66    665.0734    915.8838 307.6336043  +6.3195936     2392.347     3670.469     3845.669     87.15012     173.9563     347.1541      1.648     3.67     1089.564     61.18548     301.5797        20     1.203     1.012  64.11   0
        67   1015.9013    915.3833 307.4878912  +6.3315054     731.5645     1055.237     1392.059     87.01256     173.4044     346.9125      1.543     4.20     1081.429     61.18548     102.7865         6     0.767     0.658  58.99   0
        68    955.3423    913.8722 307.5130977  +6.3301117     679.1931     757.5111     1217.944     87.15012     173.6116     347.1196      1.039     3.38     1082.176     61.18548     123.2404         6     0.960     0.432  76.71   0
        69     61.6611    912.0384 307.8843695  +6.3009535     2658.992     4562.886      4838.18     87.01255     173.6806     347.1196      1.792     4.55     1094.646     61.18548     357.3267        23     1.578     0.876  79.05   0
        70    825.9771    912.1357 307.5668932  +6.3265145     960.6747     1414.263     1871.822     86.59853     173.6116     346.9816      1.566     3.76     1085.495     61.18548     163.1609         9     1.109     0.627  81.14   0
        71     79.2637    911.2316 307.8770856  +6.3018783     1838.371     3083.451     2850.239     86.73676     173.6806     347.0851      1.722     4.05     1094.707     61.18548     260.0378        20     1.376     0.936  71.20   0
        72    943.0686    911.5217 307.5182749  +6.3306730     990.8596     1426.551     1056.302     87.15012     173.8185     347.1196      1.516     4.31     1082.308     61.18548      148.137        10     1.083     0.717  75.78   0
        73    205.2892    911.0440 307.8247472  +6.3061895      2130.17      3299.89     3414.469     87.01256     173.4735     347.1541      1.647     3.57     1095.511     61.18548      259.342        20     1.233     0.980  59.04   0
        74    344.4840    907.0966 307.7670644  +6.3124893     926.5325     1691.838     2123.383     87.01256     174.0251     347.1887      2.153     6.20     1095.283     61.18548     112.6592        11     1.254     0.872 -65.99   0
        75    239.1236    907.7822 307.8108040  +6.3086719     836.2484     1433.186     1486.308     86.46009     173.3353     347.0851      1.736     4.84      1095.71     61.18548     108.0922         9     0.972     0.683  72.80   0
        76    659.5836    904.9523 307.6362521  +6.3239230     6984.868     10555.91     10956.51     86.46009     173.5426      346.878      1.610     3.49     1089.248     61.18548     939.7948        31     1.407     1.046  72.19   0
        77    797.4380    905.7921 307.5789609  +6.3281809     725.3129     1137.498     1069.082     86.18253     173.3354     346.8089      1.412     4.03     1086.195     61.18548     123.3757         6     0.870     0.535  51.31   0
