#   1 NUMBER                 Running object number                                     
#   2 X_IMAGE                Object position along x                                    [pixel]
#   3 Y_IMAGE                Object position along y                                    [pixel]
#   4 ALPHA_J2000            Right ascension of barycenter (J2000)                      [deg]
#   5 DELTA_J2000            Declination of barycenter (J2000)                          [deg]
#   6 FLUX_APER              Flux vector within fixed circular aperture(s)              [count]
#   9 FLUXERR_APER           RMS error vector for aperture flux(es)                     [count]
#  12 FLUX_RADIUS            Fraction-of-light radii                                    [pixel]
#  13 FWHM_IMAGE             FWHM assuming a gaussian core                              [pixel]
#  14 BACKGROUND             Background at centroid position                            [count]
#  15 THRESHOLD              Detection threshold above background                       [count]
#  16 FLUX_MAX               Peak flux above background                                 [count]
#  17 ISOAREA_IMAGE          Isophotal area above Analysis threshold                    [pixel**2]
#  18 A_IMAGE                Profile RMS along major axis                               [pixel]
#  19 B_IMAGE                Profile RMS along minor axis                               [pixel]
#  20 THETA_IMAGE            Position angle (CCW/x)                                     [deg]
#  21 FLAGS                  Extraction flags                                          
         1     80.0225     25.1864 307.9004578  +6.6510526     4037.205     12388.62     15091.84      90.9978     181.9231     364.0636      2.763     7.07     1195.557     64.19128     502.1456        61     2.153     1.787 -81.80   0
         2    622.6539     16.8004 307.6748044  +6.6726409     8060.256     23911.01     28337.25     90.41634     181.7056      363.665      2.653     6.57     1167.428     64.19128     799.4031        73     2.061     1.897 -81.59   0
         3    521.4106     14.2528 307.7170476  +6.6703191      2073.89     4199.196     5200.941     90.56205      182.068     363.8825      2.360     8.43     1172.117     64.19128     240.1832        24     2.058     0.965  78.00   3
         4    524.4941     13.0227 307.7158053  +6.6709299     1955.204     3645.484     4552.669     91.28714     181.9231     364.0274      2.060     7.05     1172.036     64.19128     210.1852        25     1.892     1.044  77.26   3
         5    247.9647      9.4136 307.8310695  +6.6631871     3401.704     11246.37     15084.22     90.70753     181.9231     363.9912      3.258    11.09     1193.244     64.19128     456.7472        74     3.124     1.923 -32.60  16
         6    427.9877      8.5791 307.7561401  +6.6695458      8961.35     28848.32     35185.71      90.9978     181.7781     364.0636      2.808     7.37     1179.536     64.19128      916.955        84     2.245     1.963 -81.20  16
         7    609.0817      7.1736 307.6807820  +6.6761647     1596.007     4770.413     6321.869     91.14259     181.9231     356.8574      2.987     8.98     1166.991     64.19128     162.8771        43     2.002     1.690  58.55  16
         8     14.9593      9.6707 307.9280758  +6.6552801     986.9207     2239.968     2320.875     91.14259     182.1404     364.2447      2.163     7.09     1197.399     64.19128     121.8203        14     1.738     0.811 -52.88  16
         9    905.4589      7.7686 307.5573494  +6.6857767     1193.755     2695.007     3446.001      90.9978     182.1404      361.118      2.459     7.94     1160.383     64.19128     145.4512        17     1.402     1.258  83.28  16
        10    237.5569      6.3809 307.8355062  +6.6640915     1253.442     3314.447     4922.146     90.70753     181.9956     349.3516      3.100     9.16     1193.064     64.19128     165.4957        24     1.902     1.418 -54.19  18
        11    878.7334   1001.5329 307.5349197  +6.2744523     1272.809     2072.222     1588.305     91.28714     182.1404     364.2085      1.736     4.93     1222.948     64.19128     159.0248        15     1.347     0.938 -74.65   0
        12    221.5126   1023.8381 307.8076058  +6.2433510     543.4796     486.4184     450.7179     76.85818     141.6636     270.5676      1.321     3.62     1224.694     64.19128     111.8143         5     1.051     0.359   4.90  24
        13    201.5484   1000.3836 307.8167082  +6.2523705     1688.327      3365.15     3367.589     90.70753     182.2128     363.8463      2.053     5.69     1224.007     64.19128     171.1467        23     1.476     1.135 -48.62   0
        14    704.6844    997.2986 307.6074799  +6.2704180      5755.51     10452.09     11286.51     91.28714     182.6465     364.2447      1.949     4.14     1223.729     64.19128      664.576        37     1.556     1.300 -85.06   0
        15    419.7231    997.7129 307.7260277  +6.2607571     2705.915     5481.394     6046.805     91.28714      182.502     364.2809      2.146     4.86     1225.358     64.19128     300.5039        33     1.595     1.290 -79.58   0
        16    560.9944    996.3016 307.6672983  +6.2660479     3117.172     6161.799     6977.506      90.9978     181.7056     363.8463      2.008     5.02     1225.088     64.19128     311.9292        34     1.690     1.273 -79.99   0
        17    697.3175    996.5444 307.6105705  +6.2704845     894.3416     1463.183     1772.472     91.28714     182.1404     364.2809      1.908     6.64     1223.857     64.19128     111.3362        11     1.335     1.029 -17.16   1
        18    735.7151    993.0384 307.5947128  +6.2732093      718.197     1522.229     2069.698     91.28714      182.068     364.1723      2.496     5.04     1223.023     64.19128     120.6486         7     0.981     0.733  79.60   2
        19    944.2651    986.6853 307.5081540  +6.2827594     6439.303     10459.99     10926.61     91.43147     182.3575     364.2447      1.737     3.60     1219.884     64.19128     834.0426        34     1.432     1.223 -83.41   0
        20    698.1245    987.0993 307.6105540  +6.2744123     829.3696     1420.681       1925.1     90.70753     182.2852     364.0636      1.713     5.29     1223.293     64.19128     106.6459         8     1.066     0.742 -73.94   0
        21    229.1381    986.4798 307.8057019  +6.2590346     891.2151     1498.723     1272.562     91.43147     182.2128     364.1723      1.848     6.01     1224.216     64.19128     112.8987        10     1.340     1.026  53.26   0
        22    703.7985    984.9694 307.6082652  +6.2754806     2110.417     4190.863     4924.759     90.56205     181.9231      363.955      2.158     5.74     1223.092     64.19128     235.8065        29     1.635     1.239 -54.47   0
        23    351.0513    982.6191 307.7551108  +6.2647000     1385.758     2604.388     3161.757     90.70753     182.2128      363.955      2.106     7.50     1224.962     64.19128     152.1687        19     1.328     1.185  59.82   0
        24    961.4179    979.1605 307.5012707  +6.2864363     706.0293     1299.504     1156.526     90.85278     181.9231     363.9187      1.583     3.46     1219.428     64.19128     105.4517         5     0.800     0.433  69.41   0
        25    737.5553    971.8953 307.5946616  +6.2820028      6267.67     11940.26     12427.64     91.28714      182.068     364.3171      1.996     4.27     1221.912     64.19128     713.3518        43     1.617     1.406 -80.42   0
        26    532.9993    972.5980 307.6797486  +6.2749052     2835.015     5890.901     6691.481     90.56205      181.633       363.81      2.213     4.76     1224.577     64.19128     355.8569        36     1.625     1.411 -69.94   3
        27    530.3377    964.7960 307.6811201  +6.2780388     5750.932     12039.67     13433.25     90.56205     181.8506     363.8825      2.170     4.84     1224.295     64.19128     580.1079        47     1.715     1.514 -78.77   2
        28    503.4789    974.7304 307.6919588  +6.2730410     658.6426     1191.995     1267.292     91.57557     182.4298      364.136      2.363     4.99     1224.666     64.19128      112.902         5     1.201     0.587  25.37   0
        29    283.3596    971.5059 307.7836514  +6.2670300     10170.27     21622.89     24299.88     91.43147      182.068     364.2809      2.233     4.86     1224.718     64.19128     1022.724        65     1.912     1.652 -54.10   0
        30    798.1265    971.1142 307.5694854  +6.2843385     912.2932     1292.538     1111.051     91.43147      182.502     364.1723      1.533     2.58     1221.813     64.19128     145.3586         8     0.792     0.656 -56.79   0
        31    898.8436    965.2579 307.5277760  +6.2901019     7817.728      13255.8     13146.54     91.14259      182.068     364.2447      1.779     3.66     1220.042     64.19128     995.7822        40     1.536     1.245 -75.70   0
        32    872.3983    961.5094 307.5389061  +6.2907722     10834.31     19332.62     20385.48     90.41634     181.7781     363.8825      1.911     4.00     1220.615     64.19128      1366.62        49     1.565     1.455 -85.98   0
        33    583.7574    961.2674 307.6590130  +6.2812753     804.0277     1940.691     2014.431     91.28714      182.068     364.2447      2.411     8.96     1223.777     64.19128     114.6398        12     2.112     1.062 -84.95   2
        34    994.0854    960.8043 307.4882969  +6.2951011     4688.119     7536.704     7091.471     90.70753     181.7056       363.81      1.683     3.63     1218.027     64.19128     611.4258        31     1.412     1.132 -79.74   0
        35    516.8304    960.5146 307.6868851  +6.2793571     2922.154     6261.988     7417.333     91.28714     181.9231     364.0274      2.320     5.71     1224.166     64.19128      302.119        42     1.790     1.529  13.75   0
        36    626.1893    958.8929 307.6414384  +6.2836685     1127.816      1746.91     1382.511      90.9978     181.7056     363.9187      1.751     5.19     1223.134     64.19128     138.9152        10     1.057     0.976 -48.79   0
        37    469.8901    957.2468 307.7065264  +6.2791423     1385.742     3000.514     2613.841     91.28714     181.9956     364.3171      2.109     6.27       1224.2     64.19128      159.407        25     1.505     1.273 -31.96   0
        38    889.7070    958.8245 307.5317948  +6.2924557     414.4208     468.8643     16.85096     91.43147     181.8506     363.9912      1.292     3.69     1219.959     64.19128     94.16943         5     1.208     0.325  -9.80   0
        39    904.1793    949.0232 307.5261036  +6.2969842     38053.75      66405.2     70282.17      90.9978     181.9231     364.0999      1.846     3.85     1219.118     64.19128     4661.424        65     1.641     1.362 -75.15   0
        40    212.0854    948.0761 307.8141010  +6.2743254      1126.38       2647.2     2692.794     91.43147      182.502     364.2447      2.264     6.64     1223.452     64.19128     149.5165        20     1.534     1.305  86.47   0
        41    802.1321    942.9812 307.5687688  +6.2960909     1807.958     3615.854     3955.868     90.85278      182.068     364.0636      2.110     5.47     1220.276     64.19128     196.1409        27     1.555     1.222 -85.22   0
        42    750.3545    940.7427 307.5903886  +6.2952947     5264.593     9961.382     11341.16     91.28714     182.1404     364.2447      2.080     4.43     1220.273     64.19128     592.7986        39     1.615     1.335 -67.05   0
        43    220.2867    940.0728 307.8109607  +6.2779048     1010.568     2088.632     1998.861     91.43147     182.4298     364.1723      2.110     7.14     1223.412     64.19128     106.1793        16     1.342     1.063  43.33   0
        44     44.7106    938.3480 307.8840687  +6.2727451     2148.373      4261.47     4614.233     91.28714     181.9231     364.3171      2.066     5.31     1221.904     64.19128     240.9668        29     1.511     1.330  86.20   0
        45    938.4723    935.7827 307.5122810  +6.3035908     6115.503     10202.34     10175.58     90.70753      182.068     364.0636      1.780     3.67     1217.938     64.19128     819.4515        36     1.460     1.225 -75.21   0
        46    912.0767    927.6238 307.5235394  +6.3060846     1785.375     2830.677     3075.949     90.85278     181.9956      364.136      1.716     4.12      1218.03     64.19128     232.7388        15     1.251     0.820 -52.82   0
        47    633.0530    923.4343 307.6397820  +6.2985416     3259.611     6590.302     6766.647     91.14259     182.1404     364.0636      2.086     4.96     1221.645     64.19128     339.5811        32     1.564     1.313 -52.74   0
        48    245.3876    923.8931 307.8010665  +6.2854257     2912.277       6500.5     7112.365      90.9978     181.8506      363.955      2.234     5.47     1223.531     64.19128     296.9934        37     1.626     1.460  88.72   0
        49    771.7599    923.5001 307.5820645  +6.3031276     916.4083     1481.232     1219.524     91.28714     181.9956     364.4256      1.723     6.12     1219.289     64.19128     118.9016        13     1.331     0.792 -24.07   0
        50     14.3907    921.6136 307.8972528  +6.2786411     1634.028      3310.25     3509.616      90.9978     181.8506     364.0636      2.051     5.43     1221.467     64.19128     192.5505        25     1.535     1.159  81.29   0
        51    456.5909    921.2667 307.7132790  +6.2935590     670.0206     1163.067     899.0065     90.70753     181.9231     364.0999      1.598     3.67     1223.363     64.19128     116.4962         7     0.957     0.714  38.19   2
        52    864.7689    920.4368 307.5434668  +6.3074825     782.6514     1353.313     1169.163     90.85278     181.8506     363.9187      1.693     4.84     1217.964     64.19128     119.6268         7     1.205     0.550 -70.17   0
        53    557.3887    915.7995 307.6715236  +6.2991758     1117.437     2354.748     1676.553     90.85278     181.7781      363.955      1.970     5.87     1222.553     64.19128     156.9968        15     1.384     0.938 -52.81   0
        54    988.5255    916.0308 307.4921196  +6.3134090     828.9792     1314.757      1860.76     91.14259     182.1404     364.1723      1.597     3.76     1215.082     64.19128     124.1896         5     0.757     0.616  -4.80   0
        55     46.5766    913.4284 307.8841402  +6.2830991     683.0773     1219.401     2034.961     90.70753     181.9956     363.9912      2.559     4.73     1221.502     64.19128     123.0038         7     1.124     0.565  43.42   0
        56    597.0448    912.2682 307.6551425  +6.3019548     1005.142     1894.129     1094.039     91.28714      182.068     364.2085      1.934     6.33     1221.915     64.19128     106.5518        13     1.289     0.956 -41.64   0
        57    276.9224    910.7192 307.7883931  +6.2919198     856.4703      2026.64     2241.411     91.57557     182.4298     364.3532      2.242     8.87     1223.932     64.19128     130.1173        17     1.792     1.225 -13.33   0
        58    881.1714    902.7044 307.5372401  +6.3153508     5915.677      10710.8      10888.2     91.43147     181.8506      364.136      1.924     4.07     1216.954     64.19128     696.5087        40     1.584     1.306 -74.34   0
        59    744.5753    905.2176 307.5939938  +6.3097749      584.294     1031.294      1410.05      90.9978     181.9231     364.0999      1.788     4.62     1218.434     64.19128     84.14197         5     1.180     0.515  30.64   0
        60    417.2684    900.2007 307.7303546  +6.3009481     1397.621     3230.014      3141.84     90.70753      181.633      363.955      2.306     7.37      1223.13     64.19128     155.7222        26     1.520     1.395  89.09   0
        61    318.9753    898.5045 307.7713104  +6.2983687     5798.879     13483.61     15131.01     91.43147     181.8506     364.0274      2.313     5.39     1223.776     64.19128     598.8562        52     1.811     1.622 -82.30   0
        62    239.1374    897.5207 307.8045626  +6.2961086     4555.671     10165.09     11126.81     91.43147     182.2128     364.1723      2.253     5.11     1223.083     64.19128     483.0491        45     1.739     1.531  84.62   0
        63    896.8217    888.4891 307.5312075  +6.3217415     950.3094     1804.133     1588.638     91.28714     181.9231     364.0636      2.024     6.10     1216.115     64.19128     123.0901        10     1.042     1.004  19.60   0
        64    733.2758    880.3484 307.5995360  +6.3196705     1088.143     2367.533     2251.546     91.28714     182.2128     364.1723      2.034     7.08     1217.383     64.19128     136.0798        15     1.550     1.033  81.86   0
        65    964.5471    876.6672 307.5034245  +6.3288715     1093.536      1837.76     2391.078     91.28714      182.068     364.0636      2.322     5.79     1213.391     64.19128     156.2719        13     1.386     0.939 -85.59   0
        66    518.6423    877.5474 307.6889411  +6.3136834     519.7922     1252.284     1243.139     91.28714     182.2128     364.2085      2.163     4.82     1221.784     64.19128     88.02771         6     1.439     0.457 -39.36   0
        67    651.7609    874.5181 307.6336523  +6.3193671     1670.752     3678.933     4352.422     91.28714     182.2128     364.0999      2.420     7.28     1218.365     64.19128     172.6602        27     1.627     1.370 -78.45   0
        68     48.8670    870.7574 307.8846391  +6.3007985     2064.693     4552.115     5460.237     91.28714      182.068     364.2447      2.325     5.35     1221.033     64.19128     235.9242        32     1.552     1.402 -85.26   0
        69     66.3264    869.9946 307.8774007  +6.3016979     1409.708     3080.456     2538.812     90.85278      181.633     364.0636      2.102     6.46     1221.005     64.19128     172.9352        22     1.468     1.242  72.50   0
        70    812.2499    870.9564 307.5669911  +6.3261743     738.3934     1227.817     918.6577     91.43147      182.068     364.2085      1.855     4.32     1215.358     64.19128     120.1241         6     1.142     0.465 -16.29   0
        71    192.3515    869.5908 307.8249781  +6.3060800     1361.368     3181.474     4103.188     90.70753     181.9231       363.81      2.571     7.66      1222.28     64.19128     142.6978        21     1.587     1.284 -40.36   0
        72    646.5424    863.3815 307.6362005  +6.3237930     4546.067     9973.055     11139.28     90.85278      182.068     363.9187      2.225     5.09     1217.792     64.19128     461.2748        46     1.751     1.508 -71.78   0
        73      7.5028    862.1998 307.9021408  +6.3029477     822.2147     1615.536     1482.553     90.70753     181.7056     358.9206      2.131     5.13     1220.863     64.19128     114.4263         9     1.171     0.636  50.72  16
        74    884.0583    859.7606 307.5374881  +6.3331831     2304.166     4306.521     4518.328     91.28714     182.2128     364.2809      1.946     4.77     1214.606     64.19128     296.8418        28     1.618     1.125 -74.00   0
        75     20.3950    860.8168 307.8968238  +6.3039506     742.2954     1370.667     1432.229     90.85278     181.7781     363.9912      1.882     6.17     1220.814     64.19128      119.744         7     1.654     0.647 -49.76   0
        76    329.6579    856.8150 307.7682801  +6.3159431     9423.837     22723.45     25744.88     90.56205      182.068     363.8463      2.362     5.56     1222.694     64.19128     984.8965        58     1.838     1.656 -85.24   0
        77     65.5046    857.7246 307.8781601  +6.3067378     909.8596      1474.73     1563.236     90.85278     182.3575     364.2447      1.842     4.44     1220.757     64.19128      132.672         7     1.133     0.495 -86.13   0
