#   1 NUMBER                 Running object number                                     
#   2 X_IMAGE                Object position along x                                    [pixel]
#   3 Y_IMAGE                Object position along y                                    [pixel]
#   4 ALPHA_J2000            Right ascension of barycenter (J2000)                      [deg]
#   5 DELTA_J2000            Declination of barycenter (J2000)                          [deg]
#   6 FLUX_APER              Flux vector within fixed circular aperture(s)              [count]
#   9 FLUXERR_APER           RMS error vector for aperture flux(es)                     [count]
#  12 FLUX_RADIUS            Fraction-of-light radii                                    [pixel]
#  13 FWHM_IMAGE             FWHM assuming a gaussian core                              [pixel]
#  14 BACKGROUND             Background at centroid position                            [count]
#  15 THRESHOLD              Detection threshold above background                       [count]
#  16 FLUX_MAX               Peak flux above background                                 [count]
#  17 ISOAREA_IMAGE          Isophotal area above Analysis threshold                    [pixel**2]
#  18 A_IMAGE                Profile RMS along major axis                               [pixel]
#  19 B_IMAGE                Profile RMS along minor axis                               [pixel]
#  20 THETA_IMAGE            Position angle (CCW/x)                                     [deg]
#  21 FLAGS                  Extraction flags                                          
         1    255.8788     46.6492 307.8303393  +6.6637216     6570.102     13679.49     15881.57     78.06242     155.8158     311.4149      2.217     5.83     825.6149     54.89193     869.3647        49     1.946     1.259  63.15   0
         2    703.1249     19.2636 307.6454642  +6.6900814     5245.708     10590.18     11742.32     78.30907     155.7539     311.3839      2.132     6.27     814.8757     54.89193     816.6914        41     1.831     1.196  58.76   0
         3    623.5767     18.5106 307.6785375  +6.6877199     2699.632     5487.911     5844.161     78.06242      155.568      311.291      2.099     6.55     814.8073     54.89193     426.1384        36     1.915     1.130  60.33   0
         4    423.6490     14.6741 307.7617245  +6.6825773     4638.407     9660.755     10679.63     78.06242     155.8158     311.4458      2.192     5.47     817.5744     54.89193     676.9674        45     1.899     1.294  59.39   0
         5    671.2203     14.5601 307.6588773  +6.6909517      652.902     1171.077     930.7443     77.69099      155.568     311.1671      1.930     3.99     814.7513     54.89193      129.558         6     1.121     0.480 -73.15   2
         6    320.2029      9.6071 307.8048704  +6.6811833     9251.135     19122.93     21369.88     77.44238      155.444       311.26      2.164     5.99     824.9958     54.89193     1291.552        55     1.921     1.313  61.14  16
         7     24.5597     14.1691 307.9275309  +6.6693172     6039.439     12565.76     13745.13     77.56679      155.568       311.26      2.156     5.76      824.162     54.89193     865.0208        49     1.933     1.268  64.09   0
         8     93.7365      9.9509 307.8989373  +6.6733971     1862.841     3828.516     4214.756     77.93881     155.6919     311.4767      2.140     6.11     825.2443     54.89193     255.0547        28     1.797     1.123  64.42  16
         9     85.3284      9.1717 307.9024565  +6.6734346     1195.977     2239.889     2806.789       77.815     155.7539     311.3529      2.104     6.36     825.0212     54.89193     183.9554        20     1.781     0.937  59.09  16
        10    789.3937      9.2018 307.6099624  +6.6971312      535.272     721.0963     905.3012     77.44238      155.444      311.229      1.299     3.06     813.2361     54.89193     94.88593         5     0.735     0.445  69.94   1
        11    386.3598      7.4979 307.7774580  +6.6842838     1685.591     3545.517     3585.058     78.06242       155.63     307.4889      2.088     5.87     820.9185     54.89193     233.6279        26     1.635     1.138  57.74  16
        12    647.2097      3.3808 307.6692291  +6.6947603     8035.328     15129.11      15752.1     77.69099     148.7237     264.8318      1.956     5.54     814.3444     54.89193     1133.884        41     1.686     1.245  55.14  24
        13    812.1176      3.3161 307.6007196  +6.7003234     1208.507     2423.552     2761.519       77.815     148.6589     264.1757      1.974     5.42     812.6154     54.89193     187.0848        19     1.747     0.819  54.44  24
        14    525.0412      3.1650 307.7199908  +6.6907418     1017.286       1925.4     1888.203       77.815     146.8972      261.903      1.924     6.48     814.8217     54.89193     157.9639        15     1.540     0.922  64.18  24
        15    882.9405      1.8251 307.5713457  +6.7033138     1080.906     1447.154     1445.207     73.35008     131.1538     242.1624      1.358     3.59      812.189     54.89193     181.3408        11     1.071     0.835  -7.87  24
        16    639.3434      1.2494 307.6725689  +6.6953759     1608.473      2204.21     2307.576     66.88712     122.6439     233.1143      1.104     2.24     814.2602     54.89193     524.4001        12     1.315     0.507   2.99  25
        17    247.6814      1.6045 307.8352683  +6.6820411     3610.898      4476.18     4639.833     71.08028     127.5762     238.6328      1.198     2.52     825.3393     54.89193     719.9783        17     1.286     0.695   0.92  24
        18    409.1540      1.1977 307.7682013  +6.6876527     1624.991     2196.798     2460.788     65.72378     121.4589     231.8286      1.041     2.34     818.3841     54.89193     531.8693        10     1.154     0.387  -5.06  24
        19    617.8719    984.6521 307.6483712  +6.2886513     749.4467     1270.927     1177.964     77.93881     155.7539     311.4458      1.786     4.71     847.1483     54.89193     112.5089         8     0.912     0.690   8.57   0
        20    950.6558   1023.1515 307.5089316  +6.2839150     2746.836      4123.12     3958.154     73.87402     131.4476     242.7589      1.587     4.72     843.3062     54.89193     374.3627        20     1.531     0.842   6.10  24
        21    726.5676   1022.8818 307.6019639  +6.2765164     712.7564     1354.948     1394.085     76.06049     134.7795     246.6988      1.997     6.58     848.4089     54.89193     112.7414         8     1.719     0.706  50.67  24
        22    710.8401   1022.3506 307.6085105  +6.2762080     1834.579     3223.185     3660.716     78.06242     141.5488     254.6985      1.923     6.42     848.2286     54.89193     226.9136        24     1.581     1.037  49.09  24
        23    433.6272   1023.1491 307.7235565  +6.2665640     634.3536      906.015     618.2487     73.61252     131.5209     242.5205      1.585     5.97     848.2861     54.89193     102.4019         7     1.177     0.851  11.44  24
        24    357.7960   1020.6355 307.7551186  +6.2650494     1397.616     2888.194       3357.4     77.19297     155.3199     277.5253      2.243     7.46     848.5125     54.89193     203.0377        22     1.818     0.961  74.54  24
        25    236.7107   1023.6378 307.8052786  +6.2597306     352.5698     806.6055     862.9726     68.31345     124.3614     234.6808      1.996     3.47     847.9073     54.89193     79.76672         4     0.938     0.371 -18.06  26
        26    809.1187    980.9745 307.5691032  +6.2965869     1611.441     3286.737     3530.221       77.815      155.568     311.4148      2.095     5.43     844.5209     54.89193     247.2112        27     1.732     1.075  64.44   0
        27    757.3229    978.9544 307.5906730  +6.2956841     4833.868     9965.835     11828.05     77.93881     155.8158     311.4149      2.249     5.40     845.9672     54.89193     624.2478        49     1.918     1.331  62.64   0
        28    226.5703    977.9539 307.8110310  +6.2782492     1111.338     2384.918     2977.299     77.56679     155.8776      311.291      2.235     7.13     847.3345     54.89193     145.7825        19     1.785     0.798  66.56   0
        29    545.3890    979.6022 307.6786304  +6.2883008     596.9662     776.2645     712.8444     77.69099      155.444      311.229      1.195     4.69     847.7807     54.89193     126.4843         7     1.294     0.483  -3.85   0
        30    945.5139    974.1899 307.5127083  +6.3039574     4838.814     9983.278     11243.36     77.69099      155.444       311.26      2.195     5.32     841.7253     54.89193      630.951        46     1.931     1.297  61.04   0
        31    192.1396    978.5626 307.8253025  +6.2768369     559.8154     963.6318     1047.909     78.06242     155.8158     311.4149      1.468     2.77     846.8136     54.89193     98.03156         5     0.723     0.459 -19.73   0
        32     51.6312    975.9022 307.8837166  +6.2731932      1969.97     4251.241     4836.181     78.06242      155.568     311.5077      2.157     5.97     843.6692     54.89193     298.6592        31     1.796     1.143  56.37   0
        33    919.4561    966.0077 307.5238005  +6.3064631     1478.104     3071.556     2053.788     77.44238       155.63     311.1671      2.206     6.11     842.2773     54.89193     209.9424        26     1.887     1.081  72.27   0
        34    779.0338    962.4690 307.5822141  +6.3032184      1049.06     1889.951     3181.336     77.93881     155.7539     311.4767      2.822     6.20     844.7457     54.89193     159.1258        14     1.412     0.987  86.55   0
        35    639.9852    961.5525 307.6399687  +6.2989307     3355.788     6808.832     7238.506     77.44238       155.63     311.1671      2.105     5.55     846.7197     54.89193     482.3669        36     1.769     1.175  59.85   0
        36    252.0822    961.8903 307.8009834  +6.2857410     3170.999     6494.603     7219.626       77.815     156.0013     311.5077      2.126     5.99     847.2323     54.89193     470.4194        33     1.822     1.089  60.03   0
        37    989.9242    961.9210 307.4946831  +6.3105093     620.7191     1103.338      1608.49     78.30907     156.0013     311.5077      2.008     4.74     839.8711     54.89193     93.58514         7     1.187     0.537 -83.75   0
        38     20.8604    959.4973 307.8970444  +6.2789265     1650.118     3183.294     3433.063       77.815     155.7539     311.5077      1.960     6.08     842.6674     54.89193     237.5421        24     1.761     0.995  71.38   0
        39    462.5799    960.2543 307.7136579  +6.2935044     758.7115     1316.171     444.2836     77.56679     155.7539      311.229      1.700     6.40      848.058     54.89193     108.9627        11     1.566     0.734  87.63   0
        40    872.0966    958.5928 307.5437102  +6.3079381     689.1344     1403.788     1373.271       77.815      155.382      311.198      2.263     6.30     843.4684     54.89193     92.26971         9     1.457     0.766  56.04   0
        41    564.9082    954.3271 307.6713785  +6.2993918     1285.397      2504.72     2747.476     77.93881     155.8776     311.4458      1.985     6.79       847.07     54.89193       202.72        20     1.753     0.945  68.49   0
        42    995.9706    953.5873 307.4924524  +6.3141524     723.5692     1618.936     1684.855     77.56679      155.506     311.3219      2.396     6.94     839.5718     54.89193     103.8694        11     1.280     1.055  75.41   0
        43    604.0848    950.5652 307.6552418  +6.3022612     989.7527     1846.263     1963.376     78.06242       155.63     311.3839      1.927     5.11     846.8371     54.89193     157.2443        12     1.523     0.815  57.56   0
        44     54.4530    951.3508 307.8833761  +6.2834244     656.2165      1284.25     2047.624     78.18584       155.63     311.4149      2.631     7.01     843.5665     54.89193     84.70947        10     1.357     1.015 -85.13   0
        45    284.2127    949.3405 307.7880695  +6.2920050     1072.482     2114.868     3238.891     77.44238     155.6919     311.1051      3.050     3.27     847.3096     54.89193     153.8679        12     1.084     0.697  81.08   2
        46    624.1731    946.5991 307.6470359  +6.3045734     2845.344     3185.392     2698.647     77.69099      155.444      311.229      0.832     3.22     846.6266     54.89193      904.615         6     0.746     0.404  26.29   0
        47    750.2548    944.3199 307.5947712  +6.3097463     635.6502     1356.836     1251.744     78.06242     155.7539     311.4458      2.012     6.17      844.845     54.89193     82.05371         9     1.433     0.746  51.74   0
        48    888.1782    940.9343 307.5376267  +6.3157674     5072.717     10611.46     11265.31     77.69099     155.7539     311.3529      2.131     5.56     842.4105     54.89193     665.7731        44     1.893     1.248  59.53   0
        49    424.5878    938.8112 307.7301522  +6.3010790     1705.826     2419.853     2539.306       77.815      155.568     311.3839      1.537     6.90     847.9034     54.89193     231.9641        19     1.740     0.932 -89.58   2
        50    422.3206    936.3348 307.7311769  +6.3020251     846.8159     1206.317     866.4352     78.30907     155.8158     311.3839      1.201     4.44     847.8903     54.89193     127.3197         7     0.986     0.594 -55.74   3
        51    325.7233    936.3939 307.7712748  +6.2987485     6915.944     14384.32     15614.07     77.69099     155.2578       311.26      2.128     5.56     847.6492     54.89193     1001.681        51     1.879     1.330  61.20   0
        52    245.7446    935.3205 307.8045116  +6.2964966     5232.149     10621.93     11515.49     78.18584     155.7539     311.4458      2.102     5.69     846.9172     54.89193     677.0082        42     1.919     1.161  61.95   0
        53    574.0609    930.1928 307.6683915  +6.3096634     962.3704     1655.644     1966.212     77.44238      155.568      311.198      1.875     5.49     846.6041     54.89193      135.994        15     1.427     0.842  68.13   0
        54    904.0438    927.0829 307.5315049  +6.3220176     739.6205     1341.737     1633.896     78.06242     155.7539     311.3839      1.962     4.41     841.3041     54.89193      110.679         6     1.028     0.538  79.93   0
        55    860.5370    925.2812 307.5496274  +6.3213039      661.313     1005.095     1091.305     78.18584     155.8158     311.4458      1.796     4.74     842.9355     54.89193     101.8763         6     0.943     0.675  10.89   0
        56    971.6398    922.4498 307.5035974  +6.3261937     663.0479     1215.132     1660.994     78.06242     155.7539     311.3529      2.049     5.91       839.45     54.89193     82.84766         9     1.270     0.775  33.98   0
        57    740.1746    919.0882 307.5998040  +6.3198253     1224.211     2493.544      3089.11     78.18584      155.568       311.26      2.199     7.13     844.2293     54.89193     162.6074        18     1.663     0.872  55.64   0
        58    604.3126    916.8339 307.6562825  +6.3161951     516.4418     718.2761     533.5759     78.06242       155.63     311.4149      1.645     4.21     846.2203     54.89193     70.50836         6     0.759     0.665  23.02   0
        59    971.5344    914.9748 307.5038919  +6.3292764     906.4725     1986.997     2421.748     77.69099     155.7539      311.291      2.348     7.16      839.306     54.89193     125.5753        15     1.416     1.014  67.16   0
        60    525.6420    915.1757 307.6889978  +6.3142360     938.3638     1839.064       1966.8     77.69099       155.63      311.198      2.175     6.26     846.8322     54.89193     168.3187        12     1.557     0.706  53.50   0
        61    658.8531    912.4766 307.6337869  +6.3198257     1919.798     3641.415     3959.401     78.18584     155.7539     311.4149      2.050     5.97     845.2803     54.89193     309.9656        26     1.815     0.944  57.17   0
        62    199.0345    907.4796 307.8248425  +6.3064157     1642.857     3168.921      3264.46     77.93881     155.8158     311.4458      1.995     5.80      846.244     54.89193     231.3978        28     1.881     1.030  68.53   0
        63     55.2788    908.3773 307.8844875  +6.3011935     2174.065     4454.938     5127.163     77.69099      155.444     311.3839      2.097     5.51     843.3937     54.89193      295.978        30     1.640     1.205  65.44   0
        64    937.2552    908.4708 307.5183414  +6.3308141     770.1469     1238.676     1228.441     77.93881     155.6919     311.3839      1.832     5.69     839.9002     54.89193     112.4647        10     1.246     0.731 -81.70   0
        65    820.5371    909.1248 307.5667761  +6.3266338     660.7963     1154.495     1287.917     78.30907     155.7539     311.3839      2.122     3.96      842.938     54.89193     103.1915         5     0.900     0.498  89.11   0
        66     72.7377    907.6956 307.8772632  +6.3020645     1498.565     3056.399      3365.92       77.815     155.8158     311.4767      2.226     7.69     843.7296     54.89193     211.7421        19     1.676     1.017  61.32   0
        67    653.5370    901.5831 307.6363603  +6.3241447      5119.84     10096.88     10984.32     77.56679     155.6919       311.26      2.077     5.31     844.9856     54.89193     799.7332        43     1.840     1.225  59.95   0
        68     13.5463    900.1699 307.9020889  +6.3031721     1040.568     1734.215     2113.496       77.815     155.8158     311.3219      2.203     4.77     842.6201     54.89193     179.6289        14     1.267     0.886  69.11   0
        69    891.2568    897.8755 307.5377938  +6.3336480     2084.862     4185.504     4684.172     78.06242     155.6919     311.3529      2.176     5.22     841.1399     54.89193     283.0753        32     1.862     1.152  58.88   0
        70     26.7327    899.0357 307.8966535  +6.3040858     814.7822     1320.816     1439.416     77.93881     155.8776     311.5077      1.916     4.89     842.8591     54.89193      147.871         9     1.137     0.955  -4.45   0
        71    336.4624    894.6564 307.7682252  +6.3163416     12154.81     24499.28     27579.85     78.18584     155.6919     311.4458      2.143     6.06     847.0255     54.89193     1985.132        64     1.930     1.395  59.59   0
        72     70.8906    895.4744 307.8784434  +6.3070475     1049.441      2140.59     2551.494     78.06242     155.9395     311.4458      2.332     6.70     843.6626     54.89193     149.2087        17     1.450     1.036  59.81   0
        73    387.6286    895.1826 307.7469665  +6.3178473     510.6977     846.5603      865.619     77.69099      155.568     311.3529      1.630     3.39      847.053     54.89193     88.55231         5     0.745     0.446 -71.80   0
        74    207.9150    894.8185 307.8215838  +6.3119423     1018.613     1709.568     1549.269     77.69099      155.506     311.3529      1.801     4.04     846.3836     54.89193     159.6907        11     1.026     0.766 -50.97   0
        75    414.3483    885.2172 307.7362102  +6.3228609     753.2558     1672.269     1179.058     77.56679     155.8158      311.136      1.801     6.78     846.8252     54.89193     125.6175        14     1.996     0.646  61.54   0
        76    100.0338    885.2073 307.8666929  +6.3122702     1229.311     2334.866      2435.51     77.56679      155.568      311.229      2.024     6.11     844.1842     54.89193     213.6499        17     1.624     0.921  74.29   0
        77    667.7905    882.1708 307.6310960  +6.3326379     705.5593     1463.663     2427.736     77.56679      155.568       311.26      3.225     6.59      843.998     54.89193     133.2283        13     1.605     0.942  44.75   0
