#   1 NUMBER                 Running object number                                     
#   2 X_IMAGE                Object position along x                                    [pixel]
#   3 Y_IMAGE                Object position along y                                    [pixel]
#   4 ALPHA_J2000            Right ascension of barycenter (J2000)                      [deg]
#   5 DELTA_J2000            Declination of barycenter (J2000)                          [deg]
#   6 FLUX_APER              Flux vector within fixed circular aperture(s)              [count]
#   9 FLUXERR_APER           RMS error vector for aperture flux(es)                     [count]
#  12 FLUX_RADIUS            Fraction-of-light radii                                    [pixel]
#  13 FWHM_IMAGE             FWHM assuming a gaussian core                              [pixel]
#  14 BACKGROUND             Background at centroid position                            [count]
#  15 THRESHOLD              Detection threshold above background                       [count]
#  16 FLUX_MAX               Peak flux above background                                 [count]
#  17 ISOAREA_IMAGE          Isophotal area above Analysis threshold                    [pixel**2]
#  18 A_IMAGE                Profile RMS along major axis                               [pixel]
#  19 B_IMAGE                Profile RMS along minor axis                               [pixel]
#  20 THETA_IMAGE            Position angle (CCW/x)                                     [deg]
#  21 FLAGS                  Extraction flags                                          
         1     35.0117     23.1262 307.9276768  +6.6690618     4244.527     11094.04     13590.59     89.80791     179.9034     360.3453      2.678     6.26     1159.241     63.55464     457.9883        64     2.222     1.681  56.73   0
         2    434.0463     23.4221 307.7617474  +6.6822738     2999.734     7957.876     9775.812     89.95171      180.334     360.3812      2.681     6.34     1135.449     63.55464      326.804        50     1.999     1.616  57.22   0
         3    330.5133     18.2731 307.8049722  +6.6809463     6027.577     16386.46     20887.02     90.52466      180.692     360.5604      2.829     6.54     1148.347     63.55464     595.0378        76     2.298     1.861  60.61   0
         4    104.4688     18.5125 307.8989540  +6.6732924     1182.729     3027.149     4023.048     90.52466     180.6205     360.5963      2.821     8.85     1157.808     63.55464      128.803        25     1.697     1.290  50.08   0
         5     95.5860     17.1889 307.9026923  +6.6735419     891.7994     2092.706     2740.356     90.09529     180.0471     360.4887      2.596     7.23     1158.029     63.55464      101.092        14     1.369     1.069  54.29   0
         6    396.8409     15.6057 307.7774827  +6.6842615     1037.645     2357.833     2683.828     89.51959     179.9753     360.2377      2.357     7.97     1139.961     63.55464     126.8657        16     1.362     1.304 -43.22   0
         7    657.3607     11.7305 307.6692833  +6.6945413     5508.592     13821.04     18687.99     90.23864      180.334     360.6321      3.116    12.53     1126.879     63.55464      573.162       100     4.078     1.922 -87.34  18
         8    649.0222      7.0266 307.6729097  +6.6962068     4662.065     11558.04      14008.1     89.80791     180.1188     352.1455      2.552     5.93      1126.84     63.55464      474.188        64     2.147     1.748  45.04  19
         9    821.5123     10.9650 307.6010489  +6.7003140     867.3271     2191.288      2690.66     90.38176     180.1906     360.5604      2.627     8.04     1120.039     63.55464     116.2892        14     2.031     0.891  42.24  16
        10    257.8682      8.6395 307.8355054  +6.6824993     2957.872     8250.085     10774.73     90.23864      180.334      360.668      2.914     7.09     1153.584     63.55464     318.6559        61     2.157     1.871  70.00  16
        11    534.8095     11.1014 307.7202649  +6.6907213     723.5214     1354.696     1107.133     90.09529     179.9034     360.3453      1.904     5.61     1129.838     63.55464     112.4932         7     1.277     0.694 -15.39   0
        12    418.8534      7.2137 307.7686137  +6.6884620     3955.783     10171.89     11942.21     89.66386     180.2623     353.5009      2.617     6.34     1137.233     63.55464     436.2239        58     2.150     1.652  59.20  16
        13    892.0128      8.5538 307.5718130  +6.7036505     831.2915     1948.795     2183.245     89.66386     180.1188     360.3094      2.552     7.57     1118.143     63.55464      118.115        14     1.417     1.131  33.43  16
        14    681.0546      4.8746 307.6596622  +6.6981613      7549.72     21405.98     30244.01     90.23864      180.334     328.5621      3.095     7.39     1125.497     63.55464     776.4906        94     2.623     2.021 -36.44  24
        15    734.0229      6.0063 307.6375978  +6.6994552     1051.126     2348.407     2491.085     89.80791     180.1188     342.0539      2.304     6.39     1120.406     63.55464     146.2744        16     1.571     1.084  58.86  16
        16     66.0360      4.0152 307.9154267  +6.6779941     767.2561     946.0663     131.3014     89.95171     178.0256     316.2953      1.423     4.52     1157.567     63.55464      122.436         5     0.791     0.735  57.55  19
        17     65.7312      1.3472 307.9156441  +6.6790859     946.6741     1885.157     1319.263     78.76675     143.4478     271.4312      1.883     5.60      1157.39     63.55464     131.8268        12     1.744     0.507  -2.57  26
        18    157.1626      1.3629 307.8776263  +6.6821387     661.2628      1275.24     1974.869     78.76674     143.6279     271.7167      2.519     6.16     1155.518     63.55464     148.5891         9     1.682     0.633   6.32  24
        19    555.7088    986.2518 307.6786195  +6.2886156      510.377     1014.274     875.5554     90.23864     180.1188     360.7396      2.104     4.87     1187.442     63.55464     90.77563         6     1.516     0.444  58.05   0
        20    300.9081   1017.8284 307.7834190  +6.2670827     9995.369     20893.96     24656.66     90.52466     180.0471     353.1717      2.272     4.97     1192.022     63.55464      1091.14        70     1.993     1.663  69.51  24
        21    237.6418    986.5679 307.8107635  +6.2778839     1094.719     2056.338     1966.916     89.80791     180.2623     360.3812      1.878     5.74     1191.558     63.55464     143.9244        11     1.137     0.816  43.98   0
        22     62.6525    984.4065 307.8835408  +6.2729302     1918.614     3537.758     3923.242     89.80791     180.1188     360.2018      1.969     5.63     1190.411     63.55464     218.3768        22     1.572     0.997  53.19   0
        23    956.1353    982.2332 307.5123725  +6.3035746     5397.801     10204.28      10203.5     90.23864      180.334     360.5246      1.981     4.83     1178.462     63.55464     607.8114        38     1.774     1.122  57.85   0
        24    263.1805    970.5636 307.8006946  +6.2853471     2883.226     6032.839      6890.97     89.80791     180.1188     360.3094      2.247     5.33     1191.124     63.55464     397.9778        38     1.949     1.225  51.42   0
        25    650.5354    969.9656 307.6397680  +6.2984971     3006.249      6373.27     6885.083     90.23864      180.334     360.5604      2.221     5.71     1184.898     63.55464     309.8977        39     1.894     1.316  70.12   0
        26    789.5546    970.4902 307.5819856  +6.3028992     935.0733     1851.755     1657.167     90.38177     180.1906     360.7038      2.005     6.40     1182.969     63.55464     157.9496        14     1.654     0.737  56.81   0
        27     31.9374    967.7578 307.8968671  +6.2787798     1437.372     2705.356     3281.981     90.38176     180.2623     360.6321      2.119     6.39     1190.415     63.55464     189.7244        18     1.620     0.762  45.80   0
        28    472.7783    967.8358 307.7136995  +6.2934618      690.443     1337.657     1008.159     89.80791     180.0471     360.2735      1.764     3.82     1187.426     63.55464     114.7562         6     0.784     0.533  49.70   0
        29    882.1505    966.5428 307.5436429  +6.3076027     711.6915      1403.81     1221.945     90.38176      180.334     360.6321      1.959     6.22     1179.914     63.55464     94.91321         9     1.254     0.868  38.33   0
        30    299.3608    964.6620 307.7858618  +6.2889921     561.0434     932.5667     896.1929     90.38177      180.334     360.6321      1.982     4.39     1190.908     63.55464     95.03235         5     1.057     0.520  45.30   0
        31    930.0797    974.6392 307.5234547  +6.3058477     1649.228     3139.504     3815.615     90.23864     180.4056     360.5246      2.165     5.72     1179.096     63.55464      207.048        24     1.658     1.102  66.82   0
        32    575.3198    962.2197 307.6712825  +6.2991951     1078.197     2036.344     1484.535     89.95171     179.9753     360.4887      1.939     6.58     1186.465     63.55464     140.7617        14     1.470     0.825  63.58   0
        33    614.3506    958.1483 307.6552021  +6.3021753     915.8752     1452.703     908.9794     90.52466     180.1906     360.5246      1.730     4.34     1185.592     63.55464     150.7228        10     1.230     0.749  61.83   0
        34    294.2624    956.5786 307.7882538  +6.2921609      920.868      1768.68     2845.946     89.95171      180.334      360.417      2.829     5.87     1190.783     63.55464     131.4015        12     1.293     1.035  73.94   0
        35    898.7856    949.0905 307.5373180  +6.3153637     5067.561     10156.98     10346.65     90.09529     180.1188     360.3812      2.109     5.36     1178.557     63.55464       573.83        42     1.858     1.269  64.29   0
        36    435.0197    946.1314 307.7301222  +6.3011693     1365.816     3044.455     3838.942     89.95171     180.1906     360.4529      2.362     7.58     1187.646     63.55464     167.8813        21     1.888     0.852  46.33   0
        37    336.4594    944.8284 307.7711187  +6.2984221      5929.65     12832.29      14913.4     89.95171     180.4056     360.4887      2.322     5.27     1190.218     63.55464      629.772        57     1.998     1.443  59.69   0
        38    256.6649    944.0140 307.8043009  +6.2960962     4433.397     9926.109     11304.38      89.8079     180.1188     360.4887      2.339     5.42     1190.328     63.55464     513.9292        55     2.074     1.499  51.02   0
        39    584.4647    937.9841 307.6683009  +6.3095104     899.6412      1643.68     1810.607     89.80791     180.1906      360.417      1.639     5.73     1185.318     63.55464     128.0116        10     1.745     0.531  37.82   0
        40    915.2827    934.9382 307.5309392  +6.3217568     770.2758     1729.652     3253.552     90.52466      180.334     360.5246      3.547     6.26     1177.585     63.55464     110.1237         7     1.241     0.887 -85.14   0
        41    751.0549    927.8714 307.5994194  +6.3192255      1090.17     2263.146     2813.727     90.23864     180.2623     360.5246      2.177     6.61     1182.024     63.55464     129.3888        14     1.429     0.858  64.06   0
        42    983.2844    924.3285 307.5030387  +6.3283936     602.5203     1201.557     1844.948     90.52466     180.6205     360.5963      2.165     2.73      1176.63     63.55464     119.2103         5     0.712     0.463  15.25   3
        43    981.6923    921.4472 307.5037972  +6.3295310     819.1553     1223.407     1043.752     90.38177     180.2623     360.7038      1.777     4.97     1176.346     63.55464     116.7083         7     0.975     0.719  50.64   2
        44    669.7303    920.6262 307.6334566  +6.3195160     1734.014     3463.759     4217.267     89.95171     180.1906     360.4887      2.346     5.35     1182.536     63.55464     186.5518        26     1.598     1.151  48.53   0
        45    535.9741    922.5754 307.6889701  +6.3142616     738.7435     1576.024     1911.794      89.8079     180.1188     360.4887      1.927     4.36      1186.05     63.55464     107.4312         8     1.174     0.462   9.39   0
        46    209.7305    915.9354 307.8247535  +6.3061274     1405.149     3031.964     3406.906     90.38176     180.4056     360.5963      2.256     7.03     1189.536     63.55464     178.2361        24     1.726     1.109  50.72   0
        47     66.2328    916.9290 307.8843430  +6.3009218     2027.974     4213.439     4415.347     90.23864      180.334     360.5604      2.184     6.01     1189.941     63.55464     245.7462        22     1.634     0.998  48.93   0
        48     83.6311    915.9689 307.8771467  +6.3019001     1380.687     2563.114     2410.558      89.8079     180.0471     360.2735      2.033     6.97     1189.895     63.55464     163.9539        18     1.643     0.829  51.51   0
        49    664.0957    909.8740 307.6361607  +6.3237702     4265.645     9255.695     10373.38     90.09529     180.4773     360.5604      2.277     5.13     1182.271     63.55464     492.1946        48     2.002     1.354  58.59   0
        50    901.8546    906.1243 307.5374888  +6.3332138     2099.018     4557.091     5571.723     90.23864      180.334     360.5963      2.401     6.33     1176.237     63.55464     248.4493        31     1.770     1.240  61.89   0
        51     24.9117    908.9978 307.9017808  +6.3028157     812.6707     1591.728     1932.164     89.66386     179.9034     360.2735      2.196     4.49      1189.66     63.55464     116.3552         6     0.997     0.575  45.83   0
        52    453.4489    907.7985 307.7237605  +6.3176174     483.1961     961.0798     204.9378     89.66386     179.9034     360.0941      1.539     5.25     1186.746     63.55464     84.57141         5     1.259     0.619 -65.42   0
        53    347.2431    903.1664 307.7680479  +6.3159908     9957.547     22001.72     25808.79     90.09529      180.334     360.3453      2.361     5.26     1189.409     63.55464     1042.801        69     2.087     1.527  57.71   0
        54     82.3344    903.5167 307.8781080  +6.3070002     772.8107     1450.156      1504.83     90.52466     180.6205     360.6321      2.016     4.00     1189.455     63.55464      119.712         6     1.041     0.439  55.48   0
        55    217.5997    902.1487 307.8219510  +6.3120849     881.4494     1721.245     2204.188     89.51959     179.7597     360.0582      2.400     4.75     1189.402     63.55464      137.662         8     1.065     0.602  25.38   0
        56    425.1628    893.5184 307.7359970  +6.3225736     708.0868     1278.857     1339.672     90.38176     180.4056     360.5246      1.945     5.46     1186.781     63.55464      116.916         7     1.543     0.545  54.94   0
        57    110.8062    893.6253 307.8666134  +6.3120377     1083.441     2000.842     2414.569     89.80791     180.1188     360.3453      2.078     6.12      1189.14     63.55464     153.8885        13     1.340     0.890  65.85   0
        58    863.7788    886.2409 307.5539804  +6.3401642     2889.991      5021.42     5260.093     89.95171     180.1188     360.3453      1.934     8.45      1175.63     63.55464     2422.372        24     1.982     1.008 -50.84   0
        59    892.0753    887.6171 307.5421755  +6.3405344     1517.413     2869.542     2808.134      89.8079     180.0471      360.417      1.985     5.55     1175.391     63.55464     174.4551        19     1.342     1.103  72.98   0
        60    826.4445    886.6663 307.5694804  +6.3387495     2053.603     4299.724     4311.057     90.38177     180.2623     360.5963      2.176     5.46     1176.943     63.55464     231.5421        31     1.706     1.223  60.64   0
        61     94.0429    886.9948 307.8738036  +6.3142161     1367.735     3167.647      3514.07     89.66386     179.9753     360.2018      2.361     7.18     1188.833     63.55464     173.1127        24     1.802     1.125  42.38   0
        62    562.2492    878.3231 307.6795466  +6.3334154     206303.4     455551.8     525479.6     90.23864     180.4056     360.5604      2.354     5.20     1183.846     63.55464     21052.54       179     2.210     1.756  60.15   0
        63    406.5792    881.0047 307.7441421  +6.3271232     4757.831     10766.65     12505.12     89.95171     180.0471     360.3453      2.330     5.37     1186.895     63.55464     501.5885        53     2.015     1.469  50.80   0
        64    349.7991    879.3596 307.7677915  +6.3259097     7476.092     16943.17     19585.73      89.5196     180.0471     360.2735      2.369     5.27     1188.774     63.55464     851.2335        61     2.010     1.562  59.54   0
        65    649.7262    880.6562 307.6431176  +6.3353615     822.1725     1472.135     1895.958     90.23864     180.1906     360.5246      1.968     4.38     1181.425     63.55464      100.285         7     0.976     0.560  58.37   0
        66    461.9986    881.2125 307.7211067  +6.3288840     772.6045     1389.257     2229.416     89.95171     179.9753     360.3094      1.534     2.44     1185.853     63.55464     400.9722         5     1.183     0.394   5.65   0
        67    667.9347    875.6968 307.6357185  +6.3380154     2102.525     4729.783     4754.923     90.38176     180.4056     360.5963      2.252     6.41     1181.011     63.55464     219.6345        30     1.701     1.319  70.14   0
        68    900.4159    874.3257 307.5391569  +6.3463014     3712.093     7626.778     8880.323     89.80791     180.0471      360.417      2.246     4.94     1174.547     63.55464     408.2234        39     1.742     1.318  56.21   0
        69    642.8542    869.5662 307.6463474  +6.3397140     2140.499     4604.106     5975.013     90.23864      180.334     360.5246      2.575     5.79     1181.084     63.55464     223.8629        30     1.639     1.280  64.76   0
        70    831.0195    867.8398 307.5682134  +6.3466782     1019.219     1942.794     2462.274     89.95171     180.1188     360.2377      2.126     6.34     1175.349     63.55464     133.3364        13     1.285     0.911  74.18   0
        71    958.3211    866.8167 307.5153466  +6.3513232      654.408     1171.703     1228.476     89.95171     180.0471     360.4529      1.712     4.64     1172.378     63.55464     114.2036         5     0.866     0.705   5.48   0
        72    635.8428    864.0403 307.6494474  +6.3417634     1340.927     3387.316     5488.308     90.09529      180.334      360.417      3.274     9.11     1180.906     63.55464      173.569        26     1.766     1.312  65.34   0
        73    919.4122    862.1367 307.5316731  +6.3519664     2333.647     4591.458     5215.801     89.80791     180.1188     360.3094      2.096     5.67     1173.699     63.55464     312.5502        30     1.879     1.012  58.62   0
        74    377.8306    858.3301 307.7568551  +6.3355310     1531.692     3715.056     4137.892     90.23864      180.334     360.5246      2.366     8.02     1187.122     63.55464     175.1843        29     1.784     1.297  46.54   0
        75    513.9120    848.0905 307.7006540  +6.3442946     1729.241     3978.815     4267.767     90.09529      180.835      360.668      2.408     6.69     1183.427     63.55464     235.6526        28     1.769     1.234  53.57   0
        76    857.2920    846.4484 307.5580160  +6.3563863     656.9432      1336.93     1344.235     90.23864     180.1906     360.7038      2.841     4.91     1173.625     63.55464     107.4421         5     1.407     0.486  84.63   2
        77    560.6394    844.1024 307.6813713  +6.3474974       3442.1     8093.037     10060.46     90.38176     180.1906     360.8113      2.540     5.99     1182.079     63.55464      370.869        49     1.988     1.507  54.73   2
