#   1 NUMBER                 Running object number                                     
#   2 X_IMAGE                Object position along x                                    [pixel]
#   3 Y_IMAGE                Object position along y                                    [pixel]
#   4 ALPHA_J2000            Right ascension of barycenter (J2000)                      [deg]
#   5 DELTA_J2000            Declination of barycenter (J2000)                          [deg]
#   6 FLUX_APER              Flux vector within fixed circular aperture(s)              [count]
#   9 FLUXERR_APER           RMS error vector for aperture flux(es)                     [count]
#  12 FLUX_RADIUS            Fraction-of-light radii                                    [pixel]
#  13 FWHM_IMAGE             FWHM assuming a gaussian core                              [pixel]
#  14 BACKGROUND             Background at centroid position                            [count]
#  15 THRESHOLD              Detection threshold above background                       [count]
#  16 FLUX_MAX               Peak flux above background                                 [count]
#  17 ISOAREA_IMAGE          Isophotal area above Analysis threshold                    [pixel**2]
#  18 A_IMAGE                Profile RMS along major axis                               [pixel]
#  19 B_IMAGE                Profile RMS along minor axis                               [pixel]
#  20 THETA_IMAGE            Position angle (CCW/x)                                     [deg]
#  21 FLAGS                  Extraction flags                                          
         1    183.5547     27.5775 307.8652557  +6.6677115     4707.602     14149.08     16584.05     89.97472     180.3801     360.4733      2.685     6.80     1161.619      63.5709     450.7366        67     2.052     1.909  54.25   0
         2    928.7001     24.6537 307.5554079  +6.6938354     2678.595     5618.771     5763.845     90.26172     180.3801     360.9036      2.182     5.53     1134.731      63.5709     285.4269        36     1.778     1.336  52.71   0
         3    993.6132     21.0584 307.5285261  +6.6974810     1344.015     3080.232     2842.595      89.6868     180.3084     360.3298      2.178     8.29     1128.646      63.5709      170.257        23     1.571     1.223  54.92   0
         4    713.0477     17.7490 307.6453444  +6.6894944     3890.022     9747.394     11093.51     90.54781     180.2367     360.6526      2.438     6.12     1137.905      63.5709     424.2491        50     1.914     1.591  37.36   0
         5    633.1348     17.1087 307.6786068  +6.6870897      1788.26     4656.068     5322.417     90.26172     180.5951     360.6526      2.587     6.55     1140.709      63.5709     188.0823        42     1.831     1.582  71.47   0
         6    433.5769     13.5147 307.7617351  +6.6818986     2621.867     7669.749     9189.896     90.40488     180.0931     360.5092      2.677     7.15      1151.88      63.5709     295.3331        49     1.961     1.712  47.54   0
         7     34.7139     13.1964 307.9276480  +6.6686474     4122.314     11574.72     13622.91     89.83087     179.9494     360.3298      2.605     6.72     1161.007      63.5709     403.1018        60     2.028     1.786  41.89   0
         8    329.0010      9.5086 307.8053682  +6.6800489     4852.943     9736.327     11308.82     89.54249     179.8775     360.4016      2.135     6.33     1160.776      63.5709     525.9479        32     1.975     1.033  33.01  19
         9    331.6761      7.6899 307.8043167  +6.6808892     5079.149     10416.91     12066.49     90.40488     180.6667       357.23      2.185     8.48     1160.748      63.5709     494.8447        39     2.344     1.051  36.14  19
        10    105.3181      8.1621 307.8984519  +6.6730983     1058.578     2797.374     3992.684     90.40488     180.4518     359.6113      3.490     8.69     1162.166      63.5709     155.5846        16     1.846     1.144  17.54  18
        11    396.7247      5.2654 307.7773415  +6.6840696     917.3805     2346.142     2474.144     90.54781     180.3801     333.5673      2.385     6.90     1156.837      63.5709     129.2911        15     1.628     0.821  21.26  18
        12    657.1708      2.4932 307.6690995  +6.6939259       5398.2     10752.32     11566.69     90.54781     161.5451     292.1938      2.094     6.42     1139.985      63.5709     599.2767        36     1.909     1.211   1.96  24
        13    821.4567      1.8395 307.6007830  +6.6996789     990.7149     1624.243     2080.361     85.40295     152.1458     280.8654      1.800     6.17     1135.468      63.5709     137.4374        12     1.266     0.844  22.17  24
        14    257.6315      1.4563 307.8353253  +6.6809796     1608.014     2294.284      1794.27      80.5722     145.6315     273.6829      1.526     5.06     1162.444      63.5709     259.7723        12     1.415     0.550   6.02  24
        15   1011.3569    997.2899 307.4885047  +6.2950719     4700.736     7829.287     7903.048     90.40488     180.3084     360.6885      1.790     3.92     1186.069      63.5709     545.0823        31     1.450     1.148  33.15   0
        16    961.4515   1022.6303 307.5084010  +6.2829506     6234.576     9085.625     9365.028      89.6868     160.0169     290.1063      1.624     3.92     1187.297      63.5709     728.0575        26     1.410     1.008  23.03  24
        17    721.3294   1021.1615 307.6082538  +6.2755565     2130.576      3958.08     5155.754     90.26172     176.9785     314.2023      2.227     4.64     1191.586      63.5709     253.9614        25     1.483     1.120  26.80  26
        18    246.5699   1023.2034 307.8055042  +6.2588398      881.978     1304.219     848.0969     84.33633     151.0367     279.8044      1.517     4.22     1191.969      63.5709     143.2468         9     0.911     0.772   1.52  24
        19    602.3541    998.2216 307.6584729  +6.2810551     986.4447      1840.78      1687.87     89.97472     180.3801     360.4733      1.924     6.55     1192.159      63.5709     147.6115        11     1.187     1.015  63.94   0
        20    643.7743    996.1930 307.6413252  +6.2832756      1137.27     2022.144     2153.754     89.83087     180.2367     360.4374      1.853     5.13     1191.451      63.5709     154.2434        16     1.316     1.020  76.26   0
        21    487.2668    993.4703 307.7064663  +6.2791707     1679.918     3215.451      2965.09     90.40488     180.4518     360.6526      1.983     5.73      1191.68      63.5709     196.4606        21     1.391     1.104  21.23   0
        22    921.4648    985.3827 307.5262666  +6.2969960     38265.49     65950.83     70590.34     89.83088     180.3084     360.4733      1.874     3.85      1186.29      63.5709     4285.316        74     1.718     1.374  36.73   0
        23    229.4662    984.2245 307.8139250  +6.2743568     1045.221     2218.823     2310.914     89.97472     180.3801     360.5809      2.195     8.10     1190.891      63.5709     139.2544        18     1.526     1.202  70.85   0
        24    767.6207    977.2599 307.5904838  +6.2952233      5050.74     10091.17     11653.11     89.97472     180.3084     360.5451      2.167     4.67     1188.476      63.5709     572.3958        46     1.778     1.530  82.93   0
        25    819.6493    979.2163 307.5687927  +6.2961501     1821.981     3394.091     3275.672     89.83087     180.4518     360.2939      1.950     5.29     1187.765      63.5709     195.4265        21     1.337     1.170  35.77   0
        26    237.5745    976.8311 307.8108039  +6.2776806     1033.215     1881.612     1716.625     89.83087     180.1649     360.4733      1.905     5.24     1190.953      63.5709     136.0256        13     1.295     0.896  70.79   0
        27     62.1202    974.6883 307.8837972  +6.2726793     1998.727     4224.438     4452.364     90.11833     180.6667     360.7961      2.079     5.86     1188.922      63.5709     244.7075        30     1.642     1.326  53.92   0
        28    955.7516    972.1306 307.5124581  +6.3036079     6045.983     10005.82     10204.57     90.40488     180.3084     360.6885      1.766     3.84     1185.394      63.5709     721.3318        35     1.499     1.164  31.05   0
        29    929.5679    963.8196 307.5236195  +6.3061672      1932.53     3646.981      3794.51     89.83087     180.1649     360.4733      1.978     5.62     1185.585      63.5709     232.3419        23     1.626     1.048  38.40   0
        30    262.5652    960.3938 307.8009706  +6.2853033     2756.272     6208.324     6956.966      89.5425     180.0931     360.4016      2.295     5.95     1191.228      63.5709     316.7002        41     1.777     1.543  54.02   0
        31    650.3445    959.8033 307.6398146  +6.2985169      3227.95     6436.004     6574.673      89.6868     180.1649     360.2939      2.064     4.68     1189.468      63.5709     375.5946        34     1.673     1.284  41.38   0
        32    789.0250    960.1849 307.5821589  +6.3029857     1130.572     2088.937     2519.677     90.11833     180.1649     360.5809      2.039     5.80     1187.523      63.5709     132.3643        14     1.200     0.897  18.40   0
        33   1000.4153    959.6744 307.4943095  +6.3102362       738.63     1220.401      1962.09     89.83087     180.0931     360.4733      1.740     3.72     1184.059      63.5709     132.8965         7     0.986     0.466  79.44   0
        34    472.5331    958.6207 307.7137606  +6.2930641     687.8715     1443.313     1672.081     89.97472     180.3801     360.5809      2.200     6.01     1190.521      63.5709     80.61475         8     1.231     0.826  34.19   0
        35     31.6154    957.9582 307.8970396  +6.2785609     1606.464     3234.913     3515.457     89.83087     180.0931     360.4016      2.131     5.79     1188.566      63.5709     184.5231        24     1.584     1.121  39.83   0
        36    575.4482    952.3679 307.6711945  +6.2990851      1139.26     2391.188     1915.322     90.11833     180.3801     360.5809      1.985     6.57     1190.024      63.5709     179.5299        19     1.500     1.163   7.44   0
        37   1006.6528    952.7736 307.4919474  +6.3132924     717.4468     1471.135     1807.929     89.97472     180.5234     360.5451      2.325     4.16     1183.506      63.5709     91.67993         6     0.736     0.673 -21.20   0
        38    614.4564    948.6108 307.6551068  +6.3019390     1041.179     1877.126     1846.819      89.6868     180.3084     360.2939      1.958     6.21     1189.764      63.5709     165.3218        14     1.553     0.911   6.80   0
        39    294.2682    945.5640 307.7882930  +6.2924872     830.0446     2050.726     2553.146     90.26172     180.4518     360.7602      2.432     5.29      1191.65      63.5709     143.7744         8     0.995     0.795 -12.55   2
        40    760.7451    942.0795 307.5945200  +6.3095169      712.003     1239.366     797.4132     90.54781     180.3801     360.6885      1.664     4.95     1187.001      63.5709      97.8833         6     1.238     0.561  60.99   0
        41    898.5320    939.0065 307.5373498  +6.3153771     5750.635     10264.97     10321.54     89.83087     180.0213     360.4374      1.877     4.16     1185.356      63.5709     648.9126        37     1.613     1.188  34.50   0
        42    434.7753    936.3565 307.7302024  +6.3009918     1395.174     2984.773     3049.386     89.97472     180.3801     360.5092      2.193     7.80     1190.548      63.5709     169.1276        20     1.469     1.275  64.36   0
        43    336.3116    934.9013 307.7711769  +6.2982969     6175.054     13509.79     14801.97     90.40488     180.8813     360.6526      2.221     5.10     1191.497      63.5709     663.5438        51     1.803     1.533  44.30   0
        44    256.3675    933.9649 307.8044362  +6.2960054     4545.436     9786.509     10564.38     89.97472     180.0931     360.3657      2.223     5.04     1190.622      63.5709     512.0631        48     1.803     1.512  44.31   0
        45    583.3987    928.0540 307.6687057  +6.3093876     705.7224     1221.232      823.174      89.6868     180.0931     360.2221      1.528     2.63     1188.916      63.5709     119.6305         5     0.844     0.487  85.50   0
        46    914.0082    923.7380 307.5314275  +6.3221954     786.6539     1541.201     2020.365      89.6868     180.1649     360.4374      2.320     7.01     1184.705      63.5709     105.3535        10     1.691     0.815  37.04   0
        47    870.5544    922.8304 307.5495204  +6.3211230     767.9021     1342.241     1240.328     89.97472     180.4518     360.5092      1.905     4.81     1185.094      63.5709     112.3553         6     1.131     0.580 -22.66   0
        48    750.5593    917.1284 307.5995897  +6.3194773     1260.673     2750.464      3510.37     90.26172     180.3801     360.7244      2.499     7.75     1185.667      63.5709     166.2141        18     1.453     1.156  71.22   0
        49    981.9733    912.7339 307.5035440  +6.3290003     1034.053      1827.24     1737.628     89.97472     180.2367     360.5451      1.804     7.48     1182.136      63.5709     125.4725        16     1.503     1.042  64.60   0
        50      2.1967    914.6966 307.9107262  +6.2954305     751.6727     1105.651      1127.62     88.67171     157.1629     286.9238      1.655     3.66     1187.852      63.5709     129.8002         5     1.187     0.325  78.41  16
        51    669.1959    910.5977 307.6336287  +6.3194586     1680.127     3265.279     3228.841      89.6868     179.8775     360.3657      2.038     5.51     1186.686      63.5709     177.8229        26     1.514     1.225  43.26   0
        52    535.9445    912.3578 307.6889572  +6.3142814     840.7047     1307.862      1349.44     90.26172     180.3084     360.6885      1.605     4.28      1188.61      63.5709     143.3163         7     0.931     0.562  36.15   0
        53     65.9586    907.1105 307.8844811  +6.3007035     1964.964      4055.14     4204.931     90.40488     180.3084     360.6885      2.116     5.68      1188.19      63.5709     220.7552        30     1.687     1.240  40.75   0
        54    209.7469    906.1450 307.8247502  +6.3059265     1364.928     2946.937      2875.04     90.69052     180.3084     360.6168      2.150     6.65     1189.494      63.5709     181.6366        19     1.616     1.187  33.67   0
        55     83.7046    905.9760 307.8771436  +6.3017676     1316.844      2904.35     2660.774     90.54781     180.0931     360.5092      2.162     7.71     1188.334      63.5709     165.6592        20     1.591     1.047  64.55   0
        56    946.8553    905.7692 307.5183747  +6.3307067     596.3375     1025.458     437.8437     90.26172     180.4518     360.6168      2.009     4.46     1183.197      63.5709     88.50818         5     1.427     0.396   6.07   0
        57    663.7545    899.7285 307.6362549  +6.3237639     4898.307     10018.51        10838     90.40488     180.3801     360.6526      2.153     4.65     1186.384      63.5709     529.2681        46     1.745     1.441  58.23   0
        58     24.8663    898.7795 307.9018413  +6.3027624     817.1461      1695.18     1853.737     89.97472     180.3801     360.5451      2.308     6.61     1187.684      63.5709     110.2018         9     1.350     0.907  46.55   0
        59    901.5138    895.8156 307.5375551  +6.3333061     2255.164     4140.068     4452.206     89.97472     180.0931     360.5451      1.980     4.88     1183.717      63.5709     278.6152        26     1.557     1.078  44.44   0
        60     37.4027    896.4760 307.8967085  +6.3041344     771.2675     1546.061     1363.243     89.83088     179.8056     360.5451      1.881     6.63     1187.752      63.5709     111.1266         9     1.371     0.898  -3.79   2
        61    346.9845    893.1672 307.7681446  +6.3158821     9866.209     22595.04     25676.12     89.97472     180.0931     360.5092      2.309     5.24     1190.858      63.5709     1089.417        60     1.869     1.604  45.68   0
        62     82.0943    894.2018 307.8782099  +6.3065738     860.5029     1961.606     1948.159     89.83087     180.0213      360.258      2.450     6.65     1188.216      63.5709     117.2272        10     1.288     0.962  54.18   0
        63    217.7669    891.9297 307.8218955  +6.3120634     781.3105     1527.235     1955.352     90.26172     180.3801     360.6885      2.249     5.92     1189.603      63.5709      114.261         9     1.266     0.778   0.88   0
        64    110.8764    883.5012 307.8666078  +6.3119570     1010.268     2153.964     2402.208     89.97472     180.5234     360.6526      2.270     6.10     1188.403      63.5709     138.4454        11     1.551     0.675  52.65   0
        65    424.8985    883.2731 307.7360917  +6.3225743     730.6264     1431.327     1548.198     89.97472     180.5234     360.6168      1.833     5.10     1188.772      63.5709     108.3859         6     1.133     0.648 -22.58   0
        66    891.6371    877.5092 307.5422731  +6.3405343     1705.822     2960.619     2710.552     90.54781     180.3084     360.6885      1.812     5.14     1183.026      63.5709     216.2659        21     1.476     1.011  74.41   0
        67    862.6946    877.1940 307.5543147  +6.3397004     1576.261     2946.513     2929.058     90.11833     180.0213     360.4374      1.936     7.25     1183.045      63.5709     163.6049        23     1.641     1.111  42.22   0
        68     93.8870    877.5439 307.8738702  +6.3138459     1544.126     3300.723     3244.557     90.40488     180.3084     360.7961      2.143     6.44     1188.255      63.5709     204.1431        22     1.493     1.247  -5.23   0
        69    825.8759    876.4876 307.5696433  +6.3387652     2287.647     4423.737     4610.055     90.40488     180.7382     360.7602      1.995     5.02     1183.076      63.5709     243.7954        29     1.617     1.166  27.13   0
        70    561.9257    868.1809 307.6796407  +6.3333861     209739.6     467945.7     525155.2     89.97472     180.2367     360.5809      2.284     5.06     1187.049      63.5709     22431.26       173     2.036     1.800  39.84   0
        71    406.2977    870.8314 307.7442416  +6.3270878     4589.542      10582.7        11695     90.54781     180.1649     360.7602      2.309     5.40      1188.68      63.5709     499.4689        49     1.783     1.588  40.52   0
        72    650.3905    871.3600 307.6427613  +6.3350284     857.3128         1459     985.1095      89.6868     180.1649     360.3657      1.808     5.50     1185.456      63.5709      121.829         9     1.403     0.610 -48.67   0
        73    349.4706    869.3435 307.7679125  +6.3257997      7647.39     17899.26     20276.42     90.54781     180.3084     360.6168      2.382     5.53     1190.455      63.5709     819.3197        56     1.906     1.590  40.98   0
        74    900.1823    864.0944 307.5391698  +6.3463567     4165.048     7490.451     8396.367     90.26172     180.1649     360.5092      1.964     4.22      1182.42      63.5709     516.4397        33     1.413     1.303  22.21   0
        75    642.6865    859.4844 307.6463619  +6.3396736     2231.994     5162.373     5424.678     90.11833     180.5951     360.7244      2.253     5.73     1184.964      63.5709     232.3514        34     1.686     1.373  16.14   0
        76    830.8360    858.2825 307.5681909  +6.3464458     1323.243     2531.424     3213.787     90.40488     180.3084     360.6168      2.192     5.88     1182.122      63.5709     145.3273        17     1.322     0.999  38.98   0
        77    635.2495    854.5716 307.6496182  +6.3414533     1320.396     3322.015     4923.328     89.97472     180.4518     360.5451      2.778     9.47     1184.825      63.5709     168.5449        24     1.947     1.285 -76.58   0
