#   1 NUMBER                 Running object number                                     
#   2 X_IMAGE                Object position along x                                    [pixel]
#   3 Y_IMAGE                Object position along y                                    [pixel]
#   4 ALPHA_J2000            Right ascension of barycenter (J2000)                      [deg]
#   5 DELTA_J2000            Declination of barycenter (J2000)                          [deg]
#   6 FLUX_APER              Flux vector within fixed circular aperture(s)              [count]
#   9 FLUXERR_APER           RMS error vector for aperture flux(es)                     [count]
#  12 FLUX_RADIUS            Fraction-of-light radii                                    [pixel]
#  13 FWHM_IMAGE             FWHM assuming a gaussian core                              [pixel]
#  14 BACKGROUND             Background at centroid position                            [count]
#  15 THRESHOLD              Detection threshold above background                       [count]
#  16 FLUX_MAX               Peak flux above background                                 [count]
#  17 ISOAREA_IMAGE          Isophotal area above Analysis threshold                    [pixel**2]
#  18 A_IMAGE                Profile RMS along major axis                               [pixel]
#  19 B_IMAGE                Profile RMS along minor axis                               [pixel]
#  20 THETA_IMAGE            Position angle (CCW/x)                                     [deg]
#  21 FLAGS                  Extraction flags                                          
         1    148.5875     23.4877 307.8649024  +6.6682572     7764.431     15453.23     17037.33     83.79041     167.7146     335.7634      2.114     5.75     994.4255     59.20142     978.0996        49     2.070     1.185 -34.20   0
         2    893.9458     21.1218 307.5551551  +6.6941257     3232.445     5954.029      6223.41     84.32411     167.9819     335.8636      1.923     6.31     972.6666     59.20142     432.0387        30     1.913     0.897 -34.92   0
         3    958.9353     17.6277 307.5282568  +6.6977296     1661.591     3132.606     3452.368     83.79041     167.9819     335.7968      2.025     7.11     969.6892     59.20142     226.4938        20     1.816     0.781 -38.63   0
         4    678.2646     13.8463 307.6450568  +6.6899468     5424.609     10541.83     10952.72       84.191     167.9151      335.897      2.067     6.12     977.0638     59.20142     672.3876        44     2.025     1.108 -33.77   0
         5    598.4081     13.1958 307.6782739  +6.6875518     2805.088      5208.99     5530.229     83.52228     167.6477     335.6966      1.968     5.70     978.2439     59.20142     328.3348        31     1.854     1.002 -29.07   0
         6    301.5277     12.6648 307.8016978  +6.6778491     629.4622     1006.606     577.8843       84.191     167.9819      335.897      1.810     5.97     994.8394     59.20142     103.0485         7     1.280     0.782 -29.40   0
         7    398.8589      9.3880 307.7613509  +6.6824583     4409.334       9021.8     10161.74     83.52228     167.9151      335.563      2.180     6.04     987.5966     59.20142     549.8956        41     2.095     1.107 -34.82  16
         8      1.7884      8.1647 307.9264392  +6.6696584     3627.103     4863.618     5269.663     78.39664      140.416     259.4509      1.384     3.75     991.6151     59.20142     670.3344        18     1.241     0.823 -73.85  24
         9    644.5150      9.4734 307.6592335  +6.6906269     621.5873     1142.209     1052.178     84.32411     168.3154      335.897      1.674     3.73     977.3518     59.20142     80.95471         6     0.991     0.402 -19.05   0
        10    295.3194      4.4001 307.8045580  +6.6810535     8909.891     18214.79     20057.72     83.38789     167.3129     299.8001      2.164     5.76     995.7645     59.20142     1113.888        54     2.161     1.197 -35.10  24
        11    474.7938      6.6748 307.7298782  +6.6861166     639.5731     1094.555     627.4967     83.79041     167.4469     324.8643      1.439     3.44     983.6819     59.20142     110.9744         5     1.246     0.275 -34.52  16
        12     68.9583      4.7886 307.8986345  +6.6733068     1867.776     3696.702      3716.95     83.52228     167.7815     304.6613      1.957     6.50      993.234     59.20142     245.1836        27     1.971     0.896 -35.36  16
        13    361.2505      2.6494 307.7772116  +6.6839827     1668.105     3024.495     3225.523       84.191     152.5146     274.7762      1.978     6.41     989.7723     59.20142     219.2285        23     1.745     0.915 -23.78  24
        14     60.7187      3.1963 307.9021134  +6.6736877     1137.733     2389.417      2807.83     83.65646     158.5007     282.8614      2.168     7.44     992.9202     59.20142     146.1954        19     1.565     0.991 -32.90  24
        15    763.5508      2.8770 307.6099738  +6.6973182     795.2669     1375.048       1628.9     84.05769     155.2839     278.3046      2.005     5.59     974.1017     59.20142     106.2137        10     1.436     0.614 -37.67  24
        16    512.3370    997.3928 307.6808428  +6.2783130     6916.779     12363.16     13554.17     83.52228     167.7146     335.6632      1.893     5.90     1012.463     59.20142     1135.557        38     2.023     0.864 -33.58   0
        17    854.5908    994.2489 307.5387905  +6.2910142     10861.65     19402.39     20438.46     83.65646     167.7815     335.5295      1.890     6.00     1006.983     59.20142     1721.378        41     1.902     0.946 -32.68   0
        18    976.4501    993.6284 307.4881949  +6.2953212     4295.761     7780.903     8517.118     83.79041     168.1154     335.7634      1.904     7.76     1001.751     59.20142     651.0902        31     1.919     0.877 -32.53   0
        19    567.2274    994.6060 307.6581378  +6.2812951     1265.502     2169.126     2424.553     83.65646     167.7815     335.6632      1.917     6.39     1011.635     59.20142     184.8965        16     1.763     0.651 -26.14   0
        20    498.7242    993.3936 307.6866317  +6.2795099     3281.864     6127.465     6679.949     83.79041     167.4469     335.6966      1.985     5.70     1012.355     59.20142     514.0214        30     1.830     1.001 -25.19   0
        21    608.2575    992.8647 307.6411545  +6.2833824     1141.609     2008.106     2185.763     84.32411     167.9151      335.897      1.949     5.28     1010.294     59.20142     202.2391        15     1.642     0.792 -38.65   0
        22     33.4003    992.2028 307.8799385  +6.2644343     768.7333     1486.847     1550.071     83.52228     167.5139     335.5964      1.885     6.24      1011.56     59.20142     118.1684        12     1.563     0.699 -22.39   0
        23    451.7954    989.6623 307.7062494  +6.2794837     1717.248     3218.073     2781.667     83.52228     167.7146     335.6298      1.904     6.57     1012.336     59.20142     258.2709        19     1.759     0.689 -30.36   0
        24    886.3680    981.7867 307.5260100  +6.2972167     38425.06     67336.55     72744.39     83.65646     167.7146     335.7968      1.864     6.00     1004.966     59.20142     5285.824        70     2.002     1.011 -34.55   0
        25    193.7452    979.9760 307.8137562  +6.2748549     1417.907     2562.202     2435.175     83.79041     168.0486     335.6632      1.943     6.42     1012.695     59.20142     204.7338        15     1.599     0.724 -40.48   0
        26     81.5226    979.3330 307.8603879  +6.2713612      526.674     802.6881     1080.601     84.32411     168.0486     335.8302      1.781     3.35     1011.899     59.20142     109.7568         5     1.055     0.308 -20.71   0
        27    591.2734    978.2925 307.6486998  +6.2888328     608.9546     1160.672     1208.442     84.05769     168.1154      335.897      1.930     3.49     1010.354     59.20142     80.84131         5     0.772     0.456  69.84   2
        28    784.0782    975.7302 307.5687017  +6.2963144     1818.304     3140.532     2783.561     84.45701     168.2487     335.8302      1.820     6.13     1006.754     59.20142     297.3406        17     1.735     0.609 -31.57   0
        29    732.4427    973.3699 307.5902288  +6.2955699      5805.85     10375.29     11926.46     83.79041     167.9151     335.6966      1.898     5.66     1006.939     59.20142     899.0491        35     1.970     0.877 -35.46   0
        30    201.8945    972.7328 307.8106165  +6.2781182     1223.951     2046.207     2343.629     84.05769     168.1821     335.8636      1.995     6.65     1012.689     59.20142     164.3346        16     1.618     0.767 -35.39   0
        31    519.0500    972.9104 307.6788799  +6.2886456     700.0984     1297.271     1519.243       84.191     167.7815     335.9972      1.793     5.84     1011.626     59.20142     114.4784         9     1.655     0.580 -17.00   0
        32    166.3059    971.8817 307.8254267  +6.2772781      806.843     1521.834     1470.045     83.92416     168.2487     335.9638      2.132     5.66     1012.549     59.20142     132.5966         9     1.431     0.631 -63.03   0
        33     26.8918    970.5415 307.8833755  +6.2731596     2354.417     4066.255     4537.188     84.05769     167.9151     335.9638      1.860     6.20     1011.482     59.20142     308.1057        24     1.996     0.762 -36.99   0
        34    920.6779    968.5446 307.5122033  +6.3038251     6187.398     10883.13     11069.64     84.32411     167.9819      335.897      1.884     5.82     1002.613     59.20142     877.0239        33     1.903     0.877 -32.71   0
        35    602.0513    963.2468 307.6447299  +6.2954045      582.007     922.7072     719.5929     84.32411     167.8483     335.9304      1.725     3.86     1009.567     59.20142     106.4908         5     1.181     0.361 -12.11   0
        36    894.3538    960.2178 307.5234174  +6.3063881     1840.712     3159.096     3294.576     83.65646     167.8483     335.5964      1.826     6.35     1003.527     59.20142     294.6348        19     1.725     0.720 -33.32   0
        37    615.2424    956.0868 307.6394920  +6.2988007     3841.945     6802.705     6840.047       84.191     167.8483      335.897      1.833     6.25     1009.022     59.20142     557.2806        28     1.858     0.818 -33.57   0
        38    227.5072    956.3804 307.8005314  +6.2857272     3434.542     6263.244     6953.687     84.05769     167.7815     335.6966      1.939     5.86     1012.754     59.20142     498.4108        28     1.912     0.840 -33.33   0
        39    964.5678    956.2567 307.4943848  +6.3103573     657.9641      1287.74     1565.499     84.05769     167.9819     335.8302      2.347     7.22     1000.311     59.20142      114.204        10     2.016     0.725 -28.07   0
        40    754.2084    956.6476 307.5817505  +6.3031992     1017.719     2038.657     2337.095     83.65646     167.8483     335.4961      1.928     6.34     1006.304     59.20142     183.4856        14     1.798     0.629 -29.18   0
        41    437.2500    954.7432 307.7134691  +6.2934157     932.0477     1706.795     1937.201       84.191     167.9819      335.897      1.911     5.98     1011.935     59.20142     135.4104        16     1.566     0.722 -30.57   0
        42    846.9418    952.9315 307.5433562  +6.3078198      882.959     1420.322     1715.806     84.32411     167.9151     335.8636      1.601     5.73     1004.753     59.20142     123.4285        13     1.764     0.525 -33.97   0
        43    937.6628    951.2846 307.5057276  +6.3115162     540.9932     855.5999     743.6746     84.32411     168.0486     335.8302      1.801     4.22     1001.372     59.20142      106.257         6     1.330     0.382 -39.91   0
        44    262.9192    950.3879 307.7860256  +6.2893864     763.1011     1475.352     2324.626     83.79041     167.6477     335.6966      2.318     5.56     1012.757     59.20142     132.3802         8     1.329     0.657 -32.81   0
        45    918.4152    949.9149 307.5137688  +6.3114421     801.5021     1237.496     1197.111     83.79041     167.7146     335.7634      1.542     4.58     1002.185     59.20142      129.784         9     1.098     0.600 -19.36   0
        46    539.4869    948.9694 307.6711982  +6.2992126     1393.567     2535.748     2413.692     84.32411     167.7146     335.7968      1.946     6.78      1010.75     59.20142     184.5613        18     1.716     0.752 -32.44   0
        47    970.6198    949.0706 307.4921122  +6.3135256     879.8065      1460.14     2259.683     83.79041     167.8483     335.7968      2.373     4.92     999.7075     59.20142     160.1755         8     1.343     0.511 -24.61   0
        48    579.1749    944.9406 307.6548489  +6.3022001     1157.308      2072.88     1898.423     83.79041     167.9819     335.6966      1.795     6.12     1009.655     59.20142     165.4988        15     1.563     0.717 -31.66   0
        49    257.6856    943.6467 307.7884273  +6.2919946     1120.891     2057.458     2608.357       84.191     167.9151     335.8636      2.081     4.66     1012.752     59.20142     183.7332         9     1.257     0.628 -53.11   2
        50    725.4567    939.2452 307.5942788  +6.3094272     796.3246     1268.227     1308.724       84.191     167.9819      335.897      1.587     5.41     1006.245     59.20142     157.2399         9     1.601     0.515 -36.24   0
        51    863.3765    935.4170 307.5371180  +6.3155982     6206.984        10769     11531.48     83.92416     167.8483     335.7634      1.850     6.24      1003.28     59.20142       1005.1        32     1.938     0.794 -32.31   0
        52    399.6404    932.4317 307.7298438  +6.3013715     1758.331     3244.792       2865.2     83.79041     167.7815       335.73      1.896     6.23     1012.339     59.20142      302.256        19     1.846     0.668 -27.96   0
        53    301.0199    930.9246 307.7708580  +6.2986970     7756.997     14599.63     15904.91     83.79041     167.7815     335.7968      2.006     5.68     1012.725     59.20142     1085.445        44     1.982     1.040 -34.29   0
        54    221.0480    929.9799 307.8041070  +6.2964114     5657.773      10213.2     11190.01     83.65646     167.9819     335.6632      1.957     6.02     1012.688     59.20142      782.726        36     1.954     0.902 -34.71   0
        55    548.6505    924.6336 307.6682123  +6.3095665     922.7241     1628.684     1785.538     84.05769     167.9819     335.7968      1.898     5.18      1009.79     59.20142     178.6324        11     1.545     0.596 -45.92   0
        56    879.1285    920.5710 307.5310736  +6.3222519     971.8333     1579.428     1320.629     84.05769     167.9819     335.8302      1.710     5.34     1002.251     59.20142     167.1802        11     1.579     0.511 -30.36   0
        57    834.2306    919.2053 307.5497697  +6.3213225     674.5367     1132.121      1551.83     83.65645     167.8483     335.6298      2.059     3.40     1003.494     59.20142     105.9344         5     0.962     0.348 -42.02   0
        58    379.6378    917.6893 307.7386499  +6.3067901     467.9436     772.3843     1326.794       84.191     167.9151      335.897      1.564     4.07     1012.218     59.20142     99.80206         5     1.232     0.385 -75.77   0
        59    945.9583    916.6633 307.5034442  +6.3260871     775.2819     1225.847     1588.151       84.191     167.9151     335.9304      1.625     4.65     1000.016     59.20142     129.8666         9     1.257     0.583 -16.90   0
        60    715.7479    913.4933 307.5991782  +6.3197367     1336.959     2353.927     2856.088     84.05769     167.9151     336.0973      1.905     6.66     1005.789     59.20142     179.8982        19     1.726     0.782 -34.30   0
        61    539.2366    914.1613 307.6724756  +6.3135763     644.5593     1058.502     1128.549     83.92416     167.8483       335.73      1.558     3.40     1009.562     59.20142     112.9659         5     0.970     0.345 -42.97   0
        62    579.2989    910.2734 307.6559656  +6.3165181     732.8009     1179.362     349.7276     83.79041     168.1154     335.8302      1.683     5.42     1008.401     59.20142     107.5378        10     1.692     0.490 -26.06   0
        63    946.3058    909.3874 307.5035442  +6.3291029     988.8262     1816.806     2367.395     83.92416     167.7146     335.6632      2.170     6.53     999.8558     59.20142     153.6479        13     1.818     0.658 -25.24   0
        64    500.4297    909.7427 307.6887442  +6.3141056     962.8902     1666.169     1848.002     83.92416     168.0486     335.7634      1.911     5.77     1009.929     59.20142     135.6505        12     1.490     0.630 -21.10   0
        65    634.0853    906.8829 307.6333223  +6.3197449     1910.764     3678.551     3845.489     83.92416     168.2487     335.9638      1.878     6.73     1007.037     59.20142     261.5696        20     1.888     0.720 -29.39   0
        66    984.6390    906.3600 307.4877222  +6.3316266     590.2856     948.5577     460.7139     83.92416     168.0486       335.73      2.119     4.76     997.7361     59.20142     112.4235         8     1.657     0.388 -34.00   0
        67    174.2381    902.0931 307.8244932  +6.3063582     1866.981     3388.127     3642.149     84.32411     167.9151     335.9304      1.982     5.42     1012.231     59.20142     311.7841        25     1.719     0.963 -34.82   0
        68     30.6401    903.0798 307.8841043  +6.3011387      2270.56     4387.586     4562.351     84.05769     167.9819     335.8302      1.964     6.42     1011.327     59.20142     329.6594        24     1.803     0.849 -34.25   0
        69    911.6023    902.7717 307.5181821  +6.3306810     768.9434     973.2462     340.1606     83.65646     167.7146     335.6632      1.422     4.21     1000.978     59.20142     129.5778         6     1.121     0.452 -33.12   0
        70    794.6619    903.2962 307.5667411  +6.3265746     639.5793     1107.072     1067.967     83.92416     168.0486     335.9304      1.762     5.70     1004.142     59.20142     99.56885         9     1.343     0.682 -18.29   0
        71     48.1076    902.5207 307.8768681  +6.3019552     1745.897     2951.055     2948.391     83.92416     168.2487     335.9304      1.792     6.42     1011.375     59.20142     229.6244        18     1.544     0.815 -27.21   0
        72    207.5398    899.0344 307.8107643  +6.3087361     714.7274     1009.759      959.043     84.05769     167.9819     335.8302      1.552     4.75     1012.469     59.20142     108.8325         8     1.344     0.477 -21.81   0
        73    765.8043    897.0280 307.5789392  +6.3282021     575.6808       923.58     523.1836     83.65646     167.7815     335.6966      1.616     4.86     1004.495     59.20142     114.3309         8     1.731     0.386 -39.62   0
        74    628.6566    896.0193 307.6359433  +6.3240495     5836.646     10512.83     10965.31     83.65645     167.9151     335.6632      1.879     5.71     1006.668     59.20142     804.7823        35     1.940     0.877 -32.12   0
        75    312.7225    898.1371 307.7671050  +6.3126259     681.2581     1256.024     1600.258     84.45701     168.0486     335.8302      1.989     3.87     1012.509     59.20142     129.6083         5     0.880     0.489 -37.55   0
        76    866.3600    892.4691 307.5373218  +6.3334306     2435.994     4078.202     4049.505     84.05769     167.9819     335.9638      1.796     6.42     1001.587     59.20142     418.4294        22     1.734     0.777 -32.83   0
        77      2.6241    892.4397 307.8961014  +6.3045921     887.5746     1430.743     1024.247     83.79041     152.0728     274.1633      1.720     5.12     1011.189     59.20142     152.3435        11     1.485     0.500 -39.39  24
