#   1 NUMBER                 Running object number                                     
#   2 X_IMAGE                Object position along x                                    [pixel]
#   3 Y_IMAGE                Object position along y                                    [pixel]
#   4 ALPHA_J2000            Right ascension of barycenter (J2000)                      [deg]
#   5 DELTA_J2000            Declination of barycenter (J2000)                          [deg]
#   6 FLUX_APER              Flux vector within fixed circular aperture(s)              [count]
#   9 FLUXERR_APER           RMS error vector for aperture flux(es)                     [count]
#  12 FLUX_RADIUS            Fraction-of-light radii                                    [pixel]
#  13 FWHM_IMAGE             FWHM assuming a gaussian core                              [pixel]
#  14 BACKGROUND             Background at centroid position                            [count]
#  15 THRESHOLD              Detection threshold above background                       [count]
#  16 FLUX_MAX               Peak flux above background                                 [count]
#  17 ISOAREA_IMAGE          Isophotal area above Analysis threshold                    [pixel**2]
#  18 A_IMAGE                Profile RMS along major axis                               [pixel]
#  19 B_IMAGE                Profile RMS along minor axis                               [pixel]
#  20 THETA_IMAGE            Position angle (CCW/x)                                     [deg]
#  21 FLAGS                  Extraction flags                                          
         1    912.3114     22.2256 307.5552835  +6.6941225     4604.998     6364.111       6489.8     78.44974     156.0931     312.3105      1.490     3.29     825.9915      55.0772     732.7296        27     1.425     0.858 -45.39   0
         2    977.0824     18.3960 307.5285006  +6.6978652     2152.228     3290.883     3049.834     77.82859     155.9064     312.1862      1.574     3.83     821.9618      55.0772     368.3925        18     1.416     0.798 -52.58   0
         3    696.4657     15.0035 307.6452066  +6.6898904     8276.486     11557.55     12022.41     77.57874     156.0309     312.2484      1.452     3.19     827.7964      55.0772     1304.331        31     1.386     0.893 -46.93   0
         4    616.6414     14.2342 307.6783977  +6.6875361     4222.153     5737.812     5728.077     78.07764     156.2796     312.2795      1.435     3.13     827.4604      55.0772     650.6899        19     1.262     0.785 -50.18   0
         5    318.9673     13.8171 307.8020853  +6.6777246      1026.98     1842.701     2334.662     77.95322     156.0931     312.3416      1.922     4.63     837.6809      55.0772     159.3273        14     1.333     0.843 -74.08   0
         6    416.7892     10.4545 307.7615577  +6.6823971     6957.926     9856.703     9919.502     77.70377     156.2174     312.1551      1.477     3.22     832.2303      55.0772     1046.858        27     1.336     0.909 -46.98   0
         7    372.6552     12.0637 307.7798394  +6.6802514     784.3734     1299.067     1175.727     78.44974     156.2174     312.4659      1.669     4.18     835.9827      55.0772     116.1892         7     1.122     0.444 -34.05   0
         8     17.7522      9.9986 307.9273533  +6.6691674     9088.537      12947.9     13414.57     77.70377     155.9064     312.0618      1.472     3.14     837.9789      55.0772     1406.819        31     1.374     0.935 -50.42   0
         9    663.6477      9.5750 307.6590247  +6.6910334     963.4757     1338.399     1525.099     77.95322     156.2796     312.3727      1.379     3.60     827.5911      55.0772     170.3624         9     1.142     0.524 -32.76   0
        10    492.4450      7.6354 307.7302204  +6.6860988     1112.746     1484.224      1738.82     78.07764     156.2174     309.1554      1.369     3.22     827.8882      55.0772     191.9296        11     1.141     0.600 -47.83  16
        11    313.3926      5.3704 307.8046869  +6.6810246     14341.74     20456.56     21711.89     77.95322     156.0931     289.9384      1.544     3.22     837.5776      55.0772     2166.677        39     1.495     0.948 -48.41  16
        12    408.2808      6.2781 307.7652337  +6.6838359     1029.064     1503.279     1653.309     78.57338     156.5278      299.166      1.542     5.21     832.9944      55.0772     133.9286         9     1.175     0.653 -54.84  16
        13     86.7986      5.5410 307.8988198  +6.6733334     2734.628     3922.383     4225.745     77.70377     155.9687     291.6409      1.496     3.52     838.3732      55.0772     377.6137        22     1.464     0.796 -52.81  16
        14     78.3119      4.5306 307.9023798  +6.6734647     1661.037     2402.789      2630.28      78.3259     156.5278     280.5458      1.625     3.42     838.2499      55.0772      247.766        16     1.198     0.823 -50.20  16
        15    782.0528      4.3200 307.6100063  +6.6971637     834.0634     1214.829     1456.827      78.3259     155.7818     278.0782      1.423     4.27     826.2128      55.0772      161.579         8     1.034     0.890 -69.68  16
        16    379.4979      3.2390 307.7772947  +6.6841245     2588.151     3577.925     3468.346      78.3259     148.1157     264.2971      1.448     3.31     835.4677      55.0772     364.1951        16     1.237     0.773 -51.73  24
        17    639.8043      1.1044 307.6692165  +6.6937325     1354.693     1931.606     2030.736     64.60722     120.2652     231.0618      1.085     2.59     827.0765      55.0772     451.0875         9     1.362     0.306  -0.31  24
        18    899.1068    999.3987 307.5279529  +6.2902268     9147.606        14267     15538.52     77.82859     155.9064     312.1862      1.669     3.33     856.3052      55.0772     1244.685        38     1.504     1.113 -39.29   0
        19    944.4657   1020.8173 307.5084033  +6.2828967      6889.14     10885.88     10913.07     77.82859     155.1575     276.2922      1.668     3.56     856.7803      55.0772     854.2716        34     1.492     1.104 -44.31  24
        20    609.3995   1023.5985 307.6474116  +6.2705543     464.3588     656.1277     795.6254     68.82668     124.9367     235.9671      1.514     4.13     860.4575      55.0772     70.04236         5     0.999     0.488  -3.33  24
        21    616.7724   1001.5740 307.6450920  +6.2798944     655.1414     880.3986     890.5404     77.82859     156.0931     312.3105      1.512     5.04     860.1594      55.0772     94.35547         7     0.914     0.786 -81.60   0
        22    530.3589    998.6902 307.6810631  +6.2781923     9210.157     12780.55     13527.74      78.3259     156.2796      312.497      1.472     3.26     861.8604      55.0772     1504.425        32     1.401     0.917 -44.63   0
        23    872.6765    995.5688 307.5390543  +6.2909261     12871.42     19974.64     21552.76     78.20187     156.3417     312.4348      1.710     3.41      856.211      55.0772     1725.367        52     1.607     1.233 -36.91   0
        24     28.2458    998.5635 307.8895082  +6.2613879     588.4753     784.2186     699.0203     78.07764     156.2796     312.3727      1.386     3.48     857.7882      55.0772      100.421         5     0.828     0.423 -21.32   0
        25    994.4454    995.0161 307.4885189  +6.2952162     4787.171     7522.326     7998.021     77.82859     156.1553     312.2484      1.721     3.51     854.6666      55.0772     638.6638        32     1.447     1.172 -48.54   0
        26    585.3672    995.9803 307.6583180  +6.2811529     1397.393     1856.554     1683.263     77.82859     156.0931     312.2795      1.409     3.19     860.6956      55.0772     236.6349        14     1.108     0.838 -47.75   0
        27    516.9526    994.4800 307.6867705  +6.2794816     4674.728     6617.952     7024.698      78.3259     156.2796     312.4659      1.547     3.50     861.7134      55.0772      687.128        29     1.604     1.111 -13.89   0
        28    626.3141    993.9482 307.6413874  +6.2833622     1602.066     2286.174     2400.346      78.3259     156.2174     312.5591      1.433     3.05     860.0252      55.0772      269.272        11     1.023     0.689 -56.95   0
        29     51.6420    993.0788 307.8799818  +6.2644396     963.6723      1404.96      1778.62     78.20187     156.2796     312.4659      1.505     4.70     857.9717      55.0772     154.5765         9     1.117     0.607 -47.08   0
        30    469.8383    990.9573 307.7064483  +6.2793576     2365.817     3497.078     3511.484     78.07764     156.2796     312.3416      1.503     3.42     861.6145      55.0772     412.3216        19     1.308     0.867 -41.03   0
        31    904.3939    983.1618 307.5263028  +6.2971072     45666.38     69951.57     73752.45     77.45351     156.0309     312.2173      1.628     3.31     855.9368      55.0772     6590.549        69     1.585     1.198 -43.60   0
        32    309.8347    984.0270 307.7731057  +6.2768530     554.5222     777.1915     990.2541     77.82859     156.0309     312.2484      1.465     4.41     861.3954      55.0772     103.5583         5     1.023     0.541 -52.78   0
        33    211.7320    981.2953 307.8139235  +6.2746867     1940.422     2856.162     2436.428     78.20187     156.4037      312.497      1.504     3.86     860.3971      55.0772     288.5388        17     1.280     0.766 -48.64   0
        34    610.4139    979.6210 307.6484705  +6.2887455     1007.098     1103.372     1238.379     78.07764     156.0309     312.3727      1.342     4.07     859.8115      55.0772     153.5121        11     1.173     0.627 -44.26   0
        35     99.6633    980.1592 307.8604844  +6.2713889     731.8788     974.3032     846.6449      78.3259     156.2174     312.5591      1.432     2.95     858.2187      55.0772     141.8199         8     0.918     0.731 -12.49   0
        36    750.5059    974.9058 307.5904688  +6.2953772     7297.784     10743.29     11747.29      78.3259     156.7757     312.4348      1.582     3.40     858.8722      55.0772     1067.988        38     1.611     1.057 -61.16   0
        37    802.3377    976.8432 307.5688851  +6.2963090     2595.048     3560.162     3802.441      78.3259     156.2174     312.5591      1.494     3.55     858.1722      55.0772     378.1528        20     1.300     0.848 -40.34   0
        38    219.8504    973.8617 307.8108044  +6.2780286     1515.873     2273.389     1876.974      78.3259     156.2174      312.528      1.531     3.62     860.4464      55.0772     244.9968        13     1.185     0.694 -55.53   0
        39     44.9037    971.8356 307.8834979  +6.2729833     2917.746     4359.616     4475.654     78.44974     156.1553     312.6212      1.522     3.49     857.7997      55.0772     430.2862        24     1.532     0.891 -43.56   0
        40    537.0374    974.0582 307.6791202  +6.2885859     879.9711     1241.086     1124.977      78.3259     156.3417      312.497      1.544     3.81     861.1243      55.0772     138.5034         7     0.891     0.523 -48.18   0
        41    184.0229    973.2648 307.8256977  +6.2770713      821.994     1010.724     328.9934     77.95322     156.2796     312.3727      1.341     4.19     859.3721      55.0772     115.6625         7     0.792     0.732  44.34   0
        42    938.7186    969.8890 307.5124976  +6.3037325     6926.865     10718.43     10914.08     78.07764     156.4658     312.5591      1.657     3.34     855.1444      55.0772     983.4689        34     1.470     1.076 -52.71   0
        43    194.5103    966.2523 307.8215810  +6.2803189     768.9598     1020.915     576.8099      78.3259     156.0931     312.5902      1.465     6.09     859.5487      55.0772     102.9006         9     1.408     0.740 -53.18   0
        44    621.0538    963.9732 307.6445798  +6.2955622     839.2513     964.7898     1027.057     78.07764     156.4037     312.4038      1.337     4.24      859.472      55.0772     136.5264         7     1.097     0.502 -41.71   0
        45    912.5101    961.6487 307.5236551  +6.3062604     2077.945     3245.153     3335.254      78.3259     156.0931     312.6212      1.648     3.77     855.3362      55.0772      329.968        22     1.400     0.969 -24.89   0
        46    772.0488    958.1277 307.5820888  +6.3030244     1375.613     2196.935     2377.475      78.3259     156.3417      312.497      1.542     3.65     857.9029      55.0772     217.1289        15     1.258     0.786 -43.80   0
        47    633.2524    957.4664 307.6397344  +6.2986569     5168.636     7101.958     7609.324      78.3259     156.2174     312.4038      1.470     3.35     859.2066      55.0772     772.1646        28     1.447     0.884 -42.91   0
        48    245.4235    957.6193 307.8007368  +6.2855934     4779.036     6656.106     6877.931     78.07764     156.1553     312.4038      1.464     3.33     860.3297      55.0772     762.6826        23     1.327     0.864 -41.83   0
        49    982.8266    956.8253 307.4946232  +6.3105972     749.6011     1306.129     1200.669     77.82859     156.0931     312.3416      1.758     5.20     853.4288      55.0772     84.91888         9     1.153     0.662 -73.52   0
        50    455.3230    955.6619 307.7136639  +6.2934437     1232.631     1855.327     1401.164     78.57338     156.3417     312.4659      1.489     2.91      860.619      55.0772     219.0425         9     1.020     0.562 -47.56   0
        51     14.1376    954.9420 307.8968413  +6.2789225     2431.118     3553.782     3753.393     78.44974     156.2174      312.497      1.512     3.35     857.6021      55.0772     395.4722        19     1.332     0.782 -43.12   0
        52    864.9162    954.0016 307.5436715  +6.3078294     1052.608     1444.292     1423.502     77.57874     155.8441     312.1862      1.407     4.13     855.8071      55.0772     142.5222         9     0.908     0.727 -62.61   0
        53    936.4086    951.1527 307.5140852  +6.3113913     893.2581     1254.192     1618.995     77.82859     156.1553      312.124      1.463     3.57     854.5848      55.0772     125.3307        10     0.959     0.770 -56.50   0
        54    281.1157    951.2924 307.7861332  +6.2894041     890.4929      1478.59      1461.19     78.07764     156.7138     312.5591      1.591     4.55     860.5957      55.0772     148.6403         8     1.386     0.424 -39.75   0
        55    557.7720    949.9570 307.6713237  +6.2992310     1916.597     2556.596     2462.243     77.95322     156.3417     312.3727      1.339     3.33     860.2007      55.0772     324.3021        15     1.241     0.689 -49.53   0
        56     46.8034    946.8135 307.8835561  +6.2833778     836.7611      1389.43     1914.899     77.95322     155.9687     312.3416      1.670     5.85       857.67      55.0772     126.8675        13     1.435     0.672 -38.00   0
        57    597.0941    946.4262 307.6551175  +6.3020051       1290.5     1759.269     1628.966     78.44974     156.0309     312.3105      1.358     3.87     859.5018      55.0772      222.636        13     1.266     0.636 -40.38   0
        58    277.2077    943.8702 307.7880062  +6.2923372     1558.675     2196.953     2779.667     77.82859     155.9064     312.3727      1.437     3.47     860.3802      55.0772     298.1259        14     1.230     0.726 -41.34   0
        59     41.4234    945.1020 307.8858474  +6.2839034      494.105     597.0909      1390.89     78.44974     156.0309     312.3105      1.403     4.19     857.6461      55.0772     94.89191         5     0.799     0.628  14.40   0
        60    989.1578    949.1978 307.4922504  +6.3139576     755.8923     1717.881     1544.194     77.70377     155.9687     312.1862      2.169     5.90     852.9327      55.0772     118.4038        11     1.491     0.656 -64.61   0
        61    743.7340    940.4969 307.5944367  +6.3093576     895.2014     1128.231     848.0483      78.3259     156.3417      312.497      1.358     3.53      857.845      55.0772      156.528         6     0.870     0.569 -61.69   0
        62    881.4786    936.7809 307.5373732  +6.3154923     7511.931      11274.1     11407.24     77.82859     155.9687     312.4348      1.610     3.39     855.3184      55.0772     1105.783        36     1.550     1.008 -49.74   0
        63    119.8593    938.2229 307.8535188  +6.2893819     574.8822     914.3654     770.4736     77.95322     156.2174     312.3416      1.635     4.30     857.9462      55.0772     96.99426         6     0.969     0.545 -66.04   0
        64    585.8428    934.2571 307.6601984  +6.3066528     603.8583     921.2933     1375.214     78.20187     156.2174     312.4659      1.791     3.22     859.4291      55.0772     139.7704         7     1.149     0.632 -47.36   0
        65    417.5479    933.9086 307.7300798  +6.3011587     2473.709     3440.522     3640.319     78.20187     156.0931     312.6523      1.470     3.32     860.0008      55.0772      429.449        16     1.239     0.755 -44.69   0
        66    318.9526    932.2350 307.7710686  +6.2985423     10521.94      14987.3     15577.63     77.95322     156.2796     312.4038      1.459     3.28     860.1279      55.0772     1745.672        32     1.451     0.893 -46.05   0
        67    239.0899    931.1157 307.8042614  +6.2963231     8005.755     11440.72     11750.76     78.07764     156.5278     312.5902      1.468     3.23     859.4715      55.0772     1352.666        31     1.370     0.946 -45.01   0
        68    157.3674    929.2734 307.8382504  +6.2943378     550.6281     689.0982      904.324     78.20187     156.2796     312.4348      1.271     3.32     858.3021      55.0772     108.3505         5     1.169     0.274 -34.87   0
        69    567.2823    925.6075 307.6681953  +6.3096027     1275.499     1755.022     1970.537     77.95322     155.9064     312.3416      1.443     3.47     859.4448      55.0772      205.761        12     1.129     0.666 -42.14   0
        70    751.2925    925.3933 307.5918062  +6.3158462     716.0341     978.1922     1108.477     77.95322     155.9687     312.2795      1.518     3.40     857.2178      55.0772      147.618         6     0.881     0.483 -46.93   0
        71    897.1009    922.0160 307.5313827  +6.3221099      945.063      1550.21     2218.118      78.3259     156.0309     312.2795      2.126     4.41     854.7167      55.0772     148.1718        11     1.217     0.646 -50.87   0
        72    201.2394    921.3882 307.8203036  +6.2990677     689.2546     741.3333      640.363     77.82859     156.0931     312.2173      1.188     5.00      858.808      55.0772     117.2855         9     1.175     0.602 -50.17   0
        73    129.3980    921.7786 307.8501150  +6.2964918     695.1006     846.5069     536.3859     77.95322     155.9687     312.1862      1.431     4.33     857.8211      55.0772     114.3301         7     0.973     0.550 -29.16   0
        74    853.2416    920.7377 307.5496353  +6.3211737     794.9619     1435.962     1278.081      78.3259     156.2174      312.528      1.880     6.17     855.4886      55.0772     108.8583        11     1.553     0.689 -19.15   0
        75    395.7037    920.3979 307.7396043  +6.3060043     614.1746     639.2198       439.36     77.82859     156.0309     312.1551      1.221     4.30     859.7821      55.0772     99.99152         7     1.000     0.528 -59.55   0
        76    964.2445    917.6525 307.5036519  +6.3261514     868.9207     1285.785     1739.286      78.3259     156.2796     312.4659      1.699     4.79     852.8317      55.0772      122.948         9     1.149     0.567 -45.42   0
        77    585.8535    914.9775 307.6608430  +6.3146133     508.0249       586.66     239.2352     77.82859     156.2796     312.2795      1.376     4.60     858.9224      55.0772      87.7226         7     1.354     0.444 -68.24   0
