#   1 NUMBER                 Running object number                                     
#   2 X_IMAGE                Object position along x                                    [pixel]
#   3 Y_IMAGE                Object position along y                                    [pixel]
#   4 ALPHA_J2000            Right ascension of barycenter (J2000)                      [deg]
#   5 DELTA_J2000            Declination of barycenter (J2000)                          [deg]
#   6 FLUX_APER              Flux vector within fixed circular aperture(s)              [count]
#   9 FLUXERR_APER           RMS error vector for aperture flux(es)                     [count]
#  12 FLUX_RADIUS            Fraction-of-light radii                                    [pixel]
#  13 FWHM_IMAGE             FWHM assuming a gaussian core                              [pixel]
#  14 BACKGROUND             Background at centroid position                            [count]
#  15 THRESHOLD              Detection threshold above background                       [count]
#  16 FLUX_MAX               Peak flux above background                                 [count]
#  17 ISOAREA_IMAGE          Isophotal area above Analysis threshold                    [pixel**2]
#  18 A_IMAGE                Profile RMS along major axis                               [pixel]
#  19 B_IMAGE                Profile RMS along minor axis                               [pixel]
#  20 THETA_IMAGE            Position angle (CCW/x)                                     [deg]
#  21 FLAGS                  Extraction flags                                          
         1      1.9032     71.9797 307.9350729  +6.6319395     411349.4     525808.1     556452.2     74.37624     132.3168     244.0279      1.379     9.72     843.8089     55.07085     62883.46       219     2.002     1.316 -86.81  28
         2    619.1103     13.8206 307.6807147  +6.6765366     3031.584     5081.134     5718.159     78.19286     156.0129     312.2746      1.818     5.78     826.6664     55.07085     439.5184        25     1.662     0.824  35.38   2
         3    438.3164     15.7321 307.7557336  +6.6697316     21808.58     35205.11     36517.45     78.56432     156.5098      312.461      1.741     5.36     831.5925     55.07085     2963.935        43     1.755     0.909  32.55   0
         4    318.9886     16.8458 307.8052514  +6.6652951     860.9095      1578.38     924.4542     77.81962     156.0751     312.1502      1.818     6.02     838.2184     55.07085     146.5993        11     1.563     0.653  39.77   0
         5    258.8863     16.2109 307.8302320  +6.6635524     8515.413      14125.8     15151.01     77.94423     156.0129     312.2746      1.742     5.75     838.7377     55.07085     1329.024        34     1.731     0.858  32.06   0
         6    916.3624     15.6794 307.5572019  +6.6856351      1644.98     2897.407     3209.541     78.19286     156.3236     312.4299      1.863     5.76     824.6907     55.07085     188.2531        20     1.717     0.784  40.07   0
         7     24.2107     16.0549 307.9276911  +6.6557768     2048.301     3321.647     3037.421     77.69481     156.1994     312.1191      1.716     5.42      842.699     55.07085     275.3507        20     1.723     0.689  31.56   0
         8    246.7621     12.8182 307.8353808  +6.6645487     2832.385     4774.288     4936.162     77.94423     156.1373     312.1813      1.731     6.29     838.7075     55.07085     374.4584        21     1.650     0.757  31.63   0
         9    300.0897     11.0778 307.8132933  +6.6670464     923.9036     1453.906     1795.186     78.06864     156.5098     312.5541      1.760     4.71     838.6235     55.07085     141.7078         9     1.333     0.472  31.63   0
        10    936.7289      5.2254 307.5490920  +6.6906265     796.1328     1728.713     2018.263     77.94424     156.1373     288.5965      2.405     6.61     824.1083     55.07085     106.8846        14     1.727     0.709  37.69  16
        11    688.3167      5.2935 307.6522582  +6.6823573       1648.4      2688.28     2973.469     78.06865     156.6337     289.3689      1.717     5.30     826.3035     55.07085      226.366        19     1.558     0.793  25.96  16
        12     93.0352      5.8172 307.8994548  +6.6623051     565.9351     881.5826     755.1341     77.94423     156.0751     294.4556      1.719     3.96      838.171     55.07085     112.7726         6     1.027     0.438  36.12  16
        13    254.6006      1.2732 307.8325131  +6.6695772     514.6533     542.8426     765.3336     66.81527     122.8858     233.7497      0.940     2.37     838.6847     55.07085     168.9471         6     0.862     0.444  -2.42  24
        14    199.9684      1.3817 307.8551972  +6.6677088     611.6651     860.6471     527.7669     68.39436      124.689     235.8165      1.508     3.81     838.4896     55.07085     117.8809         6     0.982     0.424  15.48  24
        15    955.0557    994.2410 307.5085440  +6.2828428     4737.204     9782.324     10212.07     78.19286     156.3236      312.461      2.157     5.49     853.4394     55.07085     530.5139        45     1.977     1.247  34.39   0
        16    796.6664   1023.3022 307.5733043  +6.2655944       7035.5        10771     11283.22     72.66015     129.6495     241.0267      1.628     5.82     857.2449     55.07085     1135.287        28     1.765     0.783   9.00  24
        17     66.8048   1023.6323 307.8761511  +6.2411687     2535.685     3439.958     3554.399      67.8244     124.4553      235.487      1.338     3.58     856.8847     55.07085     600.2095        16     1.530     0.543   4.00  24
        18    239.5901    994.6082 307.8054288  +6.2589189      1047.08     2020.982     2034.613     77.81963     156.0751     312.3367      1.853     6.27      857.056     55.07085     147.7122        14     1.476     0.749  16.02   0
        19    715.1229    992.4772 307.6081705  +6.2756177     2181.086     4137.742     5456.622     78.56432     156.5098     312.5231      2.158     5.14      858.631     55.07085     295.4484        28     1.833     0.949  27.12   0
        20    438.6861    993.6053 307.7228460  +6.2659650     818.1352     1414.928     1335.485     77.81963     155.9507     312.1502      1.684     5.49     859.5342     55.07085     106.5385        11     1.395     0.610  26.69   0
        21    730.7506    991.4214 307.6017205  +6.2765723      843.719     1630.735     1922.182     77.81963     156.3236     312.3056      2.055     6.08     858.4271     55.07085     114.1616        10     1.515     0.686  35.45   0
        22    361.4548    990.0851 307.7550118  +6.2648475     1469.126     2827.916     3465.453     78.31688     156.2616     312.5852      2.191     5.89     859.0416     55.07085     180.5058        23     1.775     0.854  27.71   0
        23    294.0731    978.9930 307.7833440  +6.2671827     12343.08     22905.88     26224.23     77.94423     155.8262     312.3367      2.043     4.99      858.532     55.07085     1624.354        69     1.943     1.488  13.30   0
        24    748.3973    979.4802 307.5947957  +6.2820886     6470.918     12144.08     13253.02     77.69481     155.7639     312.1813      1.990     5.01     857.7847     55.07085     765.5366        45     1.912     1.137  33.35   0
        25    543.7604    980.2015 307.6796915  +6.2749946     3480.122     6472.762     7399.911     77.44459     156.0129     312.1191      1.998     5.28     859.9656     55.07085     451.6141        31     1.839     1.000  29.67   2
        26    541.0070    972.4235 307.6810940  +6.2781147     6758.015     12654.18     14392.79     77.81962     156.0751     312.2746      1.947     5.21     859.7002     55.07085     827.7128        41     1.848     1.068  33.60   3
        27    514.7128    981.6256 307.6916979  +6.2734407     885.2336     1513.093     1358.504      78.4407     156.0751     312.3056      1.792     5.43     859.8328     55.07085     112.3039        10     1.345     0.619  32.00   0
        28    418.5121    979.6765 307.7316834  +6.2710450     966.8311     1703.065     1662.625     78.31688     156.5718     312.5231      2.001     5.79      858.985     55.07085      106.991        12     1.178     0.800  23.24   0
        29    809.5332    978.5980 307.5694546  +6.2844806     803.7678     1336.697     1348.718     77.81963     155.8885     312.2124      1.692     5.74     856.3328     55.07085     141.6382        10     1.448     0.642  35.90   0
        30    909.7045    972.8931 307.5280747  +6.2901560     6572.907     13081.64     15019.77     78.31688     156.8195     312.3678      2.211     5.01     854.4044     55.07085     791.9238        50     2.002     1.265  38.85   0
        31    265.4189    976.4751 307.7953187  +6.2672673     915.5426     1404.683     1304.813     77.81963     156.0129     312.3678      1.747     6.51     857.5628     55.07085     108.0331        14     1.324     0.898  17.35   0
        32   1004.8922    968.4402 307.4887206  +6.2951463     3444.308     7303.761     8181.614      78.4407     156.1994      312.492      2.251     5.73     851.0352     55.07085     391.7266        45     2.042     1.320  34.58   0
        33    883.2685    969.0499 307.5391734  +6.2908672     9335.904     18970.67     21723.98     78.19286     156.1994     312.4299      2.229     5.18     854.7022     55.07085     1095.116        63     2.050     1.380  28.88   0
        34    595.7691    969.3508 307.6584716  +6.2812036     1076.141     1816.224     1921.675     77.94424     156.2616     312.3367      1.793     6.65     859.6282     55.07085     154.4716        16     1.539     0.902  24.96   0
        35    527.8461    968.2053 307.6866965  +6.2794190     3354.367     6272.627     7911.699     77.69481     156.0751     312.1191      2.248     5.76     859.5129     55.07085     419.3365        37     2.181     1.025  16.72   0
        36    637.0667    967.3763 307.6413998  +6.2833909     1095.352     2063.017     2304.495     77.94423     156.2616     312.3678      1.929     6.54     859.0305     55.07085     153.0634        17     1.691     0.710  30.67   0
        37     62.3015    967.1035 307.8799175  +6.2643593     799.9863     1340.136      1159.15     78.31688     156.7576     312.2746      1.825     6.79     854.3364     55.07085     109.0467        12     1.328     0.974  29.47   0
        38    480.2785    964.6002 307.7065564  +6.2793255     1851.568     3542.041     3529.482      77.5698     155.6392     312.1502      1.896     5.63     859.2006     55.07085     238.6625        24     1.824     0.832  30.98   0
        39    915.0242    956.5922 307.5264097  +6.2970633     33079.75     65875.12     72628.82     77.94423     156.1373     312.2746      2.124     5.22     853.8814     55.07085     3743.935        80     2.074     1.335  34.96   0
        40    222.1389    954.9923 307.8139982  +6.2746948     1475.068     2818.279     2732.585     77.69481     156.0751     312.2124      1.956     6.19     855.8685     55.07085     198.1927        22     1.748     0.865  25.57   0
        41    621.3808    952.9833 307.6483897  +6.2888130     708.0989     1340.883     1278.081     78.06864     156.0129     312.3367      1.954     4.05     858.9015     55.07085     135.4709        10     1.296     0.585  44.67   0
        42    812.6583    950.2598 307.5691021  +6.2962858     1866.415     3535.002     3479.567     78.31688     156.1994      312.461      2.024     5.96     855.7523     55.07085     216.9096        24     1.643     0.994  26.20   0
        43    761.0576    948.2639 307.5905827  +6.2953986     5234.696     10068.25     12009.19      78.4407     156.1994      312.461      2.145     5.17     856.8067     55.07085     593.8877        47     2.003     1.251  35.84   0
        44    547.6039    947.5460 307.6791877  +6.2886064     822.1525     1530.974     996.5241     77.69481     156.0129      312.088      1.940     5.56     858.9719     55.07085      122.108        10     1.584     0.551  25.30   0
        45    230.5085    947.6170 307.8107724  +6.2780192     1238.959     2173.459     2492.708     78.06865     156.0129     312.3367      1.881     6.60     855.9619     55.07085     181.9373        17     1.719     0.711  31.16   0
        46    195.1708    947.5612 307.8254382  +6.2768637     770.7037     1120.887     897.9886     77.81962     155.9507     312.2746      1.574     4.04     855.3077     55.07085     128.8582         8     1.324     0.613  12.59   0
        47     55.4648    945.8488 307.8834681  +6.2729071     2243.168     3939.192     4447.869     78.19286     156.1373     312.4299      1.917     5.69      853.296     55.07085     259.6737        27     1.785     1.002  26.39   0
        48    949.3428    943.3207 307.5126093  +6.3036800     5158.772     10169.67     10964.96     78.31688     156.2616     312.3989      2.088     5.09     852.7066     55.07085     635.0632        45     1.930     1.266  31.24   0
        49    206.1578    940.7767 307.8211064  +6.2800315     591.1597     730.3904     1097.007     77.94423     156.1373     312.2124      1.445     4.44     855.4017     55.07085     93.65918         7     1.044     0.537  64.50   0
        50    631.5896    937.1880 307.6446806  +6.2956743      669.183     1030.288     478.5041     78.06865     156.0751     312.3678      1.687     4.98     858.1995     55.07085     101.5785         7     1.486     0.472  29.57   0
        51    923.0813    934.7814 307.5237922  +6.3063365      1696.87     3461.145     3625.762     77.94423     155.9507     312.3678      2.095     6.38     853.1933     55.07085     237.5127        23     1.652     0.979  30.69   0
        52    782.7397    931.5989 307.5821403  +6.3029992     1015.121     2095.825     1997.674     77.69481     156.0751     312.1191      1.983     7.21     856.1182     55.07085     134.8577        17     1.687     0.952  35.59   0
        53    643.9336    931.2418 307.6397564  +6.2985396     3728.247     6564.837     6668.129     78.31688     156.1994      312.492      1.851     5.20     857.7917     55.07085     477.4059        30     1.741     0.983  34.15   0
        54    256.0133    931.5638 307.8007267  +6.2854982     3737.074     6664.378     6969.125     77.81962     156.0751     312.1502      1.869     5.22     856.0503     55.07085     462.4672        29     1.756     0.950  31.29   0
        55    993.3820    930.3174 307.4947655  +6.3105074     662.9809     1243.358     1013.253     77.94424     155.9507     312.3989      1.837     5.05     851.2224     55.07085     94.35425         8     1.079     0.669  32.54   0
        56     24.9328    929.2862 307.8966938  +6.2787258     1783.783     3210.081     3884.116      78.4407     156.5098      312.461      1.989     6.18     851.9871     55.07085     215.5599        21     1.615     0.922  26.12   0
        57    875.8112    927.7918 307.5436422  +6.3076567     733.4101     1452.576     1395.841     77.94423     156.0751     312.3678      1.883     4.92     853.4405     55.07085     110.7972         8     1.144     0.598   8.71   0
        58    292.0230    924.9811 307.7860041  +6.2894166     647.8359     1492.415     1274.878     78.06864     156.1994     312.3678      1.971     7.24     856.2311     55.07085     117.2131        11     1.972     0.745  28.32   0
        59    568.3937    923.7454 307.6713554  +6.2991253      1301.31     2423.656     2444.529     77.81963     156.0129     312.1502      2.000     5.71     858.2764     55.07085     201.6157        19     1.728     0.752  32.12   0
        60    466.1082    929.3198 307.7136166  +6.2934220     894.4042     1738.862     1794.713     78.06864     156.5098      312.492      1.755     6.60     858.1866     55.07085     120.3568        15     1.811     0.674  30.49   0
        61    608.0045    919.9489 307.6550439  +6.3020093     1170.263     1767.686      1242.65     77.69481     156.0129     312.0258      1.502     5.51     858.1525     55.07085     169.8004        12     1.468     0.583  35.84   0
        62     57.1655    920.9091 307.8835998  +6.2832616     611.8409     1257.661      1960.25      78.4407     156.1373     312.4299      3.079     5.31     852.2563     55.07085     82.99854         9     1.552     0.513  20.09   0
        63    287.5959    917.9784 307.7880759  +6.2921606     1277.086      2146.84     2626.065     77.94423     156.0129     312.2124      1.934     6.08     856.0091     55.07085     163.6707        18     1.613     0.775  21.39   0
        64    555.6736    915.8737 307.6768972  +6.3019529     668.6268     1254.154      1507.33     78.56432     156.5098     312.5231      2.343     5.38     858.1323     55.07085     85.64703         9     1.164     0.701  43.98   0
        65    754.1312    913.3117 307.5946226  +6.3096014     866.3252       1470.3     1464.206      78.4407     156.5098     312.4299      1.802     5.81     856.2101     55.07085     114.6476        11     1.196     0.838   6.14   0
        66    892.0017    910.1013 307.5375122  +6.3154980      5353.58     10631.92     11880.21     77.81962     156.0129     312.1191      2.109     5.32     853.0288     55.07085     649.6345        47     1.970     1.196  32.92   0
        67    101.4171    909.4171 307.8656226  +6.2894847     481.6667     825.4048     568.6539     78.06865     155.9507     312.3678      1.753     4.82     852.7648     55.07085     83.05017         7     1.356     0.486  35.77   0
        68    427.9227    907.7170 307.7301857  +6.3010715     1945.632     3368.675      3393.81      78.4407     156.5718     312.5541      1.786     5.84     856.9911     55.07085     236.1533        20     1.653     0.785  29.47   0
        69    329.5203    906.0751 307.7710766  +6.2984727     8344.747     14442.02     15640.88     78.56432     156.5098     312.5541      1.861     4.95     855.8022     55.07085     1092.755        41     1.796     1.005  29.63   0
        70    249.6273    905.0940 307.8042638  +6.2962150     6071.138     10675.85     11387.87      78.4407     156.0129     312.2746      1.845     5.09     855.2931     55.07085      795.269        35     1.766     1.001  29.95   0
        71    577.7181    899.5256 307.6682949  +6.3094360     1069.229     2051.758     2486.371     78.56432     156.5718      312.492      2.111     5.58     857.7542     55.07085      157.892        17     1.493     0.975  28.58   0
        72    762.4039    899.4119 307.5916529  +6.3156154     543.6474     776.6093     438.9526     77.94424     155.9507     312.3056      1.428     3.91     855.7808     55.07085     82.19153         5     0.990     0.443  76.23   0
        73    907.6838    895.3676 307.5314945  +6.3221015     953.4543     1818.309     2098.715     78.31688     156.0751     312.3678      1.837     7.11     852.5049     55.07085     121.1262        18     1.915     0.739  30.12   0
        74    863.0569    893.4875 307.5500780  +6.3213992      670.575     1177.524     1206.842     78.31688     156.1373     312.5541      2.159     5.83     853.3513     55.07085     100.0273         7     1.425     0.671  27.87   0
        75    407.0757    894.0126 307.7392957  +6.3060363     491.0506     828.2996     914.1779     77.94423     155.9507     312.2435      1.472     4.10     856.1605     55.07085     81.81274         7     1.462     0.328  27.92   0
        76    976.4446    890.9495 307.5031045  +6.3262029      573.902     1207.719     1924.739      78.4407     156.1373      312.461      2.163     4.46     850.7943     55.07085     100.0287         5     1.002     0.565  10.11   0
        77    744.1327    888.3905 307.5996032  +6.3195602     1420.508      2613.55     3086.424     77.81962     156.0751     312.3678      1.857     5.91     855.9789     55.07085      183.673        18     1.599     0.779  39.70   0
