#   1 NUMBER                 Running object number                                     
#   2 X_IMAGE                Object position along x                                    [pixel]
#   3 Y_IMAGE                Object position along y                                    [pixel]
#   4 ALPHA_J2000            Right ascension of barycenter (J2000)                      [deg]
#   5 DELTA_J2000            Declination of barycenter (J2000)                          [deg]
#   6 FLUX_APER              Flux vector within fixed circular aperture(s)              [count]
#   9 FLUXERR_APER           RMS error vector for aperture flux(es)                     [count]
#  12 FLUX_RADIUS            Fraction-of-light radii                                    [pixel]
#  13 FWHM_IMAGE             FWHM assuming a gaussian core                              [pixel]
#  14 BACKGROUND             Background at centroid position                            [count]
#  15 THRESHOLD              Detection threshold above background                       [count]
#  16 FLUX_MAX               Peak flux above background                                 [count]
#  17 ISOAREA_IMAGE          Isophotal area above Analysis threshold                    [pixel**2]
#  18 A_IMAGE                Profile RMS along major axis                               [pixel]
#  19 B_IMAGE                Profile RMS along minor axis                               [pixel]
#  20 THETA_IMAGE            Position angle (CCW/x)                                     [deg]
#  21 FLAGS                  Extraction flags                                          
         1    920.9578     14.9085 307.5489589  +6.6904300     996.5331     1417.601     1976.556     77.73412     155.0988     310.1976      1.513     5.36     814.8513     54.66107     162.2845        13     1.373     0.820 -34.51   0
         2    672.3879     14.3946 307.6522421  +6.6823802     2072.908     2929.593     2936.378     77.36426      154.852     310.0126      1.461     3.43     815.7085     54.66107     342.7274        18     1.292     0.817 -49.15   0
         3    183.5428     10.2490 307.8554589  +6.6677807     764.4203     1076.905     1096.663     77.73412     155.0988     310.2285      1.637     4.60     821.9615     54.66107     127.6606         8     1.268     0.474 -47.02   0
         4    238.5553      9.4667 307.8326325  +6.6699434      901.187     1068.147     1476.346     77.73412     155.0372      310.136      1.339     4.68     822.8052     54.66107     159.4427         9     1.208     0.593 -27.66   0
         5    160.6055      7.3621 307.8650846  +6.6682051     11534.15     17046.48      17341.9     76.86832      154.852     304.9441      1.572     3.79     821.5768     54.66107     1777.462        36     1.550     0.940 -40.55  16
         6    906.2610      4.9572 307.5553978  +6.6940505      4214.79     6124.228     6750.804     77.73412     155.0988     283.4291      1.521     3.69     814.5309     54.66107     628.0708        23     1.479     0.816 -46.98  16
         7    504.8699      5.4823 307.7221339  +6.6804795     3213.846      4384.09     4683.555     77.97973     155.3452       289.14      1.492     3.64     815.8942     54.66107     495.0557        22     1.419     0.828 -40.69  16
         8    707.2517      3.5647 307.6381218  +6.6880114     2222.741     3121.505     3570.132     77.61103      149.895     266.2797      1.508     3.45     815.4131     54.66107     348.0205        18     1.351     0.756 -44.64  24
         9    443.1522      4.0403 307.7478217  +6.6790165      1970.76     2990.158     2781.229     77.61103      153.363     272.4206      1.558     3.61     819.0062     54.66107      341.204        19     1.383     0.844 -42.46  16
        10    970.6142      1.8764 307.5287654  +6.6974582     1723.566     2381.565     2498.932     73.43324     131.0407      241.817      1.421     4.03     812.6217     54.66107     307.8848        13     1.290     0.642 -23.60  24
        11    765.0596      1.5517 307.6141735  +6.6907651     365.7472     465.4008     591.1443     70.23895     126.4362     236.7828      1.244     3.45     815.0972     54.66107     85.12366         5     1.470     0.234 -17.61  24
        12    223.2054   1003.5303 307.8055258  +6.2590365     1316.148     1860.563     1709.419     77.24057     154.7285      309.951      1.567     3.77     848.2464     54.66107     186.3388        15     1.276     0.750 -30.68   0
        13    775.4042   1021.6563 307.5757038  +6.2699500     6022.378     10289.31     11007.86     77.11668     147.7104     263.1736      1.833     3.86     848.8807     54.66107     741.1472        38     1.609     1.196 -39.59  24
        14    565.0372   1023.4909 307.6629652  +6.2621959     85363.77     100378.6     102394.3     69.82939     125.7537     236.1763      1.146     2.96     850.6199     54.66107     17785.13        29     1.306     0.671  -5.56  27
        15    566.2292   1017.5950 307.6626681  +6.2646697     70297.67     115743.6     123972.4     77.24057     154.9138     305.3828      1.774     3.90     850.4681     54.66107     8864.049        89     1.798     1.266 -42.02  19
        16    422.0192   1002.6295 307.7230312  +6.2660436     904.9278     1380.809     1103.246     77.36425     154.9138     310.0435      1.598     5.15     849.5511     54.66107     137.0557        12     1.236     0.843 -50.49   0
        17    714.1890   1000.9669 307.6018072  +6.2764573     1059.851     1601.967     1407.362     77.24057      154.852      309.951      1.576     4.91     848.9847     54.66107     131.4024         9     1.039     0.656 -57.11   0
        18    345.4240    999.1605 307.7549417  +6.2649210     1933.998     3000.507      3355.25     77.36425      154.852     309.8893      1.767     4.04     848.4835     54.66107     291.1667        20     1.443     0.884 -35.57   0
        19    193.2036    997.6370 307.8181774  +6.2604672     524.3621     744.1084     569.2469     76.86832     154.9138     309.9201      1.512     4.43     846.8356     54.66107     84.83069         6     1.170     0.477 -46.83   0
        20    956.6947    995.7549 307.5013144  +6.2866617     569.8608     813.0201     681.7067     77.61103     155.0372     310.2285      1.775     4.47     843.7279     54.66107     93.70587         5     1.170     0.486 -57.56   0
        21    596.2162    993.6345 307.6510241  +6.2755602     536.8019     929.8552     783.4358     77.36425      154.852      309.951      1.641     4.79     849.6457     54.66107     82.08606         7     1.045     0.622  50.06   0
        22    277.7437    987.9933 307.7834106  +6.2672724     14973.89     23695.02     26222.59     77.24057     154.9755     309.8275      1.726     3.96     847.8853     54.66107       2067.5        54     1.927     1.072 -39.74   0
        23    732.0848    988.7331 307.5947882  +6.2821031     7571.332     12518.78     12828.22     77.85703     155.3452      310.136      1.754     3.86     848.6611     54.66107     999.0314        41     1.583     1.172 -43.35   0
        24    527.5228    989.3391 307.6796831  +6.2750464     4282.375     6778.772     7655.166     77.85703     155.1604     310.0743      1.752     3.94     849.7022     54.66107     551.5522        29     1.514     0.993 -47.75   0
        25    498.0917    990.4343 307.6918632  +6.2736138     1015.727     1650.559     1507.777     77.85703     154.9755     310.1668      1.703     4.02     849.7405     54.66107     136.2418        11     1.084     0.698 -24.92   0
        26    793.6856    987.9149 307.5692443  +6.2844879     1028.952     1616.488     1934.522     77.48774     155.2221     310.1668      1.807     5.67     847.6001     54.66107     141.3005        13     1.223     0.820 -31.07   0
        27    402.1290    988.5573 307.7317602  +6.2711901      1054.35     1597.041     1666.336     77.61103     155.0988     310.1668      1.646     5.11     848.9581     54.66107     133.4573        11     1.164     0.747 -31.48   0
        28    248.9101    985.5537 307.7954612  +6.2673167     911.0613     1596.648     1765.174     77.73412     154.9755     310.2285      1.710     5.88     847.7273     54.66107     151.9935        11     1.243     0.783 -59.42   0
        29    893.3255    982.2299 307.5280722  +6.2901434     7839.299     13840.86        14676     77.61103     155.0988     310.1051      1.892     4.13     845.8854     54.66107      1028.53        45     1.754     1.209 -41.86   0
        30    524.6936    981.5275 307.6811196  +6.2781772     8568.064     13336.78     14181.18     77.61103     155.2221     310.1668      1.695     3.87     849.5092     54.66107     1116.808        35     1.602     1.014 -38.67   0
        31    866.9686    978.3716 307.5391425  +6.2908615     11195.27      20063.4     22425.17     77.24057      154.852     309.8893      1.921     4.17     846.5534     54.66107     1404.011        54     1.790     1.274 -41.18   0
        32    579.9012    978.8356 307.6582929  +6.2811269     1325.636     2211.863     2690.102     77.73412     154.9755     310.2901      1.986     5.61     849.2734     54.66107     219.5656        18     1.611     0.793 -50.25   0
        33    988.7357    977.7502 307.4886150  +6.2951578     4195.631     7833.313     7910.833     77.61103     155.0372      310.136      2.004     4.54     842.0178     54.66107     472.2128        39     1.751     1.251 -46.71   0
        34    510.9636    977.3625 307.6869588  +6.2794394     3934.368     6540.654     7113.496     77.48774     154.9755     309.9201      1.802     3.77     849.3958     54.66107     568.8617        34     1.596     1.223 -53.37   0
        35    621.0931    976.5693 307.6412697  +6.2834336     1400.362     2062.627      1685.16     77.85703     154.9138     310.1051      1.605     4.66     848.9709     54.66107     205.1688        17     1.384     0.922 -43.02   0
        36     46.2645    976.1136 307.8798939  +6.2644393     724.4869     1089.546      1420.61     77.85703     155.2836     310.1051      1.722     5.48      843.986     54.66107     104.4189        11     1.162     0.791 -55.94   0
        37    464.1180    973.9520 307.7065191  +6.2792865     2182.679     3550.544     3170.114     77.73412     155.0988      310.136      1.681     4.27     849.2267     54.66107     338.8762        22     1.524     0.861 -37.22   0
        38    898.7395    965.8936 307.5263709  +6.2970677     39499.94     68547.56     72846.33     77.61103     155.0372      310.136      1.856     4.01     845.3079     54.66107     4631.682        73     1.737     1.322 -41.10   0
        39    304.0594    968.0390 307.7731583  +6.2763890     616.1737     894.1521      688.637     77.73412     155.1604     310.1976      1.560     5.08     847.5688     54.66107     111.8707         6     1.051     0.695 -14.60   0
        40    206.1282    964.3654 307.8139326  +6.2746351     1730.572      2722.22      2962.81     77.61103     155.0372     310.1051      1.641     4.40     846.1646     54.66107     230.4114        19     1.348     0.926 -30.27   0
        41     93.7100    963.2041 307.8606353  +6.2713563     855.6649     1268.002     886.4707     77.24057     154.7903     309.8584      1.561     5.79     843.7995     54.66107      124.696        11     1.251     0.754 -56.95   0
        42    605.3005    962.4364 307.6482993  +6.2887429      717.469     1101.113      643.348     77.73412     154.9755     310.2901      1.612     3.98     848.7072     54.66107     122.2993         7     0.879     0.817 -19.88   0
        43    796.9584    959.5178 307.5688360  +6.2963206     2232.778     3668.115     3708.115     77.73412     155.0988     310.0435      1.760     4.22     846.7657     54.66107     289.2047        23     1.485     0.971 -42.13   0
        44    744.9193    957.5206 307.5905056  +6.2954161     6438.395     10539.19     11471.71     77.97973     155.3452     310.2593      1.757     3.85     847.6764     54.66107     809.4119        35     1.583     1.085 -50.66   0
        45    531.5995    957.3293 307.6790649  +6.2883975     889.9835     1252.757     1410.453     77.24057     154.6049     309.9201      1.413     2.61     848.7868     54.66107     162.7979         7     0.784     0.660 -12.27   0
        46    214.1499    956.7455 307.8108594  +6.2780489     1463.258      2396.75     2234.134     77.73412     155.0988      310.136      1.627     4.39     846.1732     54.66107     214.8865        16     1.413     0.801 -31.90   0
        47    178.7548    956.3801 307.8255640  +6.2770170     906.9554     1362.817     1544.684     77.36425     154.9755      309.951      1.785     3.00     845.0396     54.66107     166.4116         9     0.889     0.845  49.19   0
        48    933.0490    952.5699 307.5125734  +6.3037069     5963.477     10670.85      11412.4     77.36425     155.1604     310.0126      1.901     4.08     844.1264     54.66107     742.1158        40     1.691     1.205 -34.73   0
        49     39.2133    954.7243 307.8835419  +6.2730337     2769.973     4422.653       4759.3     77.24057      154.852     309.9201      1.708     4.11     843.5721     54.66107     367.1389        22     1.407     0.964 -38.91   0
        50    906.7103    944.3013 307.5237839  +6.3062468     1907.587     3097.952     3236.242     77.73412     155.5297     310.0743      1.724     4.50     844.6045     54.66107     258.2542        24     1.511     1.027 -35.56   0
        51    627.6276    940.3184 307.6397724  +6.2986175     4521.128     6939.852     7313.633     77.61103     154.9138     310.0435      1.669     3.96     847.8581     54.66107     624.6488        29     1.477     1.020 -43.43   0
        52    239.7401    940.5497 307.8007820  +6.2855902     4453.243     6784.741     7148.688     77.73412     155.0372      310.136      1.644     4.02     846.1532     54.66107     599.7178        27     1.474     0.942 -42.07   0
        53    977.1349    939.8268 307.4946977  +6.3104303     784.2592     1195.246     1526.013     77.36425     155.0372     310.0126      1.624     6.09     842.0092     54.66107      102.858        10     1.170     0.891  82.44   0
        54    766.5817    940.6331 307.5820783  +6.3031081     1208.982     1855.513     1954.274     77.24057     154.9138      309.951      1.598     5.88     846.8015     54.66107     135.5049        13     1.326     0.734 -38.72   0
        55    449.7158    938.6310 307.7136837  +6.2933888      1264.35     1896.419     1611.129     77.73412     154.9138     309.9818      1.643     4.24      848.272     54.66107     160.5262        13     1.169     0.764 -47.79   0
        56      8.5903    937.9240 307.8968197  +6.2789445     2000.699     3401.966       3260.9     77.36425     154.6667     309.9201      1.766     4.85     843.2368     54.66107     266.9324        21     1.618     0.844 -31.16  16
        57    859.2380    936.7576 307.5437435  +6.3077857     710.3292     1132.703     723.2397     77.48774     155.0988     309.9818      1.544     2.77     845.3037     54.66107     126.4926         6     0.752     0.529 -38.91   0
        58    930.7332    933.9993 307.5141555  +6.3112972     755.6835      1102.18      738.271     76.99261     154.6667     309.8584      1.542     4.84      843.905     54.66107     102.3821         9     1.076     0.617 -34.96   0
        59    552.0816    932.8502 307.6713838  +6.2991860     1671.338     2612.905     2819.208     77.73412     155.1604      310.136      1.718     4.32     847.9988     54.66107     260.4744        19     1.442     0.914 -45.22   0
        60    275.7693    934.0168 307.7860460  +6.2894905     719.8952     1331.155     1483.683     77.36425      154.852     310.0435      1.986     4.83     846.5808     54.66107     134.6325         8     1.162     0.569 -46.01   0
        61    984.1981    931.2351 307.4920525  +6.3142117     653.8329     1471.542     2031.899     76.86832     154.9138     309.9201      2.464     5.64     841.5789     54.66107     98.09186         8     1.358     0.659 -29.96   0
        62     41.2444    929.9340 307.8835348  +6.2833361     747.7885     1263.579      1370.97     77.73412     155.0372      310.136      1.737     5.97      843.095     54.66107     115.0408        10     1.655     0.607 -35.84   0
        63    591.5489    929.0005 307.6551291  +6.3020894     1340.535     1692.522     1467.966     76.99261     154.6667     309.6732      1.445     3.84     847.8011     54.66107     203.0795        14     1.279     0.687 -51.91   0
        64    271.2877    927.1924 307.7881359  +6.2921583     1473.642     2121.453     2796.424     77.24057     154.7903     309.8584      1.556     4.40     846.3359     54.66107     236.5867        14     1.367     0.717 -44.06   0
        65    539.2838    925.1881 307.6769535  +6.3019231     650.5631     1014.802     567.5005     77.36425     154.9138      309.951      1.534     4.69     847.8293     54.66107     93.08264         7     1.328     0.470 -64.94   0
        66    738.9930    923.0037 307.5941216  +6.3094697     928.3282     1338.454     1124.691     77.11668     154.7903     309.9818      1.459     2.93     846.8917     54.66107     155.0125         8     0.794     0.677 -38.85   0
        67    875.8162    919.4774 307.5374392  +6.3154704     6588.887     10678.83     11379.91     77.36425     154.7903     309.9818      1.756     3.73     844.6113     54.66107     877.3049        39     1.601     1.111 -40.13   0
        68    113.9930    920.9941 307.8536384  +6.2894607     480.7397     647.3109     985.6232     77.11668     154.9138      309.951      1.480     3.69     843.0338     54.66107     70.25299         5     0.993     0.394 -60.56   0
        69    411.7101    916.7177 307.7301966  +6.3011687     2196.375     3425.839     3702.609     77.48774     155.3452     310.1668      1.661     3.62     847.2852     54.66107     309.4099        23     1.422     0.935 -37.14   0
        70    313.2456    915.1474 307.7711238  +6.2985319     9950.932     14990.84     16506.33     77.73412     155.0988     310.1668      1.616     3.76     846.4954     54.66107     1400.659        36     1.566     0.994 -43.03   0
        71    581.0591    916.4150 307.6599058  +6.3069362     558.2634     905.9128     691.6396     77.11668     155.0988     309.8584      1.657     4.24     847.5479     54.66107     92.51733         6     0.799     0.642 -46.55   0
        72    233.4090    914.0920 307.8043006  +6.2963017     7182.053     11035.25     11295.79     77.36425     154.7903     309.8893      1.636     3.74     845.4359     54.66107     1042.718        32     1.565     0.957 -39.00   0
        73    561.5355    908.6696 307.6682704  +6.3094839     1113.239     1576.147     994.9516     77.73412     155.1604      310.136      1.414     4.03     847.3893     54.66107     163.1699        12     1.150     0.699 -41.66   0
        74    746.3475    908.4060 307.5915573  +6.3157410     772.5203     828.1364     842.0889     77.24057     154.9138     309.7658      1.397     4.86     846.4852     54.66107     96.84271         8     0.999     0.671  -5.02   0
        75    891.6777    904.3702 307.5313596  +6.3222340     1026.758     1920.989      2219.43     77.61103     155.1604     310.1051      2.045     4.82     843.9762     54.66107     140.8093        13     1.311     0.730 -20.54   0
        76    847.5297    903.6371 307.5497119  +6.3210712     685.9878     1159.183     1132.549     77.61103     155.1604     310.1668      1.899     5.50     844.8503     54.66107      116.717         9     1.721     0.495 -31.98   0
        77    958.9995    900.2587 307.5035485  +6.3261651     619.7098     1250.312     2203.779     76.99261     154.7903     309.7967      2.466     4.51     842.0031     54.66107     100.5847         5     0.992     0.584 -69.80   0
