#   1 NUMBER                 Running object number                                     
#   2 X_IMAGE                Object position along x                                    [pixel]
#   3 Y_IMAGE                Object position along y                                    [pixel]
#   4 ALPHA_J2000            Right ascension of barycenter (J2000)                      [deg]
#   5 DELTA_J2000            Declination of barycenter (J2000)                          [deg]
#   6 FLUX_APER              Flux vector within fixed circular aperture(s)              [count]
#   9 FLUXERR_APER           RMS error vector for aperture flux(es)                     [count]
#  12 FLUX_RADIUS            Fraction-of-light radii                                    [pixel]
#  13 FWHM_IMAGE             FWHM assuming a gaussian core                              [pixel]
#  14 BACKGROUND             Background at centroid position                            [count]
#  15 THRESHOLD              Detection threshold above background                       [count]
#  16 FLUX_MAX               Peak flux above background                                 [count]
#  17 ISOAREA_IMAGE          Isophotal area above Analysis threshold                    [pixel**2]
#  18 A_IMAGE                Profile RMS along major axis                               [pixel]
#  19 B_IMAGE                Profile RMS along minor axis                               [pixel]
#  20 THETA_IMAGE            Position angle (CCW/x)                                     [deg]
#  21 FLAGS                  Extraction flags                                          
         1    178.9803     23.8840 307.8651923  +6.6677594      4808.67      13301.5     16324.37     89.95934     179.9905     360.5552      2.703     6.58     1164.664     63.56003     495.9662        70     2.236     1.839  47.57   0
         2    924.1292     21.1025 307.5554255  +6.6938674     2615.283     5529.134     6806.191      90.2463     180.5642     360.6269      2.408     6.51     1134.254     63.56003     304.8752        37     1.988     1.247  47.72   0
         3    522.7648     21.8112 307.7223080  +6.6801546     1464.756     3703.336     3949.858     89.81552     180.1341       360.34      2.489     7.10     1145.549     63.56003     167.0585        29     1.540     1.513 -33.33   0
         4    725.2090     20.1589 307.6381787  +6.6876128     1118.298     2473.953     2633.526     89.67147     180.1341     360.3041      2.291     7.88     1140.414     63.56003     149.8981        18     1.351     1.286  35.25   0
         5    989.0706     17.7321 307.5285321  +6.6974248     1322.189      2839.25      3198.82     90.38943     180.4926     360.5552      2.284     6.88     1131.403     63.56003     166.0782        20     1.491     1.072  46.44   0
         6    708.4758     13.9056 307.6453474  +6.6896347     3760.708     9657.951     11686.07     90.10294     180.5642      360.591      2.623     5.93      1140.31     63.56003     475.2928        60     2.082     1.733  55.06   0
         7    629.0073     13.3016 307.6784145  +6.6872253     1886.201     4649.659     5200.571     90.10294     179.9187     360.3759      2.579     7.11     1142.119     63.56003     197.6902        34     1.780     1.526  55.38   0
         8     30.0307      9.6200 307.9276095  +6.6686351     3978.754     10860.55     13206.72     89.81552     180.1341     360.4476      2.690     6.74     1162.029     63.56003     423.3887        63     2.241     1.725  51.86  16
         9    429.0738      9.5128 307.7616825  +6.6820907     2513.459     7360.513     9247.725     90.53234     180.7073      360.591      2.847     7.71     1152.287     63.56003     281.1829        56     2.174     1.766  51.70  16
        10    325.5591      4.6690 307.8048907  +6.6806165     5576.696     15593.04     19613.37      90.2463     180.3493     325.9037      2.818     7.41     1162.786     63.56003     570.4167        70     2.286     1.811  43.27  24
        11     99.2343      5.3319 307.8989790  +6.6727350     991.2785     2888.179     3456.922      90.2463      180.421     334.4007      2.554     8.71     1164.575     63.56003      161.646        22     1.728     1.342 -49.88  16
        12    391.2014      2.9078 307.7776540  +6.6835468      934.864     2345.605     2286.968     89.67147     166.6388     298.9674      2.430     7.46     1156.506     63.56003     129.8635        17     1.425     1.297  12.07  26
        13    653.3214      1.2579 307.6687087  +6.6930108     1339.904      2025.47     1965.035     77.44941     142.0108     269.9738      1.344     4.85     1140.898     63.56003     291.9294        11     1.526     0.436   1.42  24
        14    811.6967   1004.2661 307.5691849  +6.2842399     867.8675     1613.837     1317.436     90.38943      180.421     360.6269      2.028     5.63      1190.18     63.56003     107.4417        11     1.377     0.648  56.27   0
        15    748.5711   1023.7561 307.5947611  +6.2740859      596.465     785.9705     594.8145     77.11485     141.9198     269.5905      1.351     3.73     1190.896     63.56003      110.865         5     0.968     0.412  -7.92  24
        16    267.6415   1001.4384 307.7953409  +6.2671960     565.9579      1323.52     1156.628     90.10294      180.421     360.4476      2.113     4.14     1193.325     63.56003     103.1903         5     0.984     0.498  44.96   0
        17    911.4975    998.0980 307.5279217  +6.2901164     6947.005     12910.96     13713.08     90.38943     180.8504     360.4117      1.973     4.96     1190.046     63.56003     785.6582        39     1.773     1.153  34.79   0
        18   1006.7303    993.6088 307.4884997  +6.2951444     4075.147     7514.485      7980.63     89.81553     179.9905     360.4476      1.941     4.93     1186.109     63.56003     455.8171        33     1.683     1.148  37.64   0
        19    885.1094    994.1551 307.5390189  +6.2908640     9625.564     18574.73     20333.69     90.38943     180.2776     360.7344      2.058     4.95     1189.804     63.56003     1053.892        51     1.848     1.280  34.01   0
        20    598.1350    994.6010 307.6582488  +6.2810928     926.9658     1788.494     2271.711     89.52719     179.9905     360.3041      2.526     4.95     1191.597     63.56003     137.1838         8     1.090     0.636  84.90   0
        21    529.4089    993.3873 307.6868463  +6.2792939     2912.779     6080.846     7228.688     90.10294     180.1341     360.4835      2.398     6.14     1192.285     63.56003     319.6039        36     1.956     1.192  30.10   0
        22    638.5175    992.3587 307.6415444  +6.2833692     1007.323     1990.125     1949.021     90.38943     180.3493     360.5193      2.089     6.96     1190.986     63.56003     123.9519        14     1.527     0.888  46.16   0
        23    795.1263    991.5518 307.5764968  +6.2889355     521.3424      789.553     677.8701     90.38943      180.421     360.6269      1.686     4.52      1189.72     63.56003     102.4645         5     0.862     0.674  42.46   0
        24    482.4032    989.8128 307.7064981  +6.2791956      1461.03     3290.216     3453.291     89.95934     179.9905     360.4476      2.179     7.20      1193.23     63.56003     188.4625        25     1.622     1.260  57.93   0
        25    916.8942    981.7672 307.5262263  +6.2970382     34607.29     65436.24     70448.36     90.53234     180.2059     360.6986      2.012     4.93     1189.082     63.56003     3801.312        77     1.924     1.318  36.80   0
        26    624.1503    978.8832 307.6479670  +6.2884517     688.6055     1217.064     981.2872     90.38943     180.3493     360.6627      1.844     6.86     1190.997     63.56003     90.00476        10     1.438     0.918   4.83   0
        27    224.5499    979.8470 307.8139735  +6.2746625     1201.192     1986.135     2713.334     90.38943     180.2059     360.6269      1.932     5.12     1192.839     63.56003     143.1558        11     1.117     0.839  55.38   0
        28    815.0568    975.5121 307.5687530  +6.2962225       1689.8     3266.776     3274.764     90.38943     180.2059     360.7344      1.942     7.51     1189.064     63.56003     192.4189        23     1.510     1.088  43.17   0
        29    762.9980    973.3480 307.5904577  +6.2953776     4786.559     9538.971     10503.63     89.67147     179.9187     360.1247      2.077     4.83     1189.109     63.56003     550.3438        38     1.744     1.257  34.95   0
        30    233.1045    972.6447 307.8106620  +6.2779230     1118.104     2220.822     2108.526     90.38943     180.2776     360.7344      2.069     6.21     1192.684     63.56003     146.2656        13     1.335     0.916  33.16   0
        31    198.2467    972.4623 307.8251516  +6.2768277     653.6498     970.0298     1028.036      90.2463     180.2059     360.6627      1.669     5.26     1192.069     63.56003      121.431         5     1.087     0.718  80.30   0
        32     57.5812    970.8044 307.8836534  +6.2727845     1886.164     4100.798     3739.971     89.95934     179.9187     360.3759      2.176     6.18     1189.925     63.56003     210.3805        31     1.744     1.313  52.78   0
        33    549.7675    972.1863 307.6790999  +6.2887276     708.9164     1176.656     1272.429     89.95934     180.0623     360.5193      1.755     4.46     1191.607     63.56003     94.65173         7     1.101     0.513  23.40   0
        34    951.1335    968.4999 307.5124430  +6.3036571      5570.41     10416.86     10529.22     90.38943     180.4926     360.5552      1.962     4.92     1187.319     63.56003     595.8077        39     1.783     1.133  38.27   0
        35    924.8525    960.1218 307.5236445  +6.3062395     1699.558     3107.273     2732.051     90.38943     180.3493      360.591      1.935     5.95     1187.718     63.56003     222.9219        22     1.632     0.952  33.13   0
        36    258.1873    956.6157 307.8007805  +6.2853819      2836.03     6208.374     6886.674     90.10294     179.9905     360.5193      2.233     6.01     1192.429     63.56003      302.135        36     1.886     1.266  37.08   0
        37    784.7164    956.9085 307.5819845  +6.3028896     1155.312     2095.708     2182.639     90.10294     180.7073     360.7344      2.066     5.71     1188.486     63.56003     125.2211        15     1.216     1.010  41.18   0
        38    645.6722    956.3096 307.6397824  +6.2984904     3033.553     6171.611     6156.412     90.38943     180.6358      360.591      2.101     5.55     1190.131     63.56003     359.2434        32     1.710     1.239  36.02   0
        39    995.3041    956.7565 307.4944813  +6.3099774     620.0289     1076.651     1409.575     90.38943     180.2776     360.7344      1.646     4.21     1185.089     63.56003      114.105         5     0.918     0.551  37.62   0
        40     26.6880    953.9601 307.8970585  +6.2786988     1574.748      3207.91     3987.397     90.38943     180.2776     360.6269      2.266     6.86     1189.921     63.56003     183.1119        25     1.768     1.114  26.54   0
        41    467.9088    954.0317 307.7137247  +6.2934812      637.869     1404.066     1641.246     90.53234     180.1341     360.6269      2.182     6.91      1191.95     63.56003      100.319         9     1.449     0.923  27.95   0
        42    876.9568    952.3984 307.5438060  +6.3078303     759.0414     1360.614     1539.271     89.67147     179.9905     360.2323      2.023     5.40     1187.472     63.56003     104.5203         8     1.233     0.668  12.96   0
        43    571.2083    948.5545 307.6709852  +6.2992009     853.9512     2001.885     2313.926     89.81553     180.2059     360.1964      2.746     6.68      1191.11     63.56003      117.027         9     1.941     0.645  41.42   2
        44     58.2408    944.6066 307.8842645  +6.2836213     574.9747     1197.799     1899.595     89.67148     179.9905     360.2682      2.756     4.49     1189.826     63.56003     88.14856         5     0.818     0.700  58.17   0
        45    608.0372    943.8788 307.6558387  +6.3023634     678.0066     1134.904     1122.569      90.2463      180.421      360.591      1.917     4.50     1190.708     63.56003     94.65088         6     1.103     0.522  78.95   0
        46    289.0785    942.3237 307.7884267  +6.2923186     950.5369     2112.946     2930.523     90.67503     180.6358     360.6986      3.160     7.43     1192.357     63.56003     145.3927        13     1.559     0.992  29.21   0
        47    756.7935    939.1058 307.5941849  +6.3093064     733.8923     1401.623     999.5444     89.95934     179.9905     360.3759      1.924     6.50     1187.942     63.56003     94.14746         9     1.611     0.736  61.01   0
        48    893.8504    935.3203 307.5373582  +6.3154443     5278.404     10275.95     10228.73     90.38943      180.421      360.591      2.024     5.11     1186.406     63.56003     598.1421        35     1.754     1.146  31.66   0
        49    429.8113    932.4295 307.7302824  +6.3011225     1239.654     2607.903     3165.651     89.81553     180.1341     360.4117      2.331     8.26     1191.372     63.56003     168.8271        21     1.526     1.251  41.16   0
        50    331.7425    931.1912 307.7710742  +6.2983457     5946.668     13192.54     15136.94     89.67147     180.2776     360.2682      2.307     5.65     1192.185     63.56003     688.7598        56     2.035     1.487  35.54   0
        51    251.6785    930.1644 307.8043770  +6.2960829      4548.78     9755.161     10661.16      90.2463      180.421      360.591      2.276     5.43     1191.815     63.56003      571.965        47     1.962     1.374  37.50   0
        52    580.5366    924.2775 307.6679251  +6.3095351     663.9237      1345.62     1463.597     90.67503      180.421      360.591      1.296     3.73     1190.552     63.56003     102.4309         5     1.644     0.243  31.93   2
        53    909.5610    920.2415 307.5313349  +6.3221933     790.5557     1651.975      2692.06     90.10294     180.3493     360.4476      2.666     7.59     1185.416     63.56003     117.7098        15     1.499     1.075  40.80   0
        54    976.9111    915.5082 307.5035055  +6.3263929     618.3039     1107.938     1689.162     90.38943     180.9218     360.6986      1.626     5.02      1183.66     63.56003     99.43652         8     1.511     0.471  30.43   0
        55    745.7433    913.6539 307.5996309  +6.3194445     1342.601     2509.808      2779.35     90.53234     180.3493      360.591      1.974     6.25     1187.129     63.56003     160.0664        17     1.385     0.952  -4.80   0
        56    977.4150    909.2595 307.5035054  +6.3289894     970.1577     1931.896     1903.407     89.81553     180.2776     360.3041      1.891     5.80      1183.26     63.56003      140.325        11     1.538     0.615  32.94   0
        57    532.0289    908.9844 307.6885962  +6.3142249     663.6578      1295.57     1202.238     89.95934     180.0623     360.4835      1.629     3.64     1190.443     63.56003     110.6128         5     0.984     0.388  29.62   0
        58    664.4796    906.9698 307.6336246  +6.3194879     1727.841      3261.95     3520.974      90.2463      180.421     360.5552      1.988     6.44     1188.036     63.56003     204.5027        25     1.641     1.109  34.85   0
        59    204.9296    902.1053 307.8247487  +6.3060963     1446.071     2927.442     2923.866      90.2463      180.421      360.591      2.176     7.27     1190.795     63.56003     160.7888        23     1.651     1.158  61.55   0
        60     61.1666    903.4181 307.8844405  +6.3007225     1959.782     4429.604     5048.085     89.95934     180.1341     360.4117      2.379     6.37     1189.123     63.56003     239.7941        33     1.795     1.365  37.22   0
        61    954.2798    903.9717 307.5132966  +6.3304011     593.2169     927.1907     882.7542      90.2463     180.2776     360.5552      1.714     4.53     1183.643     63.56003     104.0305         6     1.064     0.549 -41.18   0
        62    659.1232    896.1473 307.6362140  +6.3237766     4436.903     9800.769     11065.57     90.53234     180.3493      360.591      2.338     5.74     1187.646     63.56003     447.6731        48     1.926     1.515  24.35   0
        63    797.3273    896.6843 307.5787643  +6.3281729     592.9489     1210.606     1102.653     90.53234     180.7073     360.6269      2.038     4.04     1186.235     63.56003     126.4341         6     1.001     0.466 -86.17   0
        64     19.8838    894.2866 307.9019027  +6.3031033     739.0983     1467.842     1502.651     90.10294     180.5642     360.6269      1.990     5.22     1188.655     63.56003     113.3131         8     1.251     0.615  66.16   0
        65    896.5556    892.2150 307.5376786  +6.3333297     2056.803     3931.601     4391.546     89.67148     180.1341       360.34      1.981     5.37     1183.888     63.56003     222.1108        25     1.568     1.065  32.99   0
        66    342.2039    889.5671 307.7681298  +6.3158796      9379.36     21823.41     26278.74     89.52719     180.2059     360.3041      2.476     5.69     1191.067     63.56003     1061.054        68     2.105     1.620  42.46   0
        67    357.6316    892.6588 307.7616148  +6.3151208     4859.863       5093.5     4549.771     90.10294      180.421     360.5193      0.791     1.12     1190.965     63.56003     1701.239         7     0.546     0.508 -14.71   0
        68     32.3730    892.6526 307.8967685  +6.3041980       721.52     1328.547     1294.147     89.95934     180.4926     360.5193      1.713     3.46     1188.695     63.56003     143.0767         5     0.742     0.466 -77.13   0
        69     76.1397    892.2057 307.8785978  +6.3058546     653.1543     629.3658     1070.357     89.67147     180.2059       360.34      1.407     3.88     1188.961     63.56003     120.4039         5     0.844     0.512  25.65   3
        70     77.9592    890.0039 307.8779162  +6.3068247     723.4288     1236.191     848.3477     89.52719     180.0623       360.34      1.525     5.76     1188.938     63.56003     102.7045         9     1.602     0.584  32.08   2
        71     78.5634    902.4527 307.8772446  +6.3017061     1284.545     2640.537     2742.764      90.2463     180.3493     360.6269      2.206     6.77     1189.161     63.56003     169.4211        20     1.669     1.080  49.04   0
        72    106.4148    880.0515 307.8664284  +6.3118899     979.7072       2311.5      2781.32     89.67147     180.3493     360.3041      2.417     7.00     1189.028     63.56003     149.4175        15     1.655     0.830  28.85   0
        73    672.4080    875.4046 307.6313901  +6.3327839     573.0079     1043.711     1655.562     89.67148     179.9905     360.4117      2.358     4.15     1186.111     63.56003     82.07104         5     1.004     0.489  87.12   0
        74     89.2533    873.7667 307.8737717  +6.3139073     1600.727     3572.421     4022.353      90.2463     180.2776     360.5193      2.187     6.55     1188.786     63.56003     202.6473        26     1.668     1.162  40.82   0
        75    857.8406    873.5817 307.5543919  +6.3397303     1436.998     2981.138     3085.465     89.95934     180.1341       360.34      2.099     6.32     1183.265     63.56003     170.2542        25     1.650     1.119  28.59   0
        76    821.4196    872.9289 307.5695492  +6.3387841     2010.127     4314.289     5145.558     89.95934     180.2059     360.5193      2.210     6.14     1184.566     63.56003     264.2805        29     1.688     1.226  38.93   0
        77    887.1043    873.5192 307.5422328  +6.3407325     1450.666      2532.21     2362.174     90.10294     180.6358     360.6986      1.809     6.00     1182.896     63.56003     186.9319        19     1.520     0.914  30.21   0
