#   1 NUMBER                 Running object number                                     
#   2 X_IMAGE                Object position along x                                    [pixel]
#   3 Y_IMAGE                Object position along y                                    [pixel]
#   4 ALPHA_J2000            Right ascension of barycenter (J2000)                      [deg]
#   5 DELTA_J2000            Declination of barycenter (J2000)                          [deg]
#   6 FLUX_APER              Flux vector within fixed circular aperture(s)              [count]
#   9 FLUXERR_APER           RMS error vector for aperture flux(es)                     [count]
#  12 FLUX_RADIUS            Fraction-of-light radii                                    [pixel]
#  13 FWHM_IMAGE             FWHM assuming a gaussian core                              [pixel]
#  14 BACKGROUND             Background at centroid position                            [count]
#  15 THRESHOLD              Detection threshold above background                       [count]
#  16 FLUX_MAX               Peak flux above background                                 [count]
#  17 ISOAREA_IMAGE          Isophotal area above Analysis threshold                    [pixel**2]
#  18 A_IMAGE                Profile RMS along major axis                               [pixel]
#  19 B_IMAGE                Profile RMS along minor axis                               [pixel]
#  20 THETA_IMAGE            Position angle (CCW/x)                                     [deg]
#  21 FLAGS                  Extraction flags                                          
         1      1.7424     45.0976 307.9349791  +6.6326561     126925.6     181708.9     204140.9      84.7073     151.3734     280.8957      1.567     3.78     1183.714     63.96694     33814.11       169     2.638     1.326 -86.17  24
         2     60.8119     23.1797 307.9111454  +6.6436882     1539.101     3486.115     3356.961     90.53526     181.1428     362.7912      2.285     7.16     1178.546     63.96694     211.1416        28     1.907     1.214 -51.93   0
         3      2.9883     18.7684 307.9353568  +6.6435732     1207.783     2829.311     2953.671     90.39051     168.8727     302.4006      2.328     8.89      1184.04     63.96694     163.4658        24     1.828     1.419 -66.02  24
         4    761.4598     13.1255 307.6199161  +6.6712201     1010.886     2243.578     2581.388     91.25552     181.5039     362.8634      2.203     7.21     1147.048     63.96694     124.6573        14     1.360     1.086  38.13   0
         5     88.2432      7.1908 307.9002744  +6.6512110     4744.958     11935.14      14244.5     90.39051     181.2873     355.5365      2.539     6.00     1175.991     63.96694     496.2457        60     1.970     1.737 -52.75  16
         6    417.7826      6.7991 307.7631541  +6.6623870     1176.103     2743.295     2958.885     90.53526     180.9982     352.1692      2.387     7.80     1162.623     63.96694     130.0822        20     1.494     1.316 -60.66  16
         7    630.0245      1.5103 307.6750075  +6.6716454     3722.915     5683.771     6240.371     81.71761     146.9848      276.195      1.615     5.22     1151.869     63.96694     711.4633        21     1.698     0.670  -3.61  24
         8    254.6103      1.9778 307.8312208  +6.6589295     512.0341     858.3319     396.1505      86.8444     154.6254     284.8304      1.573     4.59     1175.124     63.96694     76.64478         5     1.032     0.580  16.74  24
         9    578.3129    990.0369 307.6630971  +6.2615808     122486.8     228703.8       254455     90.96809     181.3595     362.8995      2.046     4.26     1204.463     63.96694     13761.15       117     1.953     1.513 -44.69   3
        10    570.9713   1021.9681 307.6650709  +6.2481461     2370.949     4262.236     4803.893     90.39052     169.5691     303.0494      1.876     4.33     1206.039     63.96694     301.8783        25     1.376     1.162 -34.22  24
        11    580.0384    982.8967 307.6626209  +6.2645877     56395.82     108395.4     120567.2     90.96809     181.3595     363.0799      2.071     4.49     1204.106     63.96694     5967.363        86     1.892     1.464 -35.62   3
        12    212.6371    992.9818 307.8150526  +6.2481716     2715.672     5351.503     5683.828     90.53526     181.2873     362.6469      2.098     4.85     1205.162     63.96694     289.3545        31     1.500     1.333 -38.55   0
        13    960.7501    988.9450 307.5041013  +6.2747365     723.0915      1152.98     1496.553     90.96809     181.5039     362.9356      2.408     5.53     1199.438     63.96694     103.9567         8     1.354     0.636 -54.17   0
        14    789.2254    986.6908 307.5755049  +6.2699755     5730.166     9654.307     11003.69     91.11192     181.2151     362.7191      1.836     3.96     1201.914     63.96694     736.2163        39     1.728     1.182 -49.96   0
        15    886.9904    983.9075 307.5349437  +6.2743709     1340.166     2387.444     2377.606     90.53526     181.0705     362.6469      1.823     5.55     1200.654     63.96694     171.0497        19     1.418     1.174 -61.19   0
        16    209.9837    982.2906 307.8165185  +6.2524992     1647.393     3152.989     3627.631     90.67976     181.2873     362.7912      2.021     4.74     1204.735     63.96694     211.0654        20     1.425     1.055 -45.41   0
        17    712.9440    979.3796 307.6074726  +6.2704611      6027.21     10624.95     12067.81     90.39051     181.5039      362.683      1.918     4.14     1203.251     63.96694     694.3827        39     1.675     1.178 -47.39   0
        18    428.0916    979.6127 307.7259159  +6.2608832     2840.293      5768.93      6791.54     90.67976     181.2151     362.6469      2.202     4.91     1204.834     63.96694     296.8527        36     1.628     1.366 -33.03   0
        19    569.1873    978.4752 307.6672826  +6.2660530     3153.601     6252.371     7473.371     90.39052     181.1428      362.683      2.164     4.71     1203.995     63.96694     363.3676        37     1.663     1.365 -65.60   0
        20    745.2256    974.4692 307.5942142  +6.2735624     1144.785     1769.886     2321.706     90.53526     181.3595     362.8273      1.868     5.00     1202.585     63.96694     176.3326        14     1.207     0.932 -34.28   0
        21    952.4899    968.7654 307.5082157  +6.2827987     6348.419     10233.63     10149.47     91.11192     181.4317     362.8995      1.751     3.61      1198.97     63.96694      797.708        37     1.568     1.099 -48.49   0
        22    237.0941    969.0731 307.8056938  +6.2588645     897.1307     1736.575     1695.073     90.82404     181.6481     362.8995      1.960     6.84     1204.709     63.96694     126.8309        11     1.227     1.109  70.57   0
        23    711.6390    967.2311 307.6084252  +6.2754361     2166.479      4436.92     5553.917     90.53526     181.2151     362.7191      2.431     8.84     1202.356     63.96694     297.4218        30     2.158     1.092 -29.05   0
        24    728.5450    965.9475 307.6014382  +6.2765283     913.1956     1532.089     1420.569     91.25552     181.5039     362.8634      1.829     5.70     1202.249     63.96694     118.2002        10     1.218     0.752  -9.82   0
        25    358.9243    964.4702 307.7551901  +6.2648319     1273.658     2522.838     2135.757     91.25552     181.6481     362.8995      1.993     6.94     1205.844     63.96694     144.6777        18     1.346     1.087 -78.57   0
        26    541.4315    954.6710 307.6796291  +6.2749620     2970.353     5946.016     6982.382     90.82404     181.5039     362.8634      2.168     4.65     1203.312     63.96694     295.3585        33     1.535     1.319 -46.25   0
        27    291.6542    953.4495 307.7835361  +6.2671398     10607.76     21190.53     24108.07     90.96809     181.5039     362.9356      2.159     4.76     1205.059     63.96694     1010.433        61     2.010     1.433 -41.53   0
        28    745.8160    953.9202 307.5946619  +6.2820706     6485.811     11565.83     12556.75     90.53526     181.2151      362.683      1.941     4.02     1201.086     63.96694     751.1456        44     1.700     1.266 -45.66   0
        29    511.8857    955.5959 307.6918841  +6.2735960     873.3763     1557.233     1292.879     90.39051     181.0705     362.5385      1.899     4.35     1203.678     63.96694     113.8431        10     1.075     0.734 -14.52   0
        30    806.9297    953.4265 307.5692643  +6.2843046     877.2834     1555.922     1747.419     90.53526     181.3595     362.8273      1.943     4.72      1199.67     63.96694     125.2073         9     1.135     0.724 -50.44   0
        31    415.9305    953.9530 307.7318413  +6.2710773     683.8203     1225.973     1328.328     90.96809     181.4317     362.8995      1.409     3.60     1204.236     63.96694     112.9438         5     0.981     0.381  59.49   0
        32    907.0402    947.3425 307.5278377  +6.2901408     7908.542     12847.79     12917.01     90.96809      181.576     362.9356      1.731     3.67     1199.208     63.96694     1045.655        38     1.585     1.123 -41.21   0
        33    538.6114    946.8015 307.6810678  +6.2781189      6018.29     12178.57     13560.58     90.53526     181.1428      362.683      2.142     4.74     1202.969     63.96694     618.8936        46     1.754     1.408 -44.57   0
        34    880.7404    943.5085 307.5389039  +6.2908520     10983.76     18847.37     20280.66     90.82404     181.4317     363.0438      1.857     3.87     1199.494     63.96694     1299.932        51     1.750     1.262 -43.38   0
        35   1002.5203    942.9178 307.4882801  +6.2951348     4800.679     7885.026     8291.621     91.11192     181.7922     363.0438      1.735     3.90     1196.554     63.96694        635.7        28     1.484     1.011 -44.22   0
        36    593.4196    944.0423 307.6583693  +6.2810832     1144.755     1943.155     1327.329     90.39051     181.2873     362.7191      1.856     5.79     1202.025     63.96694     153.6459        13     1.239     0.814 -24.74   0
        37    525.3245    942.4556 307.6867400  +6.2794717      3104.59     6087.117      7454.88     90.82404     181.4317     362.8273      2.219     4.84     1202.841     63.96694     333.4626        33     1.577     1.309 -37.13   0
        38    634.6372    941.8605 307.6413028  +6.2833559     1071.945     1739.932     1476.536     90.96809      181.576     362.8634      1.775     6.81     1201.247     63.96694     148.3549        14     1.206     1.077 -29.46   0
        39    789.9902    940.4374 307.5767467  +6.2891077     544.6964     888.8544     784.9769     90.24554     181.2873     362.5385      1.599     4.68     1199.158     63.96694     112.9786         5     1.111     0.560  78.97   0
        40    478.0826    938.8237 307.7065080  +6.2793983     1513.467     3243.889     2272.529     90.82404     181.2151     362.8273      2.078     7.27     1203.014     63.96694     162.0005        25     1.599     1.203 -10.73   0
        41    912.4294    931.0864 307.5261441  +6.2970349     39280.21     65530.92     70768.66     91.11192     181.1428     362.7552      1.826     3.86     1198.629     63.96694     4982.205        78     1.787     1.320 -46.42   0
        42    220.1817    929.7540 307.8140597  +6.2745413     1151.631     2453.105     3123.579     90.39051     181.3595     362.6107      2.383     6.70     1203.172     63.96694     181.5714        18     1.459     1.126  53.59   0
        43    618.5249    928.0431 307.6484698  +6.2885276      700.608     1368.046     887.7228     90.82404      181.576     362.9356      1.865     4.63      1200.77     63.96694     121.7202         5     0.873     0.698  47.25   0
        44    810.4889    924.6879 307.5687532  +6.2962945     2097.556     3812.019     4025.431     90.67976     182.0801     363.0077      1.955     5.14     1198.249     63.96694     270.2933        22     1.604     0.941 -57.11   0
        45    758.5874    922.9152 307.5903969  +6.2953028      5433.46     9941.307     11309.37     90.53526     181.3595     362.7191      2.010     4.19     1198.741     63.96694     655.1204        41     1.753     1.235 -51.40   0
        46    545.0755    922.2800 307.6792087  +6.2884636     702.1844     1222.003     1292.228     91.25552     181.7922     363.0438      1.792     6.32     1201.982     63.96694      109.298         7     1.313     0.855   5.89   0
        47    228.1164    921.4856 307.8110406  +6.2782218     975.7147     1953.641     2057.233     90.67976     181.7202     363.0077      2.003     7.43     1203.169     63.96694     127.0214        13     1.488     1.040  39.74   0
        48     53.3276    920.0358 307.8837716  +6.2729777      2122.88     3958.538     3547.305     90.82404     181.5039     362.8995      1.926     4.42     1200.735     63.96694       261.71        27     1.365     1.283 -38.85   0
        49    946.7152    917.8278 307.5123322  +6.3036492     6272.934      10141.5     10846.94     91.11192     181.2151     362.7552      1.756     3.78     1196.893     63.96694     795.0265        38     1.670     1.086 -47.87   0
        50    253.6794    906.1777 307.8009296  +6.2853988     2847.175     6058.781     6541.162     90.53526     181.1428     362.8634      2.212     5.84     1203.541     63.96694     294.3605        37     1.783     1.401 -39.06   0
        51    641.3882    905.4141 307.6397263  +6.2986359     3456.139     6981.542     7421.248     90.82404     181.1428     362.8273      2.081     5.03     1199.682     63.96694     356.2427        36     1.668     1.326 -56.41   0
        52    780.0203    906.0602 307.5820523  +6.3029774     1213.584      2037.06     2279.598     90.53526     181.3595     362.7912      1.870     6.02     1197.553     63.96694     159.9402        15     1.180     1.068   5.46   0
        53     23.0263    903.0285 307.8969494  +6.2789889     1506.225     2824.504     2393.943     90.39052     181.2873     362.7552      1.953     7.00     1199.858     63.96694      194.298        18     1.387     1.106 -48.48   0
        54    463.6918    903.8401 307.7136760  +6.2933699     944.5246     1602.689     1840.501     91.11192     181.4317     362.9716      1.871     6.08     1202.129     63.96694     142.6987        10     1.048     0.992   4.24   0
        55    872.7996    902.2523 307.5435964  +6.3076311     756.8455     1209.686     768.1252     90.10033     180.9982      362.394      1.727     3.48     1196.739     63.96694     133.7145         5     0.760     0.663  25.05   0
        56    920.6335    909.3821 307.5234633  +6.3062729     1901.167     3039.036     3148.243     90.53526     181.2873     362.7191      1.749     4.11     1196.817     63.96694      273.321        19     1.343     0.919 -41.25   0
        57    565.7794    897.8873 307.6714234  +6.2992291     1137.502     2161.917     2568.914     90.82404     181.2151     362.7552      2.041     6.61     1201.104     63.96694     160.6223        13     1.312     0.936 -48.45   0
        58    997.5358    897.1551 307.4918931  +6.3138739     839.9747     1115.202     1002.629     90.96809     181.4317     362.8995      1.700     6.35     1193.808     63.96694     109.5594         9     1.477     0.766 -56.57   0
        59    605.4895    894.5681 307.6550217  +6.3019219     917.6876     1920.371     1842.344     91.11192     181.2873     362.8995      2.138     5.64     1200.341     63.96694     148.8505        10     1.209     0.742 -84.21   0
        60    285.1754    892.8825 307.7882830  +6.2919423     1002.717     2056.601     2204.138     90.82404     181.2151     362.8273      2.040     7.18     1203.977     63.96694     132.6987        15     1.310     1.103   1.20   0
        61    889.5284    884.6780 307.5372315  +6.3154460     6156.898     10165.49     10946.69     91.25552     181.7922     362.8995      1.820     3.93     1195.101     63.96694     734.8601        37     1.706     1.109 -45.60   0
        62    425.6170    881.9264 307.7302512  +6.3011530     1475.688     3049.656     2570.025     90.39051     181.2873     362.7552      2.029     7.85     1202.508     63.96694     171.2683        23     1.556     1.166 -31.18   0
        63    327.1217    880.5503 307.7712576  +6.2984364      6366.51     13649.71     14838.45     90.96809      181.576     362.8634      2.240     4.98     1203.495     63.96694     650.0468        52     1.863     1.480 -47.02   0
        64    247.2955    879.4881 307.8044893  +6.2962104     4698.773     9867.545     10282.34     90.96809     181.9362     362.9716      2.145     5.01     1202.954     63.96694     459.9757        43     1.731     1.423 -49.17   0
        65    574.7733    874.4817 307.6684743  +6.3091970     776.7943     1448.336     1059.203     90.82404     181.2873     362.8995      1.874     6.03     1200.436     63.96694     94.30994         9     1.150     0.889 -45.95   0
        66    905.2045    869.9008 307.5312099  +6.3220705     861.9342     1805.484     2250.049     90.67976     181.1428     362.5024      1.994     7.51     1193.741     63.96694     102.3568        12     1.318     1.199  71.21   0
        67    972.7579    865.4193 307.5032662  +6.3261624     839.5626     1109.111     1785.794     90.39052     181.2873      362.683      1.574     4.42     1192.109     63.96694     141.5154         7     1.038     0.536 -44.99   0
        68    741.6710    863.1329 307.5994489  +6.3194360     1325.572     2372.914     2645.749     90.96809     181.6481     362.8995      2.152     5.29     1196.024     63.96694     160.8772        16     1.318     0.983 -77.04   0
        69    526.5333    858.8683 307.6890637  +6.3140405     797.4741     1496.189     1137.256     90.96809      181.576     362.9356      2.019     5.21     1200.483     63.96694      124.209         7     1.421     0.541 -69.98   0
        70    973.0109    858.3643 307.5033985  +6.3290851     1151.658     1804.072     2070.664     90.39051     181.2873     362.6469      1.778     3.72     1191.903     63.96694      181.743        11     1.183     0.761 -68.05   0
        71    660.1684    856.3002 307.6335749  +6.3195489     1677.685     3362.963     3449.012     90.96809     181.3595     363.0799      1.994     6.15     1197.423     63.96694     184.1003        25     1.483     1.368 -22.51   0
        72     57.0824    852.6545 307.8844993  +6.3009364     2026.661      4147.38     4819.739     90.96809     181.5039     362.9716      2.231     6.06     1199.526     63.96694     237.9496        29     1.666     1.302 -65.29   0
        73     74.5291    852.1699 307.8772606  +6.3017203     1385.613     2817.327     3262.218     90.82404     181.5039     362.8634      2.097     6.95     1199.896     63.96694     162.5831        23     1.584     1.150 -50.47   0
        74    200.6063    851.4410 307.8248563  +6.3062364     1229.921     2999.754      2459.35     90.24554     181.1428     362.5746      2.357     8.38     1201.801     63.96694     154.6161        22     1.543     1.272  62.09   0
        75    654.8934    845.4248 307.6361360  +6.3238659     4768.152      9612.31     10947.38     91.11192     181.2151     362.7191      2.199     5.00     1196.907     63.96694      508.798        41     1.759     1.342 -46.51   0
        76    792.2637    846.4644 307.5789706  +6.3280026     688.8724     1247.228     1875.907     90.96809     181.5039     362.9356      1.826     5.49      1193.88     63.96694     84.97229         7     1.186     0.717 -36.73   0
        77    337.9138    838.9783 307.7681781  +6.3159690     9815.973     22526.18     26448.85     90.96809     181.2151     362.7552      2.385     5.40     1202.143     63.96694     916.8381        67     2.042     1.688 -61.98   0
