#   1 NUMBER                 Running object number                                     
#   2 X_IMAGE                Object position along x                                    [pixel]
#   3 Y_IMAGE                Object position along y                                    [pixel]
#   4 ALPHA_J2000            Right ascension of barycenter (J2000)                      [deg]
#   5 DELTA_J2000            Declination of barycenter (J2000)                          [deg]
#   6 FLUX_APER              Flux vector within fixed circular aperture(s)              [count]
#   9 FLUXERR_APER           RMS error vector for aperture flux(es)                     [count]
#  12 FLUX_RADIUS            Fraction-of-light radii                                    [pixel]
#  13 FWHM_IMAGE             FWHM assuming a gaussian core                              [pixel]
#  14 BACKGROUND             Background at centroid position                            [count]
#  15 THRESHOLD              Detection threshold above background                       [count]
#  16 FLUX_MAX               Peak flux above background                                 [count]
#  17 ISOAREA_IMAGE          Isophotal area above Analysis threshold                    [pixel**2]
#  18 A_IMAGE                Profile RMS along major axis                               [pixel]
#  19 B_IMAGE                Profile RMS along minor axis                               [pixel]
#  20 THETA_IMAGE            Position angle (CCW/x)                                     [deg]
#  21 FLAGS                  Extraction flags                                          
         1    172.1325     20.4234 307.8650620  +6.6682173      10507.9     16920.45     17240.69     78.00718     156.3256     312.6201      1.718     3.67     835.4273     55.11533     1277.304        42     1.478     1.209  75.04   0
         2    516.4315     18.7246 307.7220643  +6.6804915     2864.143      4456.82     4877.628       78.256     156.4499     312.6512      1.715     3.52     826.6871     55.11533     410.1405        25     1.322     1.149  69.74   0
         3    917.8051     18.3452 307.5552988  +6.6940872     4172.743      5984.36     5449.905     77.75755     156.1389     312.3712      1.553     3.68     825.3321     55.11533     566.5323        24     1.304     0.972  73.45   0
         4    718.6420     17.0680 307.6380988  +6.6879530     1951.792     2918.969     3000.997     78.38012     156.3256     312.7444      1.570     3.74     825.5105     55.11533     232.7322        18     1.218     0.925  70.63   0
         5    454.5638     17.1705 307.7478231  +6.6790566     1706.364     2524.149     2653.703     78.00718     156.1389     312.5268      1.622     3.46     827.6104     55.11533     240.0781        17     1.173     0.890  73.86   0
         6    982.4366     14.5573 307.5285696  +6.6978100     2145.401     3425.485     3964.455     78.13169     156.3256     312.5579      1.778     4.06     819.5777     55.11533     262.7964        21     1.340     0.969  81.92   0
         7    701.9213     11.0559 307.6452489  +6.6898753     7285.352     11083.38     11934.14     78.50404     156.3877     312.6822      1.630     3.61      825.374     55.11533     992.6486        31     1.378     1.058  77.55   0
         8    622.0563     10.1768 307.6784640  +6.6875626     3846.065     5913.616     6087.776     78.00718     156.3877     312.4956      1.617     3.52     825.2122     55.11533     514.2553        28     1.434     1.034  58.78   0
         9    324.1532     10.6271 307.8022299  +6.6773767     969.3217     1596.197     2130.268     78.00718     156.4499      312.589      1.863     3.87     834.6833     55.11533     136.1407        13     1.145     0.815  14.00   0
        10    377.5966      8.8093 307.7800855  +6.6799234     642.2646     913.1341     365.5114     77.75755     156.0766     312.5268      1.453     4.14     831.9219     55.11533      83.1394         7     1.251     0.392  75.61   0
        11    422.2949      6.4757 307.7615919  +6.6823885     6439.973     9808.119     10294.68     78.00718     156.5741     301.0246      1.667     3.62     828.5972     55.11533      811.059        30     1.388     1.086  78.84  16
        12     23.3130      6.0025 307.9273820  +6.6691560     8097.043     12958.03     13587.71     77.75755     156.0144     296.5676      1.704     3.73     834.9188     55.11533     1019.267        36     1.427     1.150  70.62  16
        13    669.5228      5.7548 307.6588897  +6.6909788     797.5615     1117.251     850.1855       78.256     156.4499     294.1651      1.507     3.98     825.3118     55.11533     128.5115         9     0.924     0.851  63.92  16
        14    497.9700      3.4523 307.7302503  +6.6861773     814.5853     1187.895     1344.069     78.13169     150.3669     266.9676      1.506     5.23     826.2269     55.11533     125.7753        10     1.211     0.638  66.17  24
        15    318.9217      2.1078 307.8046914  +6.6807180     11176.58     14748.46     15472.46     76.11505     135.6151     247.6635      1.422     3.51     834.8003     55.11533     1524.788        31     1.322     0.983  16.08  24
        16    413.8973      2.3904 307.7652191  +6.6837931     783.1152     957.0801     1535.623     77.88247     138.7331     251.7124      1.396     5.02     828.9509     55.11533     118.5431         9     1.174     0.607  40.33  24
        17     92.4700      2.1198 307.8987800  +6.6730904     2291.771     3099.064     3313.894     76.62418     135.7583      247.742      1.465     3.46     834.9404     55.11533     313.6888        17     1.150     0.925  34.17  24
        18    787.1679      1.2525 307.6101567  +6.6967764     559.6088     541.8848     475.7237     67.30392      123.143     233.8969      0.981     3.41      824.811     55.11533     148.3646         5     0.824     0.409  11.76  24
        19    385.1547      1.1140 307.7772049  +6.6833545     742.3636     907.4276     709.1537     65.10145     120.8321     231.5998      1.078     2.94     831.2688     55.11533     227.5797         6     1.078     0.317  -0.95  24
        20     83.7366      1.4200 307.9024323  +6.6730850     936.1241      1290.23     1439.426     69.15601     125.7982     236.7061      1.347     3.59     834.8659     55.11533     169.6944         7     0.957     0.478   8.47  24
        21    591.0837    992.4331 307.6582611  +6.2809756     1364.432     2259.883     2319.329     78.38012     156.2012     312.6512      1.774     4.64     860.0351     55.11533     162.8984        15     1.279     0.847  78.84   0
        22    742.5224   1022.5626 307.5943728  +6.2736053     1322.061     1965.393     1709.664       78.256     139.7106     252.7529      1.645     4.86     859.4496     55.11533     155.0639        15     1.140     1.003   4.48  24
        23    566.4637   1023.8800 307.6674248  +6.2671670     798.5691     1070.296     1126.717     65.54786     121.1535     231.7257      1.102     3.36     860.6132     55.11533     177.3524         5     1.024     0.320   3.38  24
        24    999.8954    990.9933 307.4885715  +6.2952382     4293.148     7722.051     8126.687     78.13169     156.0766     312.4956      1.897     4.20     852.0519     55.11533     495.5212        36     1.559     1.242  87.30   0
        25    522.1468    990.5518 307.6869461  +6.2794421      4197.81     6796.383     7666.472     78.50404     156.3877     312.6822      1.788     3.84     860.1262     55.11533     493.0319        32     1.459     1.151 -86.68   2
        26    631.8123    989.8228 307.6414388  +6.2834175     1265.272     2131.769     2068.001     78.00718     156.2012      312.589      1.835     3.64     859.5295     55.11533     214.4459        16     1.119     0.993 -85.59   0
        27     57.1243    989.3973 307.8800490  +6.2642942     808.1998     1464.361      1625.19     77.88247     155.8897      312.589      1.867     4.80     855.9932     55.11533     148.0541         9     1.190     0.703  89.16   0
        28    475.3782    987.0001 307.7064833  +6.2793403     2153.464     3526.838     3718.775     78.00718     156.0766     312.4023      1.807     4.03     860.1967     55.11533     286.3412        21     1.308     1.025  74.55   0
        29    383.7217    985.6032 307.7445845  +6.2768416     551.0695     749.8733     626.7114     77.88247     155.8897     312.4956      1.413     4.61     860.0699     55.11533     78.54742         7     0.899     0.671 -70.28   0
        30     18.4299    984.7612 307.8962700  +6.2649050     416.5251     758.0603     856.1424     78.00718     156.1389     312.5579      2.042     5.12     855.5972     55.11533      75.7959         5     1.014     0.730 -15.60   0
        31    909.8895    979.1423 307.5263399  +6.2971268     41250.55     69085.41     73346.65       78.256     156.3256     312.8065      1.786     3.60      855.021     55.11533     4874.486        78     1.614     1.401  75.86   0
        32    217.1748    976.9944 307.8140211  +6.2748005     1725.585     2717.463       3108.2     77.88247     156.2012     312.5268      1.664     4.93     859.4563     55.11533     220.1085        18     1.288     1.043 -85.57   0
        33    105.2281    976.2922 307.8605214  +6.2713244     735.0555     1214.076     1333.047     78.50404     156.1389     312.5579      1.808     4.77     856.6135     55.11533     114.9273         8     0.939     0.687  65.87   0
        34    756.0198    970.9948 307.5905009  +6.2953481     6373.067     10350.44     11935.77     78.00718     156.0766     312.4956      1.816     3.77     857.3466     55.11533     855.2778        38     1.745     1.128 -80.92   0
        35    616.2205    975.2231 307.6484035  +6.2889232      739.045     1261.495     1130.549     78.13169     156.2012     312.6201      1.830     5.60     859.5092     55.11533     131.3479        10     1.358     0.650  81.65   0
        36    807.6934    972.9161 307.5689813  +6.2962828     2188.611      3325.47     3366.714     78.13169     156.8222     312.8065      1.595     3.66     856.3693     55.11533     307.0901        20     1.317     0.920  87.43   0
        37    542.7904    969.9182 307.6790697  +6.2886532     923.7478     1659.686     1878.322     78.00718     156.0144     312.5268      2.229     6.11     859.7125     55.11533     133.4688        12     1.687     0.622  82.82   0
        38    225.7109    970.1429 307.8107085  +6.2779163     1468.386      2197.01     2225.714       78.256     156.3256     312.8065      1.533     3.70     859.5128     55.11533     199.0597        15     1.200     0.850  62.23   0
        39    189.9459    969.5807 307.8255761  +6.2769457     793.7339     1323.192     1160.877     77.88246     156.3877     312.4956      1.790     4.08     858.6274     55.11533     109.4615        11     1.107     0.735  83.57   0
        40     50.3334    967.7841 307.8835993  +6.2729888     2806.049     4384.323     4554.428     77.88247     156.2634      312.589      1.719     3.85     855.9221     55.11533     348.8984        24     1.333     1.068  74.10   0
        41    944.1904    966.0072 307.5125383  +6.3036954     6283.277     10678.67     11100.44     77.75755     156.2012     312.5268      1.804     3.72     853.6522     55.11533     783.5828        38     1.549     1.238  73.49   0
        42    200.5901    961.8920 307.8214166  +6.2804781     558.9086     817.2159      660.187     78.00718     156.0144     312.4645      1.590     4.61     858.7009     55.11533     84.46161         7     1.228     0.492 -89.25   0
        43    626.5208    960.1174 307.6446349  +6.2955050     722.0792     1094.627     1317.212     78.50404     156.6362     312.8065      1.582     4.18     859.0061     55.11533     112.0381         6     0.999     0.499 -88.08   0
        44    918.1223    957.7141 307.5236402  +6.3062491     2029.324     3415.211     2261.969     78.38012     156.6982     312.7755      1.808     4.41     854.0315     55.11533     245.1782        23     1.330     1.180  39.33   0
        45    777.4451    953.9035 307.5821790  +6.3031214     1423.589       2233.5     2266.613     78.38012     156.2634     312.8376      1.607     4.22     856.5168     55.11533     170.7803        14     1.141     0.830  71.67   0
        46    638.7180    953.4730 307.6397940  +6.2986568     4675.839     7087.866     7356.037     78.62777     156.6982     312.7133      1.682     3.80     858.6935     55.11533     572.4865        29     1.330     1.120  71.68   0
        47    250.7912    953.6423 307.8008528  +6.2855720     4143.146     6416.523     6574.386     77.88247     156.2012     312.4334      1.668     3.73     859.3588     55.11533     514.0177        28     1.337     1.104  82.96   0
        48    460.9205    951.9560 307.7136665  +6.2933241     1007.461     1491.557     1306.035     78.38012     156.3877     312.6822      1.518     4.66     859.4816     55.11533     138.3015        10     1.124     0.831  75.82   0
        49     19.5317    951.1226 307.8969507  +6.2788301     2173.727     3387.227     3643.497     78.50404      156.512     312.6512      1.726     3.88     855.6176     55.11533     261.0695        22     1.240     1.129  63.22   0
        50    870.8341    949.9478 307.5435355  +6.3078762     928.2053     1239.949     1327.632       78.256     156.3877     312.6201      1.428     5.22      854.761     55.11533     130.4043        10     1.172     0.712  31.54   0
        51    942.1271    947.0966 307.5140290  +6.3114345      872.474     1523.379     1578.798     78.00718     156.5741     312.6512      1.843     5.62     852.9164     55.11533     131.7377        12     1.365     0.832  81.88   0
        52    286.7966    947.0917 307.7861251  +6.2894866     809.8803      1338.07     1949.467     78.00718     156.0766     312.4645      2.136     5.41     859.5067     55.11533     113.6132        10     1.355     0.609 -85.49   0
        53    994.8493    946.5856 307.4921548  +6.3134052     846.7157     1543.289     1802.536     77.75755     156.3256     312.4023      1.930     5.45     851.3942     55.11533     117.6924        14     1.289     1.003  56.14   2
        54    961.8499    947.8825 307.5058134  +6.3117684     617.7825      1045.31     751.4617     78.38012     156.3877     312.7133      1.641     3.86     852.3761     55.11533     84.16437         5     1.004     0.426  44.17   0
        55    563.0726    945.8019 307.6714603  +6.2992900     1579.484     2329.872     2083.821     77.88246     155.8897     312.5268      1.598     4.13     859.2307     55.11533     217.5714        19     1.306     1.002  78.68   0
        56    602.8472    942.3479 307.6550619  +6.3020487     1242.825     2030.719     1760.808     78.50404     156.3256     312.7133      1.635     3.69     858.8923     55.11533     181.7782        15     1.285     0.728  83.34   0
        57     52.4137    942.9457 307.8835758  +6.2833136     699.2887     972.5022      1332.46     77.75755     156.3256     312.4334      1.753     3.92     855.9424     55.11533     124.0964         7     1.143     0.727  58.13   0
        58    282.4036    940.1681 307.7881826  +6.2921975     1459.016     2524.604     2368.792     77.63244     156.2634     312.4645      1.744     4.37     859.3987     55.11533     189.8357        17     1.410     0.822 -85.90   0
        59    550.7538    938.4630 307.6768221  +6.3019072     637.9364       1086.8     990.7117       78.256     156.3256     312.7444      1.842     4.32     859.1768     55.11533      103.153         8     1.108     0.693  67.93   0
        60    748.9896    936.6085 307.5945750  +6.3093104     777.3412     1326.611      1737.97     77.88246     156.2012      312.589      1.513     3.83     856.3433     55.11533     145.3251         6     1.211     0.347  28.05   0
        61    886.9509    932.8217 307.5374180  +6.3154857      6791.98     10992.85     11084.95     78.00718     156.4499      312.589      1.704     3.54     853.8906     55.11533     869.4705        34     1.406     1.185  72.45   0
        62    422.7533    929.9833 307.7302538  +6.3011155     2102.234     3082.123     3591.671     77.88246     156.2634     312.4645      1.630     4.04     859.0214     55.11533      256.405        19     1.297     0.956  64.31   0
        63    151.4132    943.1979 307.8424652  +6.2865421     415.3508     693.6782     765.0899     78.00718     156.0766     312.4956      1.558     4.48     856.8418     55.11533     66.59894         5     1.165     0.489 -86.81   0
        64    324.4737    928.1746 307.7711202  +6.2985626     9683.956     15302.63     16322.88     78.00718     156.2634     312.6201      1.722     3.61     859.3231     55.11533     1234.399        42     1.450     1.220 -87.23   0
        65    244.5987    927.1630 307.8043178  +6.2962962     7097.905     10945.87     11148.56     77.50713     156.2012     312.4645      1.652     3.54      858.907     55.11533     892.2935        33     1.420     1.111  84.07   0
        66    572.5546    921.6122 307.6683374  +6.3095951     1203.182     1795.165     1821.805     77.88247     156.2012     312.4023      1.656     4.61     858.6473     55.11533     164.1824        14     1.196     0.930 -85.43   0
        67    756.6604    921.5038 307.5918974  +6.3158035     718.6948     944.5176     902.9619     78.13169     156.3877     312.7755      1.458     3.88     855.8773     55.11533     110.0124         6     0.912     0.472 -87.56   0
        68    902.6972    917.7896 307.5313841  +6.3222182     1015.832     1751.045     2497.929     78.13169     156.0144     312.5268      2.021     3.78     853.0624     55.11533     147.6563        11     0.998     0.849  81.59   0
        69    135.1159    918.0985 307.8500798  +6.2963563      615.782      850.908     446.0148     78.38012     156.8222     312.7444      1.401     4.05      856.329     55.11533     100.7437         5     1.002     0.467  44.50   0
        70    859.6714    917.1088 307.5492724  +6.3210619     761.0519      1424.33     1496.949       78.256     156.5741     312.6822      1.949     5.11     854.2582     55.11533     113.8589         9     1.145     0.645  27.46   0
        71    401.2194    916.3845 307.7396531  +6.3060074     475.8427     534.9307     807.5963     78.13169     156.1389      312.589      1.421     3.79     858.8966     55.11533     69.73633         5     1.020     0.404 -84.45   0
        72    831.9798    911.5608 307.5609569  +6.3224272     533.8309     816.0116     908.1158     78.00718     156.2012     312.4334      1.517     4.08     854.6717     55.11533     81.78906         5     0.769     0.617  86.92   0
        73    738.9650    910.8649 307.5996023  +6.3196042     1646.813     2530.626     2693.482       78.256     156.3877     312.7133      1.652     3.84     855.8047     55.11533     206.4061        15     1.171     0.838  77.27   0
        74    814.8632    910.9879 307.5680834  +6.3220916     430.7086     753.7242     643.9833     77.88247     156.2012     312.4645      1.277     3.93     854.9756     55.11533     75.94006         5     1.278     0.345 -24.98   0
        75    562.4860    910.6790 307.6728860  +6.3137718     581.4044      572.976     239.9105       78.256     156.6982     312.7755      1.202     3.92      858.496     55.11533      104.108         6     0.916     0.674 -60.56   0
        76    970.3445    906.6547 307.5036682  +6.3290743     1235.125     2103.218     3071.234     78.62777     156.3877     312.6822      2.325     3.93     851.1376     55.11533     184.0363        16     1.137     1.048  89.22   0
        77    603.3386    907.6508 307.6560252  +6.3163909     816.8071     1210.307     1112.085     78.38013     156.3256     312.6822      1.599     5.35      857.767     55.11533     103.2355         9     1.221     0.663  37.89   0
