#   1 NUMBER                 Running object number                                     
#   2 X_IMAGE                Object position along x                                    [pixel]
#   3 Y_IMAGE                Object position along y                                    [pixel]
#   4 ALPHA_J2000            Right ascension of barycenter (J2000)                      [deg]
#   5 DELTA_J2000            Declination of barycenter (J2000)                          [deg]
#   6 FLUX_APER              Flux vector within fixed circular aperture(s)              [count]
#   9 FLUXERR_APER           RMS error vector for aperture flux(es)                     [count]
#  12 FLUX_RADIUS            Fraction-of-light radii                                    [pixel]
#  13 FWHM_IMAGE             FWHM assuming a gaussian core                              [pixel]
#  14 BACKGROUND             Background at centroid position                            [count]
#  15 THRESHOLD              Detection threshold above background                       [count]
#  16 FLUX_MAX               Peak flux above background                                 [count]
#  17 ISOAREA_IMAGE          Isophotal area above Analysis threshold                    [pixel**2]
#  18 A_IMAGE                Profile RMS along major axis                               [pixel]
#  19 B_IMAGE                Profile RMS along minor axis                               [pixel]
#  20 THETA_IMAGE            Position angle (CCW/x)                                     [deg]
#  21 FLAGS                  Extraction flags                                          
         1    178.7715     18.4829 307.8650025  +6.6680392     10968.19      16822.6     17365.26     78.54387     156.7757       313.77      1.670     4.06     842.7603     55.31807     1367.982        39     1.529     1.034  47.13   0
         2    924.3537     16.3979 307.5552539  +6.6939433     4234.003     6424.442     6795.417     78.04359     156.6508     313.4578      1.637     4.47     825.8051     55.31807     660.4092        23     1.507     0.803  49.69   0
         3    522.9031     16.6205 307.7220692  +6.6803911      2770.71     4374.194     4643.875     78.54387     156.7757     313.6452      1.629     4.21     828.6956     55.31807     366.1963        21     1.520     0.791  52.60   0
         4    725.3911     14.9243 307.6379835  +6.6878875     2044.219     3020.347     3084.948     78.29413     156.5257     313.6452      1.577     4.35     827.8151     55.31807     294.1505        17     1.302     0.779  49.64   0
         5    461.0927     15.0115 307.7478080  +6.6789778     1762.637     2966.651     2908.734      78.4191     156.6508     313.6452      1.667     5.06     830.3022     55.31807     253.5923        18     1.525     0.738  45.34   0
         6    989.2646     12.6262 307.5284061  +6.6976714     1962.452     3086.579     2850.028     78.29413     156.9006     313.7388      1.685     4.85     824.2543     55.31807     252.4859        19     1.359     0.901  39.56   0
         7    708.5568      9.0542 307.6451766  +6.6897461     7309.083     11218.32        11754     78.66844      156.963     313.8324      1.654     4.48     827.8105     55.31807     1091.897        31     1.503     0.916  49.96  16
         8    628.7515      8.2782 307.6783659  +6.6873891     3835.625     5744.127       5563.3     78.66844     157.0254      313.364      1.613     4.30     828.2088     55.31807     542.4087        23     1.449     0.859  44.04  16
         9    330.9713      7.9918 307.8021148  +6.6774975     737.5928     1207.544     1616.294     78.29413     156.7757     312.2057      2.050     4.69     840.6559     55.31807     114.1458         9     1.272     0.490  57.71  16
        10    384.4755      6.4806 307.7799332  +6.6799221     787.4992     1012.806      1219.89       78.917     157.2124     302.2291      1.589     5.04     836.3067     55.31807      114.855        10     1.298     0.649  42.57  16
        11    428.9885      4.4880 307.7615037  +6.6822420     6310.248     9753.478     10338.96     78.29413     156.7133     281.0768      1.675     4.10     831.9272     55.31807     785.7787        32     1.563     0.948  52.33  24
        12    675.8504      3.1599 307.6589663  +6.6910821     829.2862     1176.154     1480.514     78.66844     147.9053     263.8991      1.648     4.60     827.9966     55.31807     136.1879         8     1.245     0.483  48.97  16
        13    504.8396      1.7522 307.7300769  +6.6859213      834.287     1013.617     1080.932     73.12036     130.8316     242.7953      1.331     4.41     828.3819     55.31807      140.364         7     1.134     0.487  35.42  24
        14    326.0476      1.4168 307.8043830  +6.6800457      3678.08     4550.624     5338.376     69.26918     126.1058     237.4531      1.110     2.75     840.8658     55.31807     1046.326        16     1.260     0.626  -8.49  24
        15     29.9327      4.0178 307.9273368  +6.6689872      8294.09     13212.61     13551.15     78.16895     155.0801     275.5529      1.661     4.25     841.9833     55.31807       1050.6        35     1.610     0.978  50.39  24
        16     99.7334      1.1641 307.8984304  +6.6725215     1024.258     1118.399     796.1423       66.086     122.0011     233.2928      1.000     3.06     843.2779     55.31807     279.9788         6     0.908     0.369  -2.27  24
        17    121.9724   1000.1304 307.8553852  +6.2609330      541.496     732.2442     891.2131      78.4191     156.8382     313.7388      1.417     6.14     863.1585     55.31807     93.47394         8     1.495     0.709 -89.63   0
        18    716.3360   1023.6836 307.6078103  +6.2711844     3060.011     3601.839     3715.078     68.41573     124.6217     235.9223      1.043     2.80     863.6321     55.31807      796.136        11     1.052     0.523   1.58  24
        19    709.0388   1023.4258 307.6108489  +6.2710463     756.5839     680.4861     1225.287     71.08318     128.1852     239.9147      1.053     3.70     863.7993     55.31807     141.1464         8     0.981     0.592  20.50  24
        20    582.9964   1023.4115 307.6631836  +6.2668259     568.7779     1156.293     1693.764     70.80713     128.1088     239.9963      2.926     6.14     866.9183     55.31807     101.9957         9     1.704     0.623 -17.44  24
        21    572.9241   1023.3390 307.6673681  +6.2665179     2730.898     3620.534     4091.054      72.5827     129.7041     241.6228      1.328     3.49     866.8779     55.31807     430.2217        15     1.345     0.654  12.26  24
        22    431.1215   1023.8036 307.7262294  +6.2615647     1300.712     1825.442     2084.969       66.234     122.3217     233.7121      1.147     2.35     866.3879     55.31807     372.7286         6     0.877     0.380   8.32  24
        23    420.0811    999.8367 307.7316214  +6.2710867         1011     1799.606     1382.633     78.66844     157.0254     313.8012      1.789     5.92     865.7278     55.31807     131.1084        13     1.292     0.793  43.63   0
        24    811.0078    999.2360 307.5693220  +6.2844469     1097.785     1566.395      1584.11     78.04359     156.7757     313.5827      1.459     5.16     861.2609     55.31807     185.8889        11     1.218     0.618  38.64   0
        25    267.0735    996.8318 307.7952518  +6.2671814     955.5574     1455.571     1611.328     78.54387      156.963     313.8324      1.608     4.59     865.5878     55.31807     154.8101        12     1.343     0.778  44.89   0
        26    911.2073    993.4351 307.5279109  +6.2901942      7986.43      13989.9     14927.07     78.16895     156.7757      313.614      1.871     4.35     860.5111     55.31807     943.5187        40     1.698     1.130  49.16   0
        27    542.5579    992.7252 307.6810072  +6.2781357      8385.87     13034.65     14103.26     78.54387     157.0254     313.8636      1.721     4.40     865.5579     55.31807     1119.074        37     1.583     1.014  52.24   0
        28     41.2341    992.6754 307.8891587  +6.2612881      502.466     593.1572     824.5396     78.54387      156.963     313.8012      1.530     5.73       863.24     55.31807     80.70642         7     1.250     0.739 -89.43   0
        29    884.7700    989.5475 307.5390190  +6.2909147     11407.17     19289.13     21167.32      78.4191     157.0877       313.77      1.853     4.25     860.5403     55.31807     1407.506        54     1.754     1.229  44.03   0
        30   1006.4799    989.0692 307.4884967  +6.2951813     4179.505      7418.47     7969.091       78.917     157.2124     313.8012      1.922     4.46     854.7761     55.31807     535.7714        32     1.632     1.122  45.14   0
        31    597.4944    990.0969 307.6582851  +6.2810641     1283.089     2138.868      2118.63     78.66844     157.5235     313.7076      1.753     6.03     865.4167     55.31807     165.3551        15     1.415     0.745  58.65   0
        32    529.1142    988.6021 307.6867281  +6.2793863     4202.653     6840.566     7838.562     78.04359     156.5883     313.5515      1.828     4.29     865.4024     55.31807     583.7075        32     1.759     1.015  28.91   0
        33    638.4031    987.7902 307.6413765  +6.2833883     1487.738     2343.772     2628.148     78.16896     156.6508     313.6764      1.749     4.30     864.6203     55.31807     222.2285        17     1.394     0.781  54.38   0
        34     63.7797    987.4021 307.8799765  +6.2642251     971.3734     1572.402     1901.473     78.29413     156.6508     313.5827      1.700     5.82     863.0132     55.31807     123.4138        13     1.364     0.699  39.40   0
        35    481.9326    984.9811 307.7064406  +6.2792967     2129.032     3140.157     3132.169     78.29413     156.9006     313.7388      1.525     3.95     865.2885     55.31807     267.9341        20     1.325     0.918  51.97   0
        36    916.6143    977.2125 307.5262100  +6.2970716     40169.55     68282.41     73259.36     78.54387     156.6508       313.77      1.829     4.35     859.4101     55.31807     5074.807        84     1.828     1.287  49.31   0
        37    321.3216    978.3387 307.7733521  +6.2766402     423.0026      588.826     435.6777     78.79282     157.0254     313.8012      2.036     4.40     865.6249     55.31807     71.07245         6     1.387     0.397  50.49   0
        38    223.7928    975.3861 307.8139462  +6.2745767     1729.683     2570.937     2309.604     78.29413     156.7133     313.6764      1.638     4.69     863.7903     55.31807     216.0485        19     1.472     0.851  37.36   0
        39    762.6651    968.8749 307.5904153  +6.2953609     6547.922     10853.97     12090.21     78.79282      156.963     313.8012      1.833     4.34     861.1559     55.31807     784.0223        44     1.708     1.306  73.50   0
        40    622.5728    973.1010 307.6484438  +6.2889209     904.1229     1126.562     825.5907     78.79282     156.7133     313.8012      1.508     3.90     864.3124     55.31807     133.4604         8     1.140     0.484  27.60   0
        41    814.4594    970.8013 307.5688437  +6.2963000     2185.704     3433.521     3817.208     78.04359     156.7133     313.5515      1.638     4.29      860.282     55.31807     306.3235        21     1.540     0.832  45.96   0
        42    549.4675    968.3279 307.6789597  +6.2884384      869.793     1478.325     2151.879     78.66844     157.0877     313.8324      2.104     5.55     864.5397     55.31807     135.6517        11     1.652     0.646  49.15   0
        43    232.2748    967.9103 307.8106770  +6.2779481     1453.556     2354.113      2246.39     78.66844     157.2746     313.8948      1.690     4.47     863.8092     55.31807     237.7042        16     1.467     0.810  48.25   0
        44    950.9119    964.0010 307.5124114  +6.3036720     6122.103     10801.63     12130.32     77.91801     156.5257     313.5827      1.885     4.38     857.3609     55.31807      762.032        41     1.701     1.183  51.94   0
        45    196.3916    967.3845 307.8255936  +6.2769568     911.4333     1247.328     1405.554     78.29413     156.7133     313.6764      1.519     4.61     863.1722     55.31807     169.2625        11     1.213     0.838  58.98   0
        46     57.0995    965.8246 307.8834801  +6.2729063     2665.093      4287.05     4246.431     78.79282     156.7133     313.6452      1.655     3.93     862.4585     55.31807     348.1082        24     1.390     1.013  47.73   0
        47    206.7181    959.3453 307.8215776  +6.2806229     715.2658     1158.801     1307.098     78.66844      156.963     313.8636      1.843     6.27     863.1394     55.31807     121.9743         8     1.188     0.929 -73.03   0
        48    633.2709    958.1063 307.6445062  +6.2954693     719.7247      1193.31     1235.593     78.66844     157.0254     313.8324      1.796     6.20     863.5007     55.31807     91.22131         8     1.219     0.886  38.09   0
        49    924.4984    955.4642 307.5236658  +6.3063127     2026.593     3494.308     2305.317     78.66844     157.0254     313.8636      1.812     5.15     857.7473     55.31807      287.942        24     1.686     0.949  42.31   0
        50    995.4944    952.4438 307.4942861  +6.3099329     689.7841     1078.477     1303.979     78.66844      156.963     313.9572      1.635     4.23     855.5668     55.31807      98.1983         6     1.087     0.470  80.04   0
        51    784.0198    951.8817 307.5821189  +6.3030906     1229.165      1925.01     2043.827     78.29413     156.6508       313.77      1.619     4.39     860.1369     55.31807      188.681        15     1.462     0.740  37.76   0
        52    645.3900    951.4637 307.6396974  +6.2986177     4643.762     7162.403     7103.746     78.16896     156.7757     313.6764      1.675     4.26     863.0638     55.31807     660.8354        27     1.472     0.948  49.50   0
        53    257.6161    951.6831 307.8007031  +6.2854993     4488.539     6902.316     7434.828     78.29413     156.6508     313.7388      1.670     4.23      864.088     55.31807     591.5623        28     1.456     1.027  47.66   0
        54    467.6810    949.7022 307.7135470  +6.2933805     1131.165     1695.246     1763.143     78.54387     157.2746     313.8948      1.663     5.63     864.2249     55.31807     161.4352        12     1.396     0.639  46.10   0
        55     26.2684    949.1130 307.8968466  +6.2787643     2286.099     3400.743     3539.886     78.79282     157.2124     313.8636      1.575     4.18     861.7129     55.31807     272.9695        21     1.427     0.907  36.35   0
        56    877.1118    947.8484 307.5435985  +6.3078715     821.0515     1480.833     1564.574     78.66844     156.8382      313.926      1.824     4.64     858.8141     55.31807     120.4809         9     1.347     0.454  24.83   0
        57    948.6960    944.9211 307.5139714  +6.3114740     659.6696      1170.01     1341.549      78.4191     157.2124     313.8636      2.053     4.96     856.4752     55.31807     93.19177         8     1.217     0.573  46.44   0
        58    293.8974    945.3036 307.7858540  +6.2893536      924.906     1129.751     779.9768     78.66844     157.5235     313.6764      1.442     5.56     864.7233     55.31807     116.5906        14     1.262     1.063  64.38   0
        59   1001.2693    943.7819 307.4921785  +6.3137015     637.7746     1276.365     1387.728     78.16895     156.8382       313.77      2.317     6.18     855.4623     55.31807     86.28973         9     1.391     0.843  56.28   0
        60    570.2323    943.9451 307.6711585  +6.2992001     1715.653     2806.689     3259.444     78.54387      156.963       313.77      1.706     4.48      863.423     55.31807     264.9776        21     1.401     1.013  16.67   0
        61     58.7744    941.0081 307.8836244  +6.2832062     728.1194     1202.322       1624.6     78.29413     156.7757     313.6764      1.573     5.36     861.8076     55.31807     102.2765         9     1.126     0.720  68.86   0
        62    609.0719    940.2064 307.6551568  +6.3020464     1221.423     1996.984     1950.265     78.29413     156.5257     313.7388      1.678     4.22     862.9697     55.31807     157.9387        15     1.209     0.890  62.64   0
        63    289.0171    938.0098 307.7881266  +6.2922001     1440.762     2219.097     2275.108      78.4191     156.7133     313.7076      1.655     5.08      864.551     55.31807      224.228        18     1.404     1.018  45.74   0
        64    557.2257    935.8243 307.6768327  +6.3021157     578.4573     818.6487     963.1787     78.16895     156.7757     313.7388      1.328     4.32     863.1744     55.31807     104.9566         7     1.090     0.488  66.32   0
        65    756.2707    934.5130 307.5942252  +6.3093308     934.1081     1375.657     1613.138     78.79282     157.2124     313.8324      1.607     5.02     860.4091     55.31807      131.054        10     1.168     0.612  55.64   0
        66    893.6682    930.9636 307.5372901  +6.3153952     6843.917     11277.04     11945.23     78.54387     157.0254      313.926      1.768     4.29     857.3531     55.31807     928.6616        39     1.656     1.062  49.65   0
        67    131.8304    932.7162 307.8535717  +6.2890918     474.8049     565.9741     705.8024     78.66844     156.7757     313.7076      1.421     4.40     862.1501     55.31807     92.42316         5     1.274     0.432 -61.73   0
        68    429.4800    928.1539 307.7301355  +6.3009917     2337.755     3549.502      3954.54     78.66844      156.963     313.8324      1.710     3.92     863.7906     55.31807     336.9009        20     1.506     0.834  50.17   0
        69    103.2098    929.7907 307.8655541  +6.2893346     497.0707     793.7852     841.4125     78.29413     156.7757     313.7388      1.473     3.43     862.0814     55.31807     80.43903         5     0.975     0.348  46.51   0
        70    331.1953    926.3436 307.7710071  +6.2984346      9489.63     14711.81     15751.39     78.04359     156.8382     313.5515      1.674     4.09     864.0095     55.31807     1344.786        37     1.525     1.051  47.27   0
        71    251.2651    925.2368 307.8042333  +6.2962019     7225.266     11194.37     11734.19     78.54387      156.963     313.8948      1.671     4.10     863.2284     55.31807     934.3006        33     1.495     1.041  53.25   0
        72    169.6875    923.8945 307.8381511  +6.2940087     595.5268     899.7144     1442.964     78.66844     157.3991     313.8948      1.689     5.37       862.16     55.31807     107.7352         6     1.078     0.755  33.30   0
        73    579.4597    919.8412 307.6681384  +6.3094594     1217.265     1840.588     1893.126     78.66844      156.963     313.8948      1.539     4.70     862.6093     55.31807     177.8723        13     1.206     0.751  46.42   0
        74    763.7840    919.5339 307.5916087  +6.3157657     751.0649     1095.569     1495.264     78.16896     156.8382     313.7388      1.442     4.10     859.8231     55.31807     112.7737         7     0.850     0.648  76.57   0
        75    909.2699    915.9170 307.5313164  +6.3221282     950.7249     1638.748     2024.868       78.917     157.2124     313.8636      1.961     4.61     856.4468     55.31807     134.9061        14     1.404     0.892  51.43   0
        76    865.3706    914.6481 307.5495885  +6.3211834     810.2781     1283.981     1555.072     78.29413     157.0254     313.7388      1.783     6.49     858.1195     55.31807      122.437        11     1.358     0.870   4.60   0
        77    212.6504    914.5821 307.8206269  +6.2992997      502.106     840.1093     1090.214     78.16896     157.0254     313.5827      1.942     4.26     862.3743     55.31807     89.66278         5     1.207     0.428  37.48   0
