#   1 NUMBER                 Running object number                                     
#   2 X_IMAGE                Object position along x                                    [pixel]
#   3 Y_IMAGE                Object position along y                                    [pixel]
#   4 ALPHA_J2000            Right ascension of barycenter (J2000)                      [deg]
#   5 DELTA_J2000            Declination of barycenter (J2000)                          [deg]
#   6 FLUX_APER              Flux vector within fixed circular aperture(s)              [count]
#   9 FLUXERR_APER           RMS error vector for aperture flux(es)                     [count]
#  12 FLUX_RADIUS            Fraction-of-light radii                                    [pixel]
#  13 FWHM_IMAGE             FWHM assuming a gaussian core                              [pixel]
#  14 BACKGROUND             Background at centroid position                            [count]
#  15 THRESHOLD              Detection threshold above background                       [count]
#  16 FLUX_MAX               Peak flux above background                                 [count]
#  17 ISOAREA_IMAGE          Isophotal area above Analysis threshold                    [pixel**2]
#  18 A_IMAGE                Profile RMS along major axis                               [pixel]
#  19 B_IMAGE                Profile RMS along minor axis                               [pixel]
#  20 THETA_IMAGE            Position angle (CCW/x)                                     [deg]
#  21 FLAGS                  Extraction flags                                          
         1    910.7454     14.5113 307.5486436  +6.6905102     980.2975     1676.523     2074.338     78.42134     156.3456      312.971      1.788     6.40     827.6995     55.14431      154.903        15     1.615     0.769 -29.67   0
         2    662.2625     13.8148 307.6519330  +6.6824967     1733.098     2867.756     2833.527     77.92342     156.3456       312.66      1.679     4.78     827.1974     55.14431     263.2822        17     1.528     0.730 -28.32   0
         3    173.0375      9.5283 307.8553837  +6.6678602     753.9547     1065.347     1202.086     78.29716       156.47     312.9088      1.595     5.33     831.1796     55.14431     115.5313        10     1.250     0.641 -30.61   0
         4    227.3100      9.0598 307.8328461  +6.6698779     683.2755      837.374     939.0047     78.29716       156.47     312.9088      1.323     3.62     833.9786     55.14431     106.2428         7     0.839     0.618 -67.89   0
         5    150.6929      6.5853 307.8647681  +6.6683241      9773.87      16072.1     16629.01     78.17278      156.221     301.9573      1.787     4.99      830.377     55.14431     1425.375        35     1.718     0.941 -25.52  16
         6    896.2772      4.3523 307.5549959  +6.6942224     3756.463     6163.365     6513.632     78.29716     156.1587     278.6965      1.761     4.75     827.4803     55.14431     548.8128        26     1.703     0.875 -24.45  16
         7    494.7691      4.7248 307.7218445  +6.6806426     2555.524     4220.573     4564.649     78.29716     156.5322     283.2336      1.809     4.68      827.744     55.14431     411.4293        25     1.618     0.889 -32.59  16
         8    697.1042      2.9591 307.6378169  +6.6881447     1839.183     2906.461     3145.878     78.42134     145.5141     260.3185      1.682     4.97     827.0494     55.14431     267.9948        18     1.542     0.732 -29.26  24
         9    432.7616      3.1588 307.7476658  +6.6792108     1649.105     2594.619     2659.145     78.17278     147.5067     263.1071      1.637     3.62     829.6109     55.14431     266.0416        17     1.310     0.812 -29.68  24
        10     51.2652      2.9740 307.9062070  +6.6664700     587.5966     850.1521     699.3588     78.04819     145.6478     260.3933      1.522     4.92     828.8383     55.14431     90.73236         7     1.047     0.683 -22.55  16
        11    960.7054      1.4757 307.5283159  +6.6975595     1352.117     1864.434     2469.758     70.03111     126.6352     237.8555      1.585     5.01     825.3327     55.14431     271.5307        12     1.396     0.628  -7.79  24
        12    703.7415   1000.3956 307.6016905  +6.2764805     845.7078     1502.861     855.1877     77.79845     156.3456     312.6288      1.804     6.16     859.4813     55.14431     114.0699        11     1.573     0.678 -45.98   0
        13    935.8353   1022.8162 307.5045640  +6.2749685     506.9402      801.935     1035.054     76.53745      136.116     248.7345      1.265     3.36     858.2646     55.14431     94.78461         5     0.973     0.337 -45.37  24
        14    765.3900   1020.9261 307.5754048  +6.2700618     5447.034     10213.08     11031.59     78.04819     154.5301     275.1121      1.976     4.97     859.3667     55.14431     672.8688        39     1.795     1.138 -29.32  24
        15    554.7530   1023.3279 307.6627902  +6.2620287       101273     154030.8     159617.1     72.35472     129.5222      240.985      1.632     5.72     859.8808     55.14431     16920.49        53     1.861     0.836  -8.18  27
        16    556.1024   1016.8906 307.6624454  +6.2647321     62132.89     112284.8     122575.2     78.42134     156.9047     311.7873      1.950     4.63      859.829     55.14431     8003.165        88     1.959     1.278 -27.09  19
        17    411.9522   1001.7686 307.7228089  +6.2661495       706.04     1250.829     1331.428     78.17278       156.47     312.7533      2.045     5.38     859.7496     55.14431     126.0635         9     1.749     0.467 -26.30   0
        18    335.0526    998.3731 307.7548543  +6.2649737     1613.479     2805.844     3164.636     78.04819     156.5943     312.7845      1.966     5.23     858.6247     55.14431     224.3813        20     1.587     0.831 -20.46   0
        19    487.5793    990.0270 307.6917988  +6.2735314     1007.886     1853.015     1917.791     78.04819     156.2833     312.7845      1.833     6.91     860.1035     55.14431     126.4424        14     1.465     0.913 -30.57   0
        20    722.0303    988.0143 307.5945098  +6.2822044     6545.667     12044.01     12311.66     78.04819      156.221     312.7844      1.934     4.79     859.2117     55.14431     836.1537        44     1.812     1.163 -24.13   0
        21    517.5280    988.5744 307.6794113  +6.2751340     3598.591     6489.072     7290.967      78.0482     156.3456     312.7533      1.938     4.95     859.8072     55.14431     487.4191        31     1.699     1.038 -28.39   0
        22    267.7178    987.2448 307.7831876  +6.2673101        12811     23194.41     25127.76     78.42134       156.47     312.8156      1.967     4.92     857.7454     55.14431     1675.557        56     2.113     1.106 -29.76   0
        23    391.1957    988.4603 307.7318740  +6.2709493     795.5098     1284.859     1455.464     77.79845     156.3456     312.6288      1.774     5.50     859.1526     55.14431     104.8167         8     1.132     0.753 -29.82   0
        24    783.0671    987.3328 307.5691864  +6.2845244     837.7441     1494.891      2046.74     78.42134       156.47     312.8777      2.036     6.30     858.5107     55.14431     128.5546        12     1.352     0.826 -26.11   0
        25    238.3338    985.2469 307.7954559  +6.2671489     713.8464     1497.914     1724.844     78.42134     156.4078     312.8466      2.031     5.16      857.596     55.14431     93.30103         8     1.346     0.558 -50.08   0
        26    883.2426    981.4897 307.5277823  +6.2902804     7407.583      13653.1     14765.49     78.42134     156.4078     312.8777      1.975     4.63     857.2944     55.14431     825.4996        45     1.789     1.223 -27.49   0
        27    514.5637    980.8368 307.6809014  +6.2782299     7358.398     12907.89      14514.5     78.17278     156.3456     312.6288      1.894     4.59     859.6782     55.14431     1058.506        43     1.774     1.136 -24.78   0
        28    978.7228    977.0595 307.4882801  +6.2952933     3650.363     7507.341     7661.529     78.54533     156.5322     312.8156      2.162     5.11     856.0339     55.14431     442.3647        41     1.869     1.288 -27.69   0
        29    856.8611    977.6425 307.5388660  +6.2909890     10091.15     19251.41     21482.13     78.42134       156.47      312.971      2.080     4.77     857.3904     55.14431     1191.582        58     1.980     1.275 -25.36   0
        30    569.4615    978.1752 307.6581940  +6.2811664     1127.266     2142.956     2274.085     78.04819     156.4078     312.7533      1.965     6.75     859.4927     55.14431     146.2488        17     1.610     0.794 -33.11   0
        31    501.2346    976.6824 307.6865755  +6.2794992     3470.877     6465.289     7265.018     78.42134       156.47     312.8156      2.095     5.05     859.6649     55.14431     500.7516        35     1.916     1.111 -13.06   0
        32    610.5146    975.9824 307.6412199  +6.2834452     1166.659       2125.6     2140.538     78.04819      156.221     312.7845      1.986     6.28     859.5042     55.14431     151.9937        13     1.366     0.812 -22.17   0
        33     35.3646    975.7432 307.8800541  +6.2642533     834.8534     1421.038     1710.619     78.29716       156.47     312.8777      1.725     4.40      853.092     55.14431     137.7416         8     1.068     0.516 -36.86   0
        34    454.1279    973.2704 307.7062509  +6.2793305     1986.403     3052.389     2562.979     78.54533     156.5943     312.8156      1.671     4.61      859.418     55.14431     268.7876        20     1.525     0.828 -29.41   0
        35    888.6550    965.2106 307.5260778  +6.2971834     35733.73     67102.16     72806.73     77.79845     156.4078     312.5355      2.003     4.74     856.9465     55.14431     4254.416        78     1.931     1.343 -26.17   0
        36    196.0130    963.7788 307.8137502  +6.2745929     1389.921      2705.81     2446.594     78.17278     156.1587     312.7533      2.055     6.37     856.2892     55.14431     175.8929        25     1.819     1.079 -20.51   0
        37    594.4628    961.5844 307.6483673  +6.2888539     872.7877     1215.055     1013.676     77.92342     156.4078     312.6911      1.650     5.93     859.3615     55.14431     116.7249        12     1.278     0.774 -10.31   0
        38    786.1974    959.0336 307.5688317  +6.2963150     2019.179     3436.333     3513.827     77.67326     156.2833     312.5977      1.781     4.42     858.0545     55.14431     252.5907        24     1.520     0.961 -32.14   0
        39    734.8778    956.8170 307.5902173  +6.2955164     5622.852     10240.44     11421.12     77.92342      156.221     312.7222      1.943     4.76     858.4641     55.14431     753.6915        41     1.760     1.179 -25.45   0
        40    203.8244    956.1394 307.8107632  +6.2780097     1200.293     1996.021     2231.931     78.04819     156.4078     312.7533      1.860     6.28     856.2856     55.14431     185.1892        15     1.523     0.728 -40.26   0
        41    521.3820    956.0801 307.6788992  +6.2886812     776.3066     1360.021      2135.28     78.04819     156.1587     312.7533      2.419     5.49     859.2091     55.14431     115.9713         9     1.333     0.638 -21.19   0
        42     28.9823    954.1481 307.8834310  +6.2729559     2374.095     4143.244      4121.82     77.92342     156.5322     312.5977      1.843     4.52     853.0114     55.14431     313.2288        28     1.606     1.041 -26.78   0
        43    168.5701    955.5165 307.8254232  +6.2770829     857.1202     1235.192     1051.513     78.42134     156.2833     312.7533      1.678     4.49     855.4453     55.14431     115.7576         8     1.157     0.495  -3.88   0
        44    922.9911    951.9611 307.5122610  +6.3037999     5417.478     10457.52     11069.81     77.79845     156.2833     312.5666      2.023     4.81     856.4698     55.14431       666.69        41     1.798     1.192 -23.79   0
        45    604.3743    946.0872 307.6447700  +6.2955849     695.2097     1252.923     1295.771     78.54533     156.2833     312.7222      1.881     4.71     859.2104     55.14431     105.8253         7     1.001     0.628  37.35   0
        46    896.7953    943.5997 307.5234184  +6.3063791     1643.636      2985.02     2983.806     77.79845      156.034     312.5977      1.928     4.98     856.4504     55.14431     184.2038        22     1.464     1.031 -33.67   0
        47    229.4833    939.7189 307.8006601  +6.2856518     3842.552     6525.002     6996.033     78.29716     156.7185     312.9088      1.850     4.97     856.4269     55.14431     549.8934        28     1.656     0.972 -24.72   0
        48    756.2233    940.0930 307.5819119  +6.3031355     1128.121     2104.523     2395.226     78.42134     156.2833     312.6911      1.932     6.99     857.9466     55.14431     145.2402        18     1.620     0.846 -23.77   0
        49    617.4286    939.5300 307.6395684  +6.2987293      4060.72     6788.557     6634.538     78.17278       156.47     312.7845      1.789     4.64     859.1368     55.14431     523.5705        27     1.662     0.922 -26.21   0
        50    966.7263    939.2090 307.4945239  +6.3105239     631.9142     1065.583     1043.512     78.04819      156.034     312.6911      2.122     6.24     854.7667     55.14431     88.53198         9     1.302     0.840 -66.14   0
        51    439.6659    938.0428 307.7134370  +6.2933930     960.2319     1535.329     1911.169     78.42134     156.4078     312.8777      1.782     6.14     858.3776     55.14431     127.2021        12     1.430     0.744 -24.40   0
        52    848.9005    936.1601 307.5435565  +6.3078535     933.7962     1627.384      1495.07     78.42134     156.3456     313.0643      1.868     6.94     856.8098     55.14431     114.3362        13     1.412     0.958 -38.14   0
        53    542.0177    932.0765 307.6711337  +6.2992841     1522.682     2672.353     2901.678     77.92342      156.221     312.7844      1.923     5.22     859.0351     55.14431     205.1882        21     1.561     0.995 -39.31   0
        54    974.3589    932.3276 307.4915836  +6.3136199     630.9663     1449.282     1641.281     78.29716       156.47     312.9088      2.834     5.24     854.2246     55.14431     94.66577         9     1.218     0.636 -39.17   0
        55    179.0436    947.9362 307.8213289  +6.2805649     572.5452     1060.028     990.2041     78.42134     156.4078     312.8466      1.630     3.88     855.4973     55.14431      102.723         5     1.340     0.323 -32.04   0
        56    581.3922    928.3458 307.6549075  +6.3021423       1122.5     1715.099     1617.081     77.92342     156.3456     312.5666      1.649     6.21     859.0292     55.14431     153.5546        15     1.629     0.668 -30.62   0
        57     30.3148    929.2460 307.8837157  +6.2832835     614.5015     992.9482     1484.608     78.42134     156.4078     312.8466      2.007     5.14     853.0493     55.14431     96.77081         7     1.141     0.653  30.06   0
        58    260.9235    926.3461 307.7880536  +6.2922293     1392.347     2111.539     2126.844     78.54533       156.47     312.8466      1.605     4.69     856.6161     55.14431     199.1945        15     1.355     0.802 -20.47   0
        59    265.0790    933.6639 307.7860823  +6.2893469      827.618     1189.989     1268.139     78.66911     156.5322     312.8466      1.548     4.57       856.81     55.14431     140.4551         9     1.204     0.627  -9.54   0
        60    727.9856    922.4451 307.5942282  +6.3094799     890.5297     1700.338     2156.085     77.79844     156.2833     312.6288      2.136     5.01      857.846     55.14431      157.491        11     1.286     0.812 -13.64   0
        61    865.5696    918.8705 307.5372112  +6.3155495     5892.758     10721.84     11267.44     78.29716       156.47     312.8156      1.956     4.65     856.3091     55.14431     735.6669        39     1.760     1.159 -28.35   0
        62    104.6415    920.5284 307.8531454  +6.2893825     605.8979     950.5364     849.3395     78.29716       156.47     312.9088      1.686     5.97     853.2141     55.14431     127.5976         9     1.398     0.717 -14.48   0
        63    401.6195    915.9764 307.7299760  +6.3012301     1867.799     3115.714     3656.458     78.17278     156.2833     312.7845      1.764     4.84     857.6434     55.14431     269.2034        16     1.420     0.753 -34.03   0
        64    303.2950    914.3121 307.7708625  +6.2986203     8439.884     14712.63     15227.54     78.42134     156.8427     312.9088      1.859     5.03     857.0103     55.14431     1182.309        42     1.816     1.045 -24.26   0
        65    223.2554    913.2946 307.8041339  +6.2963542     6375.986     11013.23     11564.52     78.29716       156.47     313.0643      1.830     4.65     855.7098     55.14431     854.6566        39     1.763     1.028 -29.60   0
        66    736.1011    907.4180 307.5913602  +6.3159564     715.8427     1185.997     1216.497     78.42134     156.3456     312.5977      1.882     4.89     857.4827     55.14431     107.7148         7     1.318     0.581 -50.64   0
        67    550.8784    907.9387 307.6682623  +6.3095482     1068.391      1730.31     2201.205     78.54533     156.5322     312.8156      1.847     4.70     858.7736     55.14431     145.8226        12     1.249     0.668 -18.97   0
        68    881.3187    903.9328 307.5311693  +6.3222434     805.6556     1551.168     1757.218     78.54533     156.7185     312.9088      2.127     5.24     855.9622     55.14431     120.0665         9     1.510     0.514 -20.48   0
        69    379.9344    901.7206 307.7394593  +6.3063900      569.073     630.8289     872.4818     78.66911     156.5943     312.8156      1.401     4.65     857.1965     55.14431      115.471         6     1.208     0.507 -25.29   0
        70    947.8306    899.7577 307.5036866  +6.3261855     615.8908     1058.744      1058.69     78.04819     156.4078     312.6911      2.343     5.18     854.5864     55.14431     87.48083         8     1.264     0.601 -65.79   0
        71    717.8060    896.9612 307.5993074  +6.3196634     1519.855     2633.827     3241.795     77.54788      156.221     312.5666      1.883     5.23     857.5253     55.14431     196.1517        21     1.558     0.960 -38.81   0
        72    540.6268    897.6508 307.6728641  +6.3134534     580.5256        689.9     190.7017     78.04819     156.5943     312.7845      1.058     2.83     858.6069     55.14431     119.1005         6     0.819     0.496 -44.26   0
        73    592.6262    893.7460 307.6514004  +6.3168059     502.3365     740.1343     487.7305     78.04819     156.5943     312.7222      1.651     4.54      858.528     55.14431     89.40106         5     0.985     0.595 -41.52   0
        74    948.8620    892.8546 307.5034885  +6.3290705     1138.892     2007.378     2414.595     78.54533     156.4078     312.8156      1.852     5.40     854.4313     55.14431     143.2287        14     1.226     0.849 -19.67   0
        75    582.1068    893.2620 307.6557852  +6.3166538     865.2569     1342.647     1039.165     78.42134       156.47     312.9088      1.621     5.04     858.5309     55.14431     113.6622        10     1.232     0.584 -18.79   0
        76    502.8733    892.6802 307.6887088  +6.3142421     1063.952      1943.83     2176.595     78.66911     156.7185     312.9088      2.125     6.08     858.1098     55.14431     152.8706        14     1.546     0.672 -21.65   0
        77    636.1527    890.2595 307.6334411  +6.3197014      2254.51     3189.977     3681.033     78.42134       156.47     312.9399      1.532     4.48     858.1806     55.14431     306.1864        19     1.529     0.787 -27.23   0
