#   1 NUMBER                 Running object number                                     
#   2 X_IMAGE                Object position along x                                    [pixel]
#   3 Y_IMAGE                Object position along y                                    [pixel]
#   4 ALPHA_J2000            Right ascension of barycenter (J2000)                      [deg]
#   5 DELTA_J2000            Declination of barycenter (J2000)                          [deg]
#   6 FLUX_APER              Flux vector within fixed circular aperture(s)              [count]
#   9 FLUXERR_APER           RMS error vector for aperture flux(es)                     [count]
#  12 FLUX_RADIUS            Fraction-of-light radii                                    [pixel]
#  13 FWHM_IMAGE             FWHM assuming a gaussian core                              [pixel]
#  14 BACKGROUND             Background at centroid position                            [count]
#  15 THRESHOLD              Detection threshold above background                       [count]
#  16 FLUX_MAX               Peak flux above background                                 [count]
#  17 ISOAREA_IMAGE          Isophotal area above Analysis threshold                    [pixel**2]
#  18 A_IMAGE                Profile RMS along major axis                               [pixel]
#  19 B_IMAGE                Profile RMS along minor axis                               [pixel]
#  20 THETA_IMAGE            Position angle (CCW/x)                                     [deg]
#  21 FLAGS                  Extraction flags                                          
         1    793.9698     24.1832 307.6127164  +6.7266464      1858.54      7296.26     9441.712      94.5994     189.3499     379.1147      3.048    10.60      1253.36     66.83842     254.4325        57     2.211     1.933 -76.50   0
         2    899.3034      7.9139 307.5692865  +6.7368381     616.4403     1347.168      2272.68     95.05167     190.1033     376.9213      1.723     4.42     1251.415     66.83842     95.45459         5     1.958     0.283  51.33  18
         3    898.7059     14.0540 307.5693292  +6.7342848     883.5214     1561.316     2805.216     94.90115     189.5762     379.4539      3.913     6.59     1251.659     66.83842     146.2223        10     2.106     0.578  61.03   3
         4    894.8368     16.6638 307.5708567  +6.7330802     1683.874      3193.13     4096.598     94.90115     189.6516     379.2278      2.136     7.69     1251.818     66.83842     209.6022        19     1.508     1.097  32.57   3
         5    894.4764     10.9261 307.5712004  +6.7354359     1453.495     3474.906     5776.268     95.35199     189.9529     379.2278      3.570     8.61     1251.587     66.83842     178.0692        23     1.932     1.071 -89.42  19
         6    529.3849     12.1286 307.7235878  +6.7228655     5646.017     20321.61     29880.26     94.44817     189.5008      379.077      3.236     9.63     1262.188     66.83842     724.0498        86     2.617     2.320 -43.72  18
         7    527.2957      8.6511 307.7245776  +6.7242312      4436.42     6071.277     6370.466     94.90115     189.5762     379.4163      1.517     4.57     1262.497     66.83842     585.1379        11     1.331     0.611  57.16  19
         8      7.2798     12.5448 307.9415414  +6.7053451     1313.752     4304.586      6085.91     95.20195     189.6516     372.5725      3.143     9.76      1289.51     66.83842     236.8773        36     2.283     1.744 -48.57  18
         9    823.9243      3.8328 307.6008959  +6.7360332     14227.06     48312.27     58368.25     94.90115     185.9983     330.1358      2.827     8.48     1252.411     66.83842     1639.172        84     2.358     1.902  -6.85  24
        10    659.6215    990.4800 307.6362225  +6.3234742     3699.104     9433.353        10440      94.5994     189.2743     379.1901      2.426     6.07     1317.089     66.83842     407.6941        45     1.860     1.548 -44.22   0
        11    332.0979   1023.5151 307.7717380  +6.2989954     2940.032     4305.907     4348.042     85.21834      153.862     288.5439      1.503     5.24     1318.944     66.83842     482.5555        16     1.577     0.603   8.92  24
        12    252.2569   1023.1369 307.8050561  +6.2965018     3194.452     5251.321     5316.582       90.269     160.1447     295.7372      1.768     7.00      1318.23     66.83842      462.728        21     1.608     0.879   6.19  24
        13    897.1165    986.5623 307.5372756  +6.3329343     1916.697     4033.704     3558.278     95.05167     189.5762     379.1147      2.093     5.98     1314.844     66.83842     248.8661        27     1.567     1.276 -51.90   0
        14    342.6993    983.9941 307.7686515  +6.3156547     6806.991     21157.97     25066.87      94.7504     189.1988     378.8507      2.655     7.14     1318.808     66.83842     833.1029        71     2.058     1.890 -70.70   0
        15     77.6298    984.8011 307.8791984  +6.3065175     778.0714     1713.259     1209.698     94.29668     189.4253     378.9639      1.905     6.55     1317.154     66.83842     100.1255         8     1.688     0.713 -73.96   0
        16    106.4045    974.9434 307.8675292  +6.3115419     750.3864      1959.05     2833.815     94.29668     189.5008     378.8507      2.807     8.75     1317.283     66.83842     158.3267        13     1.588     1.347  22.01   0
        17    858.3419    968.0114 307.5540757  +6.3393100     1207.714     2992.055     2947.458     94.29668     189.5762     378.8507      2.124     8.84     1314.236     66.83842     152.5944        19     1.660     1.315 -64.61   0
        18    887.7435    967.9233 307.5418125  +6.3403164     1483.598     3003.421     3967.319     95.05167     189.5762     379.1524      2.468     7.73     1313.812     66.83842     186.3887        23     1.772     1.095 -41.23   0
        19    821.6013    967.1740 307.5694318  +6.3384429     1763.135      4157.88     4203.237      94.5994     189.2743     378.9261      2.265     7.05     1314.685     66.83842     233.7802        28     1.732     1.348 -48.02   0
        20     89.5808    967.9048 307.8747857  +6.3138868      1121.48     3041.021     3319.848     94.90115     189.4253     378.9639      2.512     9.54     1316.896     66.83842     169.5518        23     1.940     1.427 -22.47   0
        21    557.7192    959.0167 307.6797947  +6.3330860     142882.9     435364.8     506182.4      94.5994     189.2743     379.0016      2.632     6.64     1317.474     66.83842     16348.28       165     2.198     1.978 -52.68   0
        22    402.0182    961.8218 307.7446549  +6.3267708     2960.169     9982.652     11650.86      94.7504     189.5008     379.1147      2.727     7.44     1318.357     66.83842     426.3085        56     2.037     1.849 -40.03   0
        23    345.1702    960.1620 307.7684263  +6.3255706         5027     16484.35     19440.99      94.5994     189.3499     379.0393      2.714     7.45     1318.706     66.83842     646.6576        64     2.079     1.894 -44.91   0
        24    663.2916    955.8865 307.6358570  +6.3378703     1636.354     4503.036     5610.976      94.7504     190.1785     379.3032      2.681     7.12     1315.685     66.83842      181.384        37     1.792     1.570 -30.24   0
        25    895.9769    954.8982 307.5388154  +6.3459628     3219.588      7451.37     7903.744     95.20195     189.3499     378.9639      2.313     5.46     1312.905     66.83842     364.1578        43     1.753     1.532 -53.98   0
        26    638.3481    950.0627 307.6464594  +6.3394486     1515.392     4374.004     5025.488     95.05167     189.5762     379.1524      2.894     7.03     1315.829     66.83842      241.887        33     1.742     1.673 -62.26   0
        27    826.5452    948.8320 307.5679862  +6.3461748     891.5977     2133.484     1956.931     94.90115     189.6516     379.1524      2.283     8.07     1313.843     66.83842     117.6548        14     1.754     1.039 -26.36   0
        28    631.7756    947.0075 307.6493044  +6.3404919     886.5648     2797.821     5185.929     94.44817     189.5008     379.0016      3.445     8.34     1315.829     66.83842     143.3495        17     2.202     0.882 -39.41   2
        29    951.7347    947.8051 307.5157916  +6.3507285     504.4219     1222.154     1171.477     94.44817     189.2743     378.9261      2.137     5.27     1311.301     66.83842     82.33459         5     1.247     0.629  22.08   0
        30    914.5712    942.5480 307.5314730  +6.3516724     2178.071     4563.102      5015.66      94.7504     189.8023      379.077      2.185     5.59     1311.867     66.83842     276.1781        30     1.652     1.264 -38.74   0
        31    373.9504    938.1479 307.7571640  +6.3356088     1246.071     3022.902      4066.44     95.20195     189.5008     379.1524      2.925     6.83     1318.401     66.83842     176.8251        20     1.730     1.142  33.04   0
        32    511.6830    928.6273 307.7000257  +6.3441017     1071.166     1845.032     3339.048     94.90115     189.3499     379.1147      2.939     9.54     1317.743     66.83842     170.4032        15     2.701     0.941 -34.93   2
        33    509.6766    926.3414 307.7009399  +6.3449785     1125.658     2112.217     3330.454     95.20195     189.6516     379.1524      2.620     7.22     1317.627     66.83842     148.5404        13     1.773     0.824 -36.47   2
        34    556.3080    924.8998 307.6815343  +6.3471173     2762.836     8247.169     10413.36     95.05167     190.1785     379.1524      2.778     6.75     1317.023     66.83842     311.6404        53     2.025     1.727 -18.39   0
        35    891.6320    922.4736 307.5417182  +6.3591994      769.598     1656.727     1833.881     94.90115     189.6516     379.1901      2.083     5.32     1311.156     66.83842     129.5458         8     1.566     0.620 -10.53   0
        36    212.4926    922.8779 307.8250366  +6.3365511     2936.509     2778.907     2660.944      94.7504     189.8776     379.2278      0.703     2.73     1318.353     66.83842      1257.32         6     0.553     0.398  -8.31   0
        37    526.8578    918.6742 307.6940308  +6.3487112     7676.694     24941.91     29563.43     95.05167     189.6516     379.1901      2.721     7.32     1317.158     66.83842      991.827        71     2.082     1.909 -47.60   0
        38    940.3163    916.4147 307.5216102  +6.3633053     2414.349     5072.967     4536.283      94.5994     189.2743     379.0393      2.105     5.24     1309.965     66.83842     286.2367        32     1.599     1.340 -48.05   0
        39    320.1030    907.4406 307.7806661  +6.3464935     1434.436     4229.479     4676.492     95.05167     189.5008     379.4539      2.571     7.89     1318.282     66.83842     184.9523        32     1.862     1.640  82.35   0
        40     37.4202    908.3226 307.8985644  +6.3367367     877.8027     1514.227     1266.476      94.5994     189.3499     379.1524      1.706     5.74     1315.313     66.83842     144.9209        10     1.477     0.627   8.87   0
        41     19.7916    905.7274 307.9060064  +6.3372209      885.197     2688.082     2609.517     94.44817     189.1232     379.0016      2.632     8.12     1315.318     66.83842     184.7443        18     1.844     1.546 -14.85   0
        42    784.8754    903.0244 307.5869125  +6.3637013     26258.88      72030.3      81466.2      94.5994     189.4253     379.1524      2.473     6.13     1312.001     66.83842     3172.936        88     2.062     1.776 -52.71   0
        43    242.2807    901.2794 307.8133407  +6.3464526     2234.009     7142.317     10466.82       95.352     189.9529     379.3786      3.283     7.95     1318.279     66.83842     296.7859        60     2.224     1.904 -77.60   1
        44    910.0594    898.2119 307.5348457  +6.3698188     4858.197     11525.75     12842.58     94.29668     189.5008     378.8507      2.301     5.55     1309.988     66.83842     602.1591        43     1.789     1.475 -56.44   0
        45    708.0761    894.8629 307.6192288  +6.3645318     32825.11     107189.8     157282.9       95.352     189.6516     379.1524      3.300    11.07     1312.819     66.83842      4465.39       165     3.390     2.149  27.39   0
        46    413.7056    893.2184 307.7420967  +6.3554664     7861.629     28114.16     34066.35     94.90115     189.3499     379.0393      2.827     7.83     1317.083     66.83842     1099.186        80     2.181     2.032 -60.33   0
        47    647.6884    888.9476 307.6446225  +6.3649761     2717.167     8253.199     9850.178     95.05167     189.5008     379.3409      2.680     7.79     1313.225     66.83842     315.0148        47     1.998     1.647 -73.55   0
        48    241.7428    880.0368 307.8142839  +6.3552000     672890.2      2582036      3250521     95.05167     189.6516     379.1901      3.011    10.80     1317.939     66.83842     63702.25       465     2.517     2.351 -75.59   4
        49    907.0969    889.5226 307.5363738  +6.3733067     3674.524     9084.815     10730.37      94.5994     189.8776     379.2655      2.412     5.82     1309.772     66.83842     413.9907        45     1.782     1.594 -55.24   0
        50    438.1911    886.5020 307.7321083  +6.3590494     893.0633     2056.813     2338.942      94.7504     189.1988     378.9261      2.472     5.91     1316.801     66.83842     108.9548         8     1.295     0.759  87.22   0
        51    682.4313    878.2662 307.6304873  +6.3705325     1046.314     2906.085     3880.318      94.7504      189.727     379.1147      2.902     8.65     1311.806     66.83842     122.8466        18     1.953     1.069 -31.61   2
        52    416.6087    875.8688 307.7414717  +6.3627217     18183.21     66522.95     82636.15     94.44817     189.3499      379.077      2.888     7.75     1316.656     66.83842     2510.419       103     2.271     2.102 -51.05   0
        53    534.3391    874.7617 307.6923913  +6.3670789     2579.809      9050.18     11017.62     95.05167      189.727     379.1901      2.799     7.85     1314.853     66.83842     363.6807        55     2.059     1.852 -61.76   0
        54    450.8810    873.1848 307.7272638  +6.3649652     1794.282     6097.177     9419.022      94.5994     189.3499     379.0016      3.582     9.84     1316.317     66.83842     237.9406        53     2.300     1.854 -89.59   2
        55    779.4628    871.1768 307.5902427  +6.3766643     5311.666     14928.54     17281.72      94.5994     189.6516      379.077      2.552     6.35     1309.969     66.83842     671.0426        57     2.002     1.699 -55.93   0
        56    137.5484    863.8796 307.8582996  +6.3584050     4044.057     14581.85      19212.2     95.05167     189.6516     379.1901      3.006     7.72     1315.145     66.83842     571.6348        72     2.149     2.103  35.88   3
        57    146.3651    863.7872 307.8546245  +6.3587362       1347.3     3534.762     3226.305     94.44817     189.4253     378.9639      2.345     9.24     1315.401     66.83842     195.1006        25     1.745     1.366  44.03   3
        58    129.6553    860.3518 307.8617120  +6.3595983     1169.871     3921.417     7086.035     95.05167     189.6516     379.3032      3.897    11.83      1314.72     66.83842     223.4236        39     2.277     1.759 -78.65   3
        59    950.6660    891.2214 307.5181387  +6.3740425      1213.44     2595.628     3104.235      94.5994     189.6516     379.1147      2.460     7.28     1308.712     66.83842     145.0272        19     1.700     1.031 -21.74   0
        60    802.4347    863.5792 307.5809140  +6.3805580     593.5904     1376.744     2090.293     94.44817     189.4253     378.9261      2.070     5.22     1308.341     66.83842     102.6205         7     1.579     0.488  -2.96   0
        61    924.8801    859.4384 307.5299655  +6.3863074     3777.482     9207.299     10714.21     94.90115      189.727     379.1524      2.413     5.80     1307.985     66.83842     472.1156        46     1.918     1.502 -60.49   0
        62    974.1409    858.9079 307.5094301  +6.3881505     947.4979     1807.729     2246.598     94.90115     189.5762     379.3409      2.346     4.83     1306.658     66.83842     140.4384         9     1.005     0.815 -14.15   0
        63    565.8171    857.9818 307.6798244  +6.3750451     859.1063     1808.736     2048.074      94.7504     189.2743     379.1147      2.482     7.58     1313.517     66.83842     131.3771        11     1.812     0.887  89.05   2
        64    569.6176    856.4132 307.6782917  +6.3758181     897.7224     1309.273     1580.092      94.5994     189.1988      379.077      1.971     4.97     1313.353     66.83842     133.4635         8     0.975     0.717 -88.57   3
        65    415.1803    855.5356 307.7427545  +6.3710646     671.5433     1827.887     2176.693      94.5994     189.6516     379.0016      2.739     8.77     1315.938     66.83842     102.7555        10     1.827     1.177  -9.23   0
        66    351.8969    895.4724 307.7678067  +6.3524868      7187.07     25941.03     31565.21      94.7504     189.8023     379.1524      2.826     7.74     1317.416     66.83842     977.2935        73     2.117     2.010 -62.66   0
        67    948.1468    850.5276 307.5205573  +6.3907516     1675.631     4217.731     4798.182     94.90115     189.5762     379.1524      2.450     7.42     1306.785     66.83842      228.105        26     1.794     1.219 -39.94   2
        68    919.2897    851.3892 307.5325685  +6.3894445     1713.447      4209.03     4594.538      94.7504     189.2743     378.9639      2.376     7.12       1307.5     66.83842     211.2922        29     1.748     1.547 -50.80   0
        69    978.4329    850.4025 307.5079251  +6.3918017     1076.213     1743.207     2547.897     94.14496     189.4253     378.8884      2.308     7.59     1305.965     66.83842     147.7742        15     1.979     0.814  81.55   2
        70    981.2134    849.9869 307.5067789  +6.3920648      720.529     1168.773     1246.192     94.90115     189.2743     379.1147      1.444     3.57     1305.891     66.83842     122.0051         5     0.817     0.448  74.16   3
        71    673.7603    851.4044 307.6350102  +6.3813302     603.5898     1650.043     3577.947     94.14496     189.3499     378.8507      3.415     4.28      1310.09     66.83842     96.94275         5     1.052     0.495 -85.63   2
        72    242.5916    849.7267 307.8149555  +6.3677351     902.1257     2631.813     5716.402      94.5994     189.1232     379.0016      4.841    10.73      1316.81     66.83842     132.6932        22     2.187     1.466  26.05   0
        73    963.3775    838.9613 307.5145912  +6.3960266     1510.766      3226.86     3638.152      94.5994     189.3499     378.9261      2.129     6.75      1305.58     66.83842     189.2999        23     1.663     1.216 -69.28   0
        74    682.6982    840.9316 307.6316339  +6.3859472     513.8069     1053.068     1764.183     95.05167     189.8023     379.1901      3.698     4.66     1309.497     66.83842     111.8828         5     1.081     0.571 -19.80   0
        75   1004.7617    831.6552 307.4975694  +6.4004055     933.5612      1664.58     1814.876     95.05167      189.727     379.2278      1.855     6.04     1304.256     66.83842     119.5377         9     1.438     0.714 -26.46   0
        76    892.2366    827.3863 307.5446631  +6.3984569     891.5137     1890.823     2043.472     94.44817     189.4253     378.8884      2.203     6.00     1306.202     66.83842     104.6475         9     1.394     0.725 -20.56   0
        77    867.1694    823.9056 307.5552393  +6.3990661     607.1832     1463.033     996.3982     95.20195     189.3499     379.1524      2.248     6.73     1306.504     66.83842     120.9536         7     1.307     0.971 -19.18   0
