#   1 NUMBER                 Running object number                                     
#   2 X_IMAGE                Object position along x                                    [pixel]
#   3 Y_IMAGE                Object position along y                                    [pixel]
#   4 ALPHA_J2000            Right ascension of barycenter (J2000)                      [deg]
#   5 DELTA_J2000            Declination of barycenter (J2000)                          [deg]
#   6 FLUX_APER              Flux vector within fixed circular aperture(s)              [count]
#   9 FLUXERR_APER           RMS error vector for aperture flux(es)                     [count]
#  12 FLUX_RADIUS            Fraction-of-light radii                                    [pixel]
#  13 FWHM_IMAGE             FWHM assuming a gaussian core                              [pixel]
#  14 BACKGROUND             Background at centroid position                            [count]
#  15 THRESHOLD              Detection threshold above background                       [count]
#  16 FLUX_MAX               Peak flux above background                                 [count]
#  17 ISOAREA_IMAGE          Isophotal area above Analysis threshold                    [pixel**2]
#  18 A_IMAGE                Profile RMS along major axis                               [pixel]
#  19 B_IMAGE                Profile RMS along minor axis                               [pixel]
#  20 THETA_IMAGE            Position angle (CCW/x)                                     [deg]
#  21 FLAGS                  Extraction flags                                          
         1    755.5339     25.0416 307.6276112  +6.7122731     1765.447      3861.63     5799.675     94.89323     189.2602     378.6333      2.700     9.68     1253.678     66.72701     208.9158        31     2.272     1.150  53.50   3
         2    758.1425     22.4998 307.6266122  +6.7134092     1445.185     3707.085     6434.055     94.59245     189.3355     378.8214      3.526     9.24     1253.534     66.72701      193.554        25     2.189     1.088  51.07   3
         3    245.9062     18.4703 307.8401862  +6.6980636     3077.478     7232.889     10113.76     94.89323     189.4107      378.558      2.815    11.93     1286.457     66.72701     339.0017        53     3.025     1.444  29.67  19
         4     18.8632     17.1910 307.9348276  +6.6910231      4991.43      20019.3     29111.98     94.29072     189.1096     378.3322      3.315     8.79     1289.808     66.72701     685.4392        96     2.534     2.328  47.68   0
         5    242.7822     21.5566 307.8413805  +6.6966850     2945.291      6637.87     8345.748     94.29073     189.1849     378.2568      2.396     7.52     1286.419     66.72701     340.2065        31     2.249     0.947  30.58   3
         6    492.6564      6.3242 307.7377957  +6.7112850     1712.372     3343.255     4143.022     94.89323     189.2602     362.6415      1.969     5.83     1263.413     66.72701     194.6095        14     1.397     0.718  55.23  19
         7    493.1222     10.4257 307.7374593  +6.7096066     2360.634     4729.048     6329.069     94.59245     189.2602     378.5204      2.271     6.99     1263.213     66.72701     281.2726        32     2.161     0.993  43.80  19
         8    496.6434      7.9269 307.7360788  +6.7107555     2260.586     5049.492     6853.652     94.74296     189.4107     376.3687      2.534     8.00     1263.026     66.72701     277.7302        30     2.013     1.055  66.73  19
         9    200.0413      1.5002 307.8598865  +6.7035442     1614.399     2141.606     2412.896     85.07629     153.4199     288.3101      1.426     5.40     1286.027     66.72701      233.823        11     1.305     0.630  31.10  27
        10    201.2653      6.4977 307.8592026  +6.7015211     2646.338       6325.9     7397.567     94.89323     189.4107     364.6007      2.507     9.26     1286.104     66.72701     296.8546        41     2.383     1.269  27.92  19
        11    204.4483      3.4281 307.8579832  +6.7028948     2796.681     5232.024     5766.815     94.44171     181.7328     322.9036      1.920     6.16     1286.044     66.72701     305.5419        22     1.623     0.918  52.66  19
        12    804.3384      5.8840 307.6079379  +6.7218008     719.0416     1787.926     2645.479     95.04325     189.3355     357.8559      1.861     4.19     1251.646     66.72701       120.83         6     1.682     0.298  -4.04  16
        13    339.9588      2.3701 307.8015578  +6.7078426     904.6384     1920.185     3189.764     93.98802     167.7066     304.4624      3.945     5.64     1282.628     66.72701     134.7288        11     1.486     0.603   9.26  24
        14    662.9088    969.2545 307.6335230  +6.3192487     1294.994     3086.872     4362.608     94.74296     189.1849     378.7086      2.804     8.23     1315.033     66.72701     181.1169        27     1.978     1.343  35.76   0
        15    923.0969   1022.1570 307.5233633  +6.3060073     1361.654     2534.668     2243.889     94.89323     174.5342     313.3187      1.910     6.02     1314.945     66.72701     168.6942        20     1.472     1.038  25.38  24
        16     59.4343    965.8911 307.8848946  +6.3005871     1349.255     3508.634     4525.899     95.04325     189.1849      378.558      2.709     7.57     1313.246     66.72701     200.3049        26     1.851     1.450  75.88   0
        17    204.5451    964.4584 307.8245299  +6.3060111     904.5116     1981.183      2323.24     95.04326     189.4107     378.5957      2.365     6.12     1315.469     66.72701     130.3877        12     1.528     0.689  35.38   2
        18     75.5228    966.9611 307.8781592  +6.3006813     649.8138     1216.553     1612.801     94.74296     189.4107      378.558      2.232     4.10     1313.397     66.72701     99.95215         5     1.111     0.433  26.61   0
        19    940.1634    965.6015 307.5182084  +6.3299289     708.3073     1051.714     1321.674      93.8363     189.1096     378.2945      1.804     4.99     1311.365     66.72701     122.0403         6     1.115     0.633  85.39   0
        20     77.4968    964.2862 307.8774305  +6.3018517     917.8921     1681.654     2512.281     94.89323     189.7865     378.5957      2.724     5.19     1313.378     66.72701     140.9955        10     1.291     0.589  42.34   0
        21    657.0834    958.6252 307.6363161  +6.3234456      3311.84     9132.906     11009.16     94.89323     189.0342     378.5204      2.657     6.51     1314.557     66.72701     374.9609        58     1.980     1.878  42.25   0
        22    894.8526    953.2141 307.5375022  +6.3335479      1512.09     3370.299     3689.337      94.1395     189.2602     378.2568      2.351     6.44     1311.117     66.72701      211.119        20     1.640     1.035  54.02   2
        23     17.3486    957.2320 307.9027173  +6.3027603      713.754     1465.356     2268.445     94.74296     189.4107     378.4828      2.461     5.07     1312.866     66.72701     120.8137         6     1.164     0.625 -68.68   0
        24    340.3910    952.1973 307.7683969  +6.3155923     6223.941      19510.9     25206.38      94.1395     188.9588     378.3322      2.898     6.89     1316.522     66.72701     778.6753        83     2.268     2.002  40.55   0
        25     76.3035    952.7906 307.8783271  +6.3065594     475.9523     1441.857     1692.812     94.59245     188.8834     378.3322      2.153     4.30     1313.272     66.72701     92.46436         6     1.726     0.305  51.06   0
        26    212.7777    951.0277 307.8215690  +6.3118317     516.1776     1373.611     1525.617     94.29072     189.1096     378.4828      2.531     3.82     1315.371     66.72701     99.59473         5     1.262     0.332  25.84   0
        27    104.6824    941.0959 307.8669187  +6.3123346     693.0064     1621.901     2209.457     94.74296     189.7864     378.6709      2.705     8.02     1313.473     66.72701     119.5658         9     1.808     0.994   4.48   0
        28    884.9686    936.0330 307.5422107  +6.3403171      979.935     2185.072     2707.776     94.29072     189.0342     378.2568      2.543     5.80      1310.51     66.72701      128.905        12     1.209     0.901 -42.19   0
        29    856.6564    935.3024 307.5540247  +6.3396829     909.2855     1974.981     2159.617     94.74296     189.3355     378.8214      2.197     6.02      1311.01     66.72701     101.8496        12     1.408     0.723  69.46   0
        30    819.0149    934.9946 307.5697087  +6.3385652     1460.715     3766.453      4531.54      94.4417     188.9588     378.3698      2.603     8.21     1311.393     66.72701     168.7095        26     1.592     1.394 -12.08   0
        31     87.4804    936.2569 307.8742489  +6.3137599     1214.512     2794.431     2852.386     95.04325     189.3355      378.558      2.161     8.18     1313.181     66.72701     143.8452        18     1.756     1.065 -10.15   0
        32    555.3226    927.1564 307.6797754  +6.3330693     133991.3     405040.2     506415.5     94.74296     189.3355     378.5957      2.817     6.83     1314.496     66.72701     14757.14       187     2.385     2.124  43.31   0
        33    398.1817    931.5892 307.7450501  +6.3260233     1991.215     3658.443     4880.161     94.44171     188.9588     378.4074      2.169     7.74     1316.429     66.72701     236.0079        22     1.994     0.840  50.96   3
        34    400.1833    928.8155 307.7443130  +6.3272353     3114.614     7070.231     8952.937     94.59245     188.9588     378.4828      2.528     7.50     1316.414     66.72701     346.4796        38     2.309     1.219  43.34   3
        35    341.4849    929.9694 307.7687126  +6.3248086     3319.131     6454.336     8577.611     94.89323     189.1096     378.4074      2.212     5.44     1316.232     66.72701     379.5814        22     1.769     0.864  48.19   3
        36    343.6455    927.3046 307.7679055  +6.3259809     5300.192     11843.37     15620.31     94.89323     189.2602     378.7086      2.606     7.06     1316.195     66.72701     569.4155        52     2.417     1.297  39.08   3
        37    661.2136    924.0704 307.6357917  +6.3378536      1466.74      4203.64     4736.442     94.29072     189.1096     378.4074      2.598     8.72     1312.703     66.72701      184.131        33     1.913     1.583  25.76   0
        38    893.3332    922.9633 307.5391789  +6.3459914      2860.92     7220.016     8482.087     94.74296     189.2602     378.6333      2.466     5.99     1309.608     66.72701      318.528        46     1.793     1.688  68.52   0
        39    634.5754    919.7849 307.6470316  +6.3387409     1118.806     2205.028     3317.591     94.59245     189.1096     378.4828      3.242     7.05     1312.848     66.72701      141.642        19     1.645     0.894  54.49   3
        40    636.8443    917.1176 307.6461791  +6.3399177     1286.802     2379.765     3758.799     94.89323     189.3355     378.5204      2.988     7.72      1312.72     66.72701     195.6075        18     2.019     0.826  34.73   3
        41    824.6251    916.4680 307.5680125  +6.3464023     893.6226     2058.915     2760.023     94.44171     189.1849     378.4451      2.519     5.90      1310.11     66.72701     114.0632         8     1.248     0.785  39.54   0
        42    629.2524    914.3502 307.6494360  +6.3408090     954.1923     2893.217     5049.634     95.04325     189.1849      378.558      3.758     9.82     1312.719     66.72701     128.4761        18     2.003     1.342 -38.56   0
        43    912.3016    910.7579 307.5317019  +6.3516591     1587.839     4110.195     4120.527     94.89323     189.1849     378.8214      2.524     7.95     1308.481     66.72701     183.4447        31     1.721     1.520  40.54   0
        44    370.9620    906.4603 307.7572550  +6.3354971     1096.305      3036.68     4306.676     94.89323     189.4107      378.558      2.996     7.44     1315.939     66.72701     172.9764        22     1.887     1.492  37.17   0
        45    505.0603    898.1957 307.7017065  +6.3433627     899.9033     1815.983     2457.886     94.13949     189.1849     378.2945      2.176     5.10     1314.941     66.72701     116.1495         8     1.234     0.597  68.07   2
        46    508.3799    896.0328 307.7003992  +6.3443661     1268.332     2743.259     3490.911     94.29072     189.1096     378.3322      2.448     6.84     1314.798     66.72701     172.8531        16     1.706     0.769  46.76   2
        47    553.8006    893.0889 307.6815888  +6.3470886     2279.871      7533.58     10442.82     93.98802     188.7325     378.1815      3.143     7.76     1313.472     66.72701     267.5752        61     2.202     1.894  30.08   0
        48    470.2117    892.2729 307.7164220  +6.3446523     721.6929     1822.097     2366.383     94.29072     188.8834     378.3322      2.800     5.20     1315.461     66.72701     97.56958         7     1.088     0.703 -58.51   0
        49    524.4981    886.8471 307.6940061  +6.3486945     7213.374     22649.37     29177.07     94.89323     189.2602     378.7838      2.897     7.13     1314.073     66.72701     836.4709        84     2.287     2.026  44.77   0
        50    938.0233    884.8027 307.5218869  +6.3632286     1928.552     5029.376     5417.589      94.4417     188.9588     378.3322      2.443     7.22     1306.548     66.72701     205.1799        38     1.797     1.564  41.53   0
        51    315.9008    877.5857 307.7811829  +6.3455921      910.104     1552.248     2401.796     94.74296     189.0342     378.2191      2.012     5.26     1315.492     66.72701     110.3817        10     1.113     0.701  35.00   3
        52    317.7873    874.7557 307.7804956  +6.3468236     1075.982     2417.481     3630.353     94.29072     189.1096     378.2568      2.882     8.37     1315.459     66.72701     187.0432        20     2.230     0.877  28.35   2
        53    782.4352    871.2131 307.5871435  +6.3636971     23966.99     68513.13     82549.97     94.29073     189.1096     378.3698      2.692     6.44     1307.476     66.72701     2501.565       106     2.222     1.963  43.50   0
        54     19.2688    874.7394 307.9047890  +6.3368920     968.4435     2166.804     3084.074     95.04325     189.2602      378.558      3.099     5.43       1312.8     66.72701     124.3492         7     1.016     0.819  63.75   2
        55    238.3051    871.6454 307.8136979  +6.3454649     1310.282     2407.524     3886.835     94.74296     189.2602     378.7086      2.234     5.36     1314.982     66.72701     175.2755        11     1.403     0.579  41.29   3
        56    240.5440    868.5650 307.8128727  +6.3468115     2156.467     5764.954     9480.537     94.74296     189.3355     378.5957      3.883     9.32     1314.978     66.72701     225.6837        52     2.535     1.630  50.51   3
        57    705.6500    863.0181 307.6194003  +6.3645399      31210.8     103300.5     157921.1     94.29072     189.4107     378.2945      3.402    10.10     1308.781     66.72701      3704.26       181     3.639     2.078  30.54   0
        58    907.5326    866.1952 307.5352255  +6.3699062     4234.925      11004.4     13426.41     94.29073     188.9588     378.3322      2.610     6.07     1305.939     66.72701     463.2662        56     1.972     1.735  50.38   3
        59    904.4941    857.4273 307.5367934  +6.3734269     3552.383     8806.812     10042.72     95.04326     189.0342     378.3698      2.461     5.90     1305.425     66.72701     384.6299        49     1.901     1.662  24.26   3
        60    347.9902    865.4909 307.7682413  +6.3516538     5217.234     9930.167     11393.07     94.59245     188.9588     378.2568      2.011     6.13      1315.49     66.72701     579.1874        27     1.988     0.858  37.78   3
        61    350.4029    862.5682 307.7673381  +6.3529410     8165.544     18746.46     23951.79     93.98802     189.1096     378.2945      2.540     7.59     1315.378     66.72701     889.8896        62     2.557     1.382  34.39   3
        62    409.7743    863.0016 307.7426018  +6.3547345     5960.399     12109.61     14285.51      94.4417     188.9588     378.2945      2.149     5.96     1314.731     66.72701     658.6124        30     1.879     1.001  41.77   3
        63    412.0775    860.1194 307.7417427  +6.3560013     8569.572     18810.62     23969.74     95.19305     189.6362     378.7462      2.476     7.22     1314.528     66.72701     909.9198        60     2.616     1.309  37.18   3
        64    947.9273    859.7195 307.5186282  +6.3739153     1230.839     2984.586     3442.615     95.19305     189.6362     378.5957      2.480     8.25     1304.781     66.72701     154.2067        18     1.598     1.192  67.66   0
        65    237.9688    849.9827 307.8145904  +6.3544001     584387.9      1189588      1340344      94.4417     189.1096     378.4074      2.169     8.20     1314.509     66.72701     63898.43       130     2.193     1.254  44.90   7
        66    240.3731    847.0830 307.8136901  +6.3556776     718691.1      1790354      2316600     94.74296     189.0342     378.4828      2.715    10.57     1314.432     66.72701     63650.27       382     3.014     1.663  39.34   7
        67    643.9736    858.4915 307.6452390  +6.3643665     2047.747      3980.01     5744.506     95.04325     189.0342     378.3698      2.294     6.50     1310.246     66.72701     226.6637        17     1.642     0.837  41.02   3
        68    646.3268    856.1482 307.6443403  +6.3654122     2529.594     5545.219     7103.632     94.89323     189.4107     378.5957      2.409     8.13     1310.048     66.72701      285.973        35     2.212     1.129  31.56   3
        69    412.5828    845.7778 307.7420297  +6.3619410     13692.18     24867.87     28354.67     94.59245     189.1849     378.4828      1.976     5.86     1313.676     66.72701     1507.137        35     1.881     1.021  47.11   3
        70    415.0964    842.9158 307.7410822  +6.3632066     20106.02     46915.93     59774.08     94.89323     189.7864     378.6333      2.596     7.39     1313.475     66.72701     2138.136        84     2.691     1.497  38.32   3
        71    288.5521    848.9685 307.7935637  +6.3565014     1340.842     1289.474     1656.704     94.59245     189.3355     378.4451      0.871     2.83     1314.702     66.72701     433.0255         5     0.772     0.387 -62.10   0
        72    682.3621    846.6890 307.6296623  +6.3705126      972.535     2196.327     2737.936     94.89323     189.2602     378.5957      2.491     4.84     1308.309     66.72701     142.7133        10     1.129     0.661  70.22   2
        73    531.8555    843.0032 307.6924612  +6.3670459     2219.261     7669.332     10219.47      94.1395     189.1096     378.1815      3.049     8.90     1311.794     66.72701     260.9391        59     2.229     1.934  51.41   0
        74    448.2633    840.9998 307.7273382  +6.3650992      1689.45     5354.249      9074.72     93.98802     189.0342     378.2191      3.854     9.96     1313.061     66.72701     246.9097        53     2.446     1.799  56.88   2
        75    776.8936    839.3119 307.5905535  +6.3766890     4851.462     14153.06     17556.63     94.89323     189.8615     378.6333      2.761     6.89     1305.735     66.72701     514.2661        65     2.080     1.888  42.06   0
        76    144.4318    831.2358 307.8541887  +6.3590288     1282.464     3166.813     4437.929     94.44171     189.0342     378.2568      2.869     9.49      1311.65     66.72701     148.7527        27     2.114     1.388  46.80   3
        77    135.9671    830.9247 307.8577240  +6.3588753     4770.467     10918.33        16472     94.74296     189.3355     378.4828      3.986    14.21      1311.47     66.72701     521.6466        83     4.725     1.507  24.43   3
