#   1 NUMBER                 Running object number                                     
#   2 X_IMAGE                Object position along x                                    [pixel]
#   3 Y_IMAGE                Object position along y                                    [pixel]
#   4 ALPHA_J2000            Right ascension of barycenter (J2000)                      [deg]
#   5 DELTA_J2000            Declination of barycenter (J2000)                          [deg]
#   6 FLUX_APER              Flux vector within fixed circular aperture(s)              [count]
#   9 FLUXERR_APER           RMS error vector for aperture flux(es)                     [count]
#  12 FLUX_RADIUS            Fraction-of-light radii                                    [pixel]
#  13 FWHM_IMAGE             FWHM assuming a gaussian core                              [pixel]
#  14 BACKGROUND             Background at centroid position                            [count]
#  15 THRESHOLD              Detection threshold above background                       [count]
#  16 FLUX_MAX               Peak flux above background                                 [count]
#  17 ISOAREA_IMAGE          Isophotal area above Analysis threshold                    [pixel**2]
#  18 A_IMAGE                Profile RMS along major axis                               [pixel]
#  19 B_IMAGE                Profile RMS along minor axis                               [pixel]
#  20 THETA_IMAGE            Position angle (CCW/x)                                     [deg]
#  21 FLAGS                  Extraction flags                                          
         1      1.9347    100.3843 307.9354686  +6.6320726     468325.1     690035.9     731984.1     74.18713     132.5785     244.4309      1.607    10.76     840.7045     55.02745     62787.77       264     2.390     1.349 -89.24  28
         2      1.5075     47.7293 307.9374107  +6.6537941     1168.703     1561.728     1587.763     70.29743     126.9787     237.8408      1.272     4.39     834.4079     55.02745     182.0348        10     1.122     0.578  85.47  24
         3    987.9482     20.8181 307.5284150  +6.6977358     2017.221     3144.598     3426.622     77.75829     156.2004     311.9353      1.677     4.14     822.0174     55.02745     259.2388        22     1.493     0.897  74.18   0
         4    707.2745     17.2834 307.6451667  +6.6898875     8560.636     11571.21     11551.96     78.37887     156.4484     312.2457      1.437     3.42     823.6434     55.02745     1336.507        26     1.303     0.866  63.62   0
         5    627.4117     16.6215 307.6783752  +6.6875074     4498.166     6231.522     6530.753      77.8828       155.89     312.0595      1.434     3.13     823.4202     55.02745     730.9904        22     1.302     0.798  67.88   0
         6    427.6651     13.0062 307.7614979  +6.6823536     7274.217      9888.25     10621.99     77.75829       155.89     311.9663      1.402     3.15     827.5178     55.02745      1154.31        25     1.346     0.793  64.94   0
         7     28.4814     12.7589 307.9273749  +6.6691319     9532.866     13226.32     14012.92     78.25515     156.1384     312.1216      1.471     3.39     830.5746     55.02745      1423.32        33     1.374     0.977  56.24   0
         8    674.9045     11.9716 307.6587947  +6.6910051     953.5027     1267.934     1084.709     78.37887       155.89     312.1526      1.390     4.19     823.2252     55.02745     150.3669         9     1.174     0.511  54.81   0
         9    503.2055     10.1616 307.7302031  +6.6860429     962.3815     1193.627     1139.804     77.38354       155.89     311.9353      1.270     3.13     824.6342     55.02745     212.2802         9     1.087     0.577  69.87   0
        10    324.2030      7.9588 307.8046581  +6.6809892     14912.62      20377.4     21696.01     77.63357     155.8278     310.2221      1.413     3.32     832.0447     55.02745     2583.587        33     1.400     0.850  58.08  16
        11     97.8051      8.3662 307.8987174  +6.6732630     2794.711     4128.216      4267.31     77.50866     155.9521     311.7488      1.504     3.82     832.1796     55.02745     455.9688        20     1.332     0.812  62.30  16
        12    419.2975      8.6190 307.7651213  +6.6838859     866.0216     1236.857     1571.934     78.13123     156.0142     311.9353      1.407     4.59     827.9888     55.02745     145.8464        10     1.292     0.571  61.19  16
        13     88.8299      7.0848 307.9024896  +6.6734920     1689.835     2340.953      2486.25     78.25514     155.9521     305.2154      1.376     3.20     831.9031     55.02745     309.4555        16     1.241     0.769  61.51  16
        14    792.6249      6.6391 307.6100534  +6.6971149     1001.325     1379.496     1157.571      77.8828     155.9521     301.7672      1.493     3.58     823.6169     55.02745      178.944        11     1.102     0.658  61.68  16
        15    458.6764      6.1553 307.7488403  +6.6862144      777.196     1062.067     612.8136     78.13123     156.2004     297.5963      1.439     3.98     825.7985     55.02745     127.0394        10     1.075     0.719  69.07  16
        16    390.2668      5.8359 307.7772775  +6.6840676     2688.283     3422.051     3090.375     78.13123     156.2625     294.6842      1.367     3.42     829.8177     55.02745     421.9412        15     1.188     0.698  56.31  16
        17    985.2357      2.6916 307.5301437  +6.7051290     614.7969      710.817     511.6765     78.37887     142.3074     255.9717      1.564     3.43     821.4753     55.02745     103.1755         5     1.231     0.276  55.52  24
        18    651.3593      1.8695 307.6689152  +6.6943930     11115.62     12549.58     13009.21     74.18713     131.9925     243.6765      1.114     2.70     822.8967     55.02745     2209.319        18     1.016     0.720  33.05  24
        19    816.3328      1.4698 307.6003734  +6.7000354     1310.237     1554.807     1836.205      69.7439     126.2133     237.1881      1.019     2.25     823.4265     55.02745      353.399         9     0.920     0.578  14.21  24
        20    529.0661      1.6919 307.7197395  +6.6903999     1200.629     1353.582     1549.382     72.46929     129.4725     240.7562      1.117     2.58     824.4635     55.02745     254.2991         8     0.833     0.575  42.40  24
        21     69.2719      1.9404 307.9107885  +6.6749618     862.9547     1074.979     1160.505     74.83733     132.8705     244.5894      1.373     3.76      830.999     55.02745     167.1252         8     0.879     0.783   0.12  24
        22    481.5298    993.7844 307.7064272  +6.2792656     2236.331     3494.824     3344.728     77.75829     156.0763     312.0905      1.669     4.07     856.9976     55.02745     302.5733        19     1.387     0.848  70.90   0
        23    956.0569   1022.5289 307.5084418  +6.2831465     5206.325     8347.438     8287.831     78.37887     139.6267     252.7336      1.742     4.64     852.4539     55.02745     660.2655        28     1.450     1.152  22.39  24
        24    715.7500   1021.3138 307.6082611  +6.2756827     2641.143     4300.289     4416.101     78.25515     151.7321     269.9016      1.733     3.75     856.7695     55.02745     336.2266        27     1.405     1.102  65.26  24
        25    710.4581   1023.4135 307.6103885  +6.2746404      679.095     974.8486     915.1711     70.70974     127.7396     238.8166      1.486     4.25      856.834     55.02745     126.1523         8     1.266     0.471   7.09  25
        26    439.1219   1022.5402 307.7230773  +6.2659838     1067.842     1665.543     1664.995     78.37887     139.6267     252.6185      1.615     3.93     856.7938     55.02745     140.6758        16     1.219     0.884  21.28  24
        27    240.5333   1023.0693 307.8055117  +6.2591506     1216.789     1631.997     2029.773     74.70774     132.7975     244.4706      1.453     3.66     854.2693     55.02745     182.3207        13     1.104     0.809  22.65  24
        28    793.7925    995.5421 307.5767125  +6.2889109     504.4247     1024.217     891.8871     77.63357     156.0142     311.9663      1.863     3.64     854.4131     55.02745     99.03058         5     1.111     0.412 -15.71   0
        29    915.9861    985.4994 307.5263077  +6.2971064     38081.33     68014.13      72111.1     78.13123       155.89     311.9353      1.907     4.27     852.9568     55.02745     4130.833        70     1.774     1.332  62.54   0
        30    223.1775    984.0963 307.8140188  +6.2746604     1701.037     2626.395     2710.641     78.25514     155.9521     311.9974      1.548     3.92     852.8923     55.02745     238.8419        20     1.272     1.015  61.71   0
        31    110.8461    983.1172 307.8606908  +6.2713165     687.9983     863.9091      458.496     78.25514     156.1384     312.1837      1.335     5.55     851.4919     55.02745     93.76959         9     1.342     0.646  39.40   0
        32    622.3323    981.8927 307.6483598  +6.2888551     823.6677     1209.655     1065.676     78.13123     156.2625     312.2147      1.575     4.94     856.6722     55.02745     131.3242         9     1.202     0.575  53.03   0
        33    813.8383    979.3596 307.5689261  +6.2962561     2105.372     3532.631     3678.469     78.00711     156.2004     312.0595      1.833     4.46     853.8189     55.02745     242.2354        23     1.495     0.998  62.40   0
        34    762.0903    977.2403 307.5904837  +6.2954149     6464.253     10447.31     11281.36     78.25514     156.1384     312.2147      1.752     3.76     854.8563     55.02745     806.3394        36     1.557     1.147  71.87   0
        35    549.0021    976.9718 307.6789716  +6.2884498     960.8537     1505.368     1234.861     77.75829       155.89     311.9974      1.585     4.18     857.0553     55.02745     167.3925        10     1.152     0.674  58.51   0
        36    231.3969    976.4165 307.8108626  +6.2781048     1529.689     2467.767     2665.406      77.8828     155.7656     312.0284      1.878     3.71     853.0645     55.02745     221.5899        17     1.228     0.890  58.28   0
        37    195.5249    975.8101 307.8257768  +6.2771587      922.325     1586.515      1151.53      77.8828     155.7656     311.9974      1.819     5.69     852.5252     55.02745     124.7508        16     1.410     0.946  49.51   0
        38     56.5809    974.7970 307.8834993  +6.2729390     2791.646     4372.973     4143.706      77.8828     155.7034     311.9663      1.666     3.63     850.8134     55.02745     354.3716        25     1.353     1.073  51.89   0
        39    950.3763    972.1649 307.5124698  +6.3037501     5829.784     10654.37        11428     77.75829       155.89     311.9663      1.943     4.23     851.6864     55.02745     726.8259        41     1.698     1.246  64.98   0
        40    206.5111    968.8879 307.8214465  +6.2803827     689.3155     1200.832     723.1481     78.00711     156.6341     312.2768      1.663     5.03     852.5677     55.02745     140.0657        11     1.334     0.842 -87.89   0
        41    632.4697    966.6624 307.6446570  +6.2954792     666.3736      1039.79     1162.944     78.25515     156.1384     312.2457      1.717     5.11     856.3136     55.02745     105.1359         7     1.126     0.655  42.43   0
        42    924.1083    963.8595 307.5236526  +6.3063090     1628.285     2958.763     3391.284     78.13123     156.0763     312.3388      1.880     4.68     852.2045     55.02745     206.2127        24     1.454     1.099  63.67   0
        43    644.8370    960.0385 307.6397420  +6.2986245     4727.933     7287.389     7291.748     78.00711     156.0142     312.0595      1.610     3.79     856.0508     55.02745     595.3846        25     1.438     0.960  61.19   0
        44    256.9452    960.3802 307.8007902  +6.2855765     4640.731     7214.961     7638.207     77.75829     156.1384     311.9974      1.660     3.45     853.6268     55.02745      628.325        30     1.464     1.041  62.61   0
        45    783.5076    960.3079 307.5821529  +6.3031154     1172.277     1878.233     2133.637     78.25515     156.6341     312.1837      1.905     6.74     853.9229     55.02745     178.7424        16     1.624     0.852  35.23   0
        46     25.7639    958.0580 307.8968541  +6.2788194     2075.382     3285.129     2965.049     78.25514     156.1384     312.1837      1.635     3.48     850.1708     55.02745     291.7709        21     1.280     0.964  70.01   0
        47    467.0111    958.4582 307.7136321  +6.2933659     1206.654     1703.479     1467.333     77.63357     156.0763     311.9042      1.523     4.21     856.3618     55.02745     181.1268        12     1.171     0.783  45.45   0
        48    876.5348    956.5031 307.5436509  +6.3077699     832.8079     1254.981     1035.938     78.25515     156.2004     312.2147      1.666     6.12     852.8446     55.02745     108.5957        12     1.141     0.924  17.76   0
        49    948.6597    953.7424 307.5137933  +6.3112986     697.7517     1171.269     1664.119     78.37887     156.0763     312.2147      1.853     5.84     851.3222     55.02745     94.36176         8     1.195     0.804  10.96   0
        50    293.2937    953.7998 307.7859176  +6.2895046     841.0563      1258.11     1111.045     77.75829     155.7656      311.842      1.522     4.63       854.35     55.02745     131.9445         8     0.961     0.633 -76.49   0
        51   1000.9097    951.7107 307.4921642  +6.3138669     751.2423     1436.434     1073.062     78.25515     156.6341     312.2768      2.030     6.98     850.0629     55.02745     102.5073        11     1.519     0.898 -81.09   0
        52    569.4459    952.4955 307.6712974  +6.2992336      1726.95     2416.984     2186.898     78.25515     156.0763     312.3388      1.525     3.56     856.7278     55.02745     237.6318        16     1.149     0.902  47.20   0
        53    288.6492    946.9441 307.7880748  +6.2921799     1502.069     2296.871      2360.43     78.25514     156.1384     312.2457      1.704     4.69     854.0063     55.02745     230.4832        17     1.446     0.838  67.97   0
        54     58.6422    950.1238 307.8834686  +6.2831931     780.5151     1464.763     2026.051     78.13123     156.1384     312.2147      1.889     3.44     850.3517     55.02745      113.134         7     0.742     0.661 -73.72   0
        55    608.7474    948.7711 307.6551022  +6.3020771       1272.3     1945.556     1573.178     78.00711     156.2625     312.0905      1.502     4.61     856.2667     55.02745     171.4684        13     1.250     0.715  51.01   0
        56    755.5679    942.9752 307.5943300  +6.3093440     893.9285     1237.747     1437.414     77.75829     155.9521     311.9974      1.492     4.88     854.1602     55.02745       123.88         9     0.990     0.681  38.12   0
        57    893.0081    939.1392 307.5373864  +6.3154840     6374.685     10844.36     11503.99     77.63357     155.9521     311.9663      1.828     4.03     852.0846     55.02745     774.3796        38     1.587     1.200  63.83   0
        58    428.8240    936.5599 307.7302178  +6.3011352     2165.399     3040.906     3401.576      77.8828       155.89     311.9663      1.528     3.91     855.6632     55.02745     287.4288        15     1.233     0.788  67.85   0
        59    330.4871    934.9225 307.7711041  +6.2985367     10059.97     14717.86     15579.23     78.25514     156.4484     312.2768      1.566     3.48     854.1093     55.02745     1350.834        33     1.483     0.956  61.16   0
        60    250.5037    933.8919 307.8043489  +6.2962965     7401.867     11319.87     11554.16     78.25514     156.6341     312.1526      1.647     3.58     852.8566     55.02745     994.4812        34     1.512     1.028  59.08   0
        61    578.6079    928.0370 307.6683069  +6.3096351     1103.724     1643.589     1628.802     77.50866       155.89     311.9353      1.665     4.49     856.3486     55.02745     161.8701        15     1.311     0.859  69.34   0
        62    763.0151    927.4941 307.5917517  +6.3159820      651.292      1153.06     1184.112     78.00711     155.9521     311.9974      2.251     5.83     853.6464     55.02745     90.71136         7     1.236     0.774  31.31   0
        63    909.1430    924.3693 307.5311763  +6.3221159     902.6075     1429.639      2122.45     78.13123     156.1384     312.0905      1.761     4.51     851.4038     55.02745     127.5188        11     1.147     0.877  62.14   0
        64    864.7018    923.1852 307.5496698  +6.3211324     735.1808     1380.509     1104.167     78.13123       155.89     311.9663      1.967     3.42     852.3506     55.02745      131.827         7     1.062     0.663  25.72   0
        65    141.2899    924.3369 307.8500151  +6.2965977      650.832     787.1166     862.5058     78.25515     156.2625     312.2457      1.434     4.29     851.0173     55.02745     83.77509         7     1.128     0.465  29.41   0
        66    408.1946    923.3398 307.7392243  +6.3059060     484.7808     742.1333     620.9676     77.75829     156.0142     311.9663      1.355     4.11      855.067     55.02745     108.1861         5     1.049     0.459   7.11   0
        67    976.5442    919.7094 307.5033423  +6.3262716     701.3806     1031.044     1417.111     78.13123     156.0142     312.3078      1.278     3.21     850.1392     55.02745     124.0358         5     0.950     0.400  14.38   0
        68    744.9750    917.2344 307.5995836  +6.3196190     1594.681     2559.771      3096.01     77.75829     155.9521     311.9663      1.818     4.57     853.8461     55.02745     227.9317        21     1.454     0.988  66.24   0
        69    569.2432    918.7172 307.6725056  +6.3131713     465.8037     732.7689     713.9951     78.25515     156.1384     312.1526      1.342     3.44     856.1765     55.02745     90.14899         5     1.177     0.291  34.92   0
        70    837.9792    917.5466 307.5609534  +6.3225745     616.1968     849.3378     888.4106     77.75829     156.1384     311.9974      1.701     4.37     852.5135     55.02745     96.72064         6     0.968     0.562 -89.13   0
        71    976.1871    912.7197 307.5037223  +6.3291453     1192.344     2213.482     2459.182      77.8828       155.89     312.0284      2.059     6.27     849.9484     55.02745     153.7049        20     1.414     1.048  47.86   0
        72    609.2668    913.7039 307.6560529  +6.3165709      773.964     1176.992     1037.476     78.25515     156.2004     312.2147      1.619     5.71     855.5297     55.02745     110.2277         9     1.346     0.741  64.66   0
        73    530.0640    913.2161 307.6889574  +6.3141398     1268.938     1700.746     1924.603     77.75829     156.0142     312.0595      1.290     3.64     856.0878     55.02745     194.7596        13     1.230     0.686  55.26   0
        74    663.6190    910.7239 307.6335827  +6.3196064     2554.529     3714.323      3672.52     77.75829       155.89     312.1216      1.614     3.84      854.937     55.02745     339.7242        19     1.340     0.826  60.77   0
        75     60.1445    907.1183 307.8842832  +6.3009962     3155.543     4960.562     5256.185     78.25514     156.1384     312.2147      1.685     3.88     849.2346     55.02745     410.7149        28     1.576     1.010  61.35   0
        76    824.2919    906.8167 307.5669932  +6.3265503     844.8374     1476.534     1764.985     78.00711     155.9521     312.0905      1.925     5.74     852.5245     55.02745     126.7319        12     1.279     0.725  59.43   0
        77     77.6526    906.3369 307.8770398  +6.3019035     2008.056     2978.696     2915.934     78.25515     156.0763     312.1526      1.636     4.14     849.4291     55.02745     273.7966        20     1.377     0.918  61.50   0
