#   1 NUMBER                 Running object number                                     
#   2 X_IMAGE                Object position along x                                    [pixel]
#   3 Y_IMAGE                Object position along y                                    [pixel]
#   4 ALPHA_J2000            Right ascension of barycenter (J2000)                      [deg]
#   5 DELTA_J2000            Declination of barycenter (J2000)                          [deg]
#   6 FLUX_APER              Flux vector within fixed circular aperture(s)              [count]
#   9 FLUXERR_APER           RMS error vector for aperture flux(es)                     [count]
#  12 FLUX_RADIUS            Fraction-of-light radii                                    [pixel]
#  13 FWHM_IMAGE             FWHM assuming a gaussian core                              [pixel]
#  14 BACKGROUND             Background at centroid position                            [count]
#  15 THRESHOLD              Detection threshold above background                       [count]
#  16 FLUX_MAX               Peak flux above background                                 [count]
#  17 ISOAREA_IMAGE          Isophotal area above Analysis threshold                    [pixel**2]
#  18 A_IMAGE                Profile RMS along major axis                               [pixel]
#  19 B_IMAGE                Profile RMS along minor axis                               [pixel]
#  20 THETA_IMAGE            Position angle (CCW/x)                                     [deg]
#  21 FLAGS                  Extraction flags                                          
         1    187.7863     17.1650 307.8653788  +6.6681794     5611.985     13861.04     16674.15     90.50244     181.5118     363.2043      2.541     5.98     1174.662     64.04614      610.667        66     2.242     1.639 -39.94   0
         2    932.9299     14.6380 307.5555358  +6.6940845     2863.458     5615.781     6275.844     90.93651     181.7286     363.4211      2.129     4.74      1135.38     64.04614     357.4233        37     1.759     1.244 -37.11   0
         3    531.6844     15.2694 307.7224093  +6.6804603      1662.26     3698.026     4039.681     91.36852     182.0173      363.385      2.354     7.56     1148.364     64.04614      201.877        26     1.721     1.243 -15.31   0
         4    733.7365     13.6114 307.6384245  +6.6878814     1139.133     2738.869      3678.86     90.50244     181.5118     363.1682      2.432     8.43     1141.152     64.04614     138.7605        23     1.920     1.034 -32.83   0
         5    469.5363     14.1760 307.7482957  +6.6788370     1013.672     2045.828     1737.903     90.64736     181.7286     363.2766      2.171     6.79     1151.262     64.04614     103.6548        13     1.256     1.030  31.95   0
         6    997.8430     10.8680 307.5286625  +6.6977981      1483.06     2942.286     2881.834     91.08073     181.6564     363.4211      2.005     6.80     1125.826     64.04614     191.3503        18     1.475     0.983 -57.60   0
         7    717.2802      7.5074 307.6454764  +6.6898540     4450.943     9749.471     11737.28     90.79205     182.0173      358.695      2.371     5.42     1142.411     64.04614     480.0317        48     1.957     1.447 -35.39  16
         8    637.5698      6.8474 307.6786537  +6.6874703      2104.65     4732.213     5922.318     90.64736     181.8008     353.2747      2.478     7.60     1147.016     64.04614     261.3479        36     2.134     1.334 -35.28  16
         9    437.7206      3.3946 307.7618953  +6.6822266      3317.89     7696.398     8581.392     90.64736      173.526     309.2096      2.352     6.48      1154.63     64.04614     338.9003        44     2.064     1.396 -28.12  24
        10     38.6804      3.2197 307.9278684  +6.6689399     5024.211     10540.54     11484.07     90.64736     171.9302     306.7376      2.207     5.33     1179.305     64.04614     638.2271        44     1.976     1.317 -25.58  24
        11    332.7174      1.1724 307.8056446  +6.6796344     1503.961     2132.557     2574.378     76.51303     141.4362     270.1017      1.490     3.74     1164.417     64.04614     375.2592         9     1.347     0.376  -1.35  24
        12    524.6276    999.8615 307.6919147  +6.2736170     941.6693     1488.936     1431.094     90.64736     181.8008     363.3127      1.903     4.05     1211.684     64.04614     131.6864         8     0.887     0.677  30.69   0
        13    726.4155   1022.9224 307.6072691  +6.2708161     5552.536     8290.104     8958.606      88.0023     156.6711     286.9725      1.593     4.85     1207.257     64.04614     767.3518        28     1.738     0.840 -18.50  24
        14    718.4613   1022.7208 307.6105817  +6.2706347     965.7988     1967.754      2379.97     90.21191     159.7409     290.7892      2.209     5.76     1207.177     64.04614       146.48        13     1.530     0.840 -12.56  25
        15    594.3318   1023.6494 307.6621388  +6.2661169     3151.957     4781.949     5545.827     79.37589     144.6479     273.6742      1.636     4.12     1210.739     64.04614     761.3141        20     1.824     0.594   1.12  25
        16    582.3734   1022.4024 307.6671509  +6.2662334     3248.995     5598.058     6271.322     90.50244     164.0382     296.1122      1.892     5.90     1211.238     64.04614     367.4565        28     1.812     0.960 -21.42  24
        17    441.3275   1023.0008 307.7257486  +6.2612820     2378.192     3796.122     4329.265     87.25333     155.3248     285.6889      1.663     5.59     1213.143     64.04614     359.7462        20     1.655     0.768 -23.15  24
        18    819.9473    997.5374 307.5692551  +6.2844112      978.313     1777.994     1995.906     91.08073     181.6564     363.3127      1.801     5.23     1204.295     64.04614     127.3821        12     1.480     0.639 -29.23   0
        19    428.8220    997.4052 307.7318150  +6.2714348     603.5948     1024.364     998.9189     90.64736     181.4395      363.132      1.613     3.54      1212.33     64.04614     98.22754         5     0.784     0.461 -15.49   0
        20      2.2355    997.5096 307.9090942  +6.2571223     587.6567     614.8824     974.9139     90.06628     159.1647     290.2471      1.132     4.36     1213.088     64.04614     103.5481         6     1.113     0.487   6.45  24
        21    920.1777    991.5518 307.5277996  +6.2902144     7879.523     13378.49      14594.3     90.64736     181.7286     363.2043      1.841     4.05     1201.065     64.04614     1107.973        45     1.860     1.082 -30.32   0
        22    551.7450    990.9769 307.6809459  +6.2781903     6197.728     11560.12     13562.76     90.64736     181.7286      363.132      2.033     4.98     1210.926     64.04614     752.3698        44     1.975     1.101 -35.94   0
        23    893.7914    987.7632 307.5388944  +6.2909024     10785.22      18607.9     20991.96      90.2119     181.4395     363.0597      1.895     4.20     1201.754     64.04614     1604.308        54     1.981     1.135 -27.00   0
        24    606.7965    988.2317 307.6581590  +6.2811590     1102.221     2068.818     2283.436     90.35728     181.5118     363.0959      2.237     6.82     1208.708     64.04614     151.2434        16     1.548     0.842 -51.60   0
        25   1015.5513    987.1230 307.4883093  +6.2952102     4445.789     7167.759      7440.92     90.93651     181.8008     363.3488      1.697     3.91      1199.29     64.04614     676.0229        27     1.660     0.834 -30.50  16
        26    538.2614    986.8189 307.6866908  +6.2794579     3108.403     6049.975      6762.31     90.64736     181.6564     363.2043      2.063     4.78     1210.968     64.04614     394.9807        33     1.716     1.132 -24.53   0
        27    647.2552    986.1517 307.6414144  +6.2833659     1217.924     2077.312     2081.986     91.08073     181.7286     363.4572      1.870     6.76     1207.231     64.04614     157.4968        16     1.539     0.832 -44.32   0
        28    491.4102    983.2220 307.7062846  +6.2793807     1600.863     2974.806     3042.256     90.64736     181.4395     363.1682      1.966     5.88     1210.893     64.04614     198.1969        20     1.697     0.966 -29.09   0
        29    925.6038    975.2692 307.5260946  +6.2971191     38661.45     65073.04     71886.96     90.35728     181.2947     363.0959      1.826     4.13      1199.89     64.04614     5617.292        77     1.984     1.170 -32.56   0
        30    233.2920    973.7679 307.8138800  +6.2746630     1282.818     2225.381     3216.406     91.22474     181.5118      363.385      2.038     3.90      1212.76     64.04614     214.2941        13     1.221     0.733 -22.77   0
        31      1.5996    974.4635 307.9101443  +6.2666179     712.4083      779.246      642.788     82.45802       148.94     278.2877      0.934     2.73     1212.232     64.04614     169.8961         5     0.720     0.464  19.50  24
        32    631.8463    971.4831 307.6483157  +6.2889104     785.3475      1372.55     1726.279     91.08073     181.7286     363.3488      1.667     3.59     1207.332     64.04614     135.4722         6     0.999     0.452 -56.78   0
        33    823.2971    969.2102 307.5688212  +6.2962212     1974.147     3325.749     3158.756     90.79205     181.2947     363.1682      1.815     4.76     1202.486     64.04614      243.114        19     1.538     0.795 -36.12   0
        34    771.8243    966.8495 307.5902946  +6.2954841     5398.921     9585.091     11377.73     90.64736     181.8008     363.2404      1.978     4.42     1203.484     64.04614     773.8319        38     1.981     0.950 -34.66   0
        35    558.2216    967.0755 307.6790648  +6.2882769     762.1299     1507.069     2006.404     90.64736     181.5118     363.2766      2.115     5.08      1209.37     64.04614     114.3213         7     1.300     0.778 -44.49   0
        36    241.5764    966.0471 307.8106997  +6.2781285     1088.805     2092.017     2861.578     90.64736     181.7286     363.2043      2.458     7.25     1212.819     64.04614      136.451        16     1.683     0.874 -30.93   0
        37    206.1398    966.1990 307.8254218  +6.2768804      627.491       1198.1     1127.283     90.35728     181.5118     362.9874      1.836     5.48     1212.552     64.04614     86.36646         6     1.314     0.645 -81.61   0
        38     66.5545    964.4614 307.8834913  +6.2729250      1865.96     3847.636     4551.042     90.93651     181.5841     363.4572      2.339     6.09     1212.114     64.04614     242.6339        29     1.896     1.099 -17.85   0
        39    959.9669    962.0476 307.5122589  +6.3037207     5998.982     9934.036     10146.66     90.79205     181.7286     363.2766      1.731     4.22     1198.801     64.04614     889.1694        32     1.811     0.888 -30.83   0
        40    641.9886    956.8362 307.6445967  +6.2952971     677.1223     1108.818     699.0448     90.50244     181.5118     363.0236      1.594     3.77     1206.711     64.04614     101.4069         5     0.816     0.499  59.99   0
        41    933.4603    953.7183 307.5235575  +6.3062802     1925.473      3182.51     3027.911     91.22474     181.7286      363.385      1.699     5.43     1198.581     64.04614      272.569        19     1.674     0.780 -28.00   0
        42    266.7912    950.1382 307.8007616  +6.2855414      3044.68     5988.118     6573.302     90.35728     181.5841      363.132      2.104     5.69      1212.86     64.04614     355.6451        36     1.940     1.168 -30.77   0
        43    654.5869    949.7121 307.6396019  +6.2986588     3629.809     6811.415     6691.263     90.64736     181.5118     363.2043      2.006     5.16     1206.286     64.04614     436.5878        37     1.924     1.179 -29.92   0
        44    793.4247    949.9312 307.5818893  +6.3031896     1251.048     1957.225     2233.747     90.64736     181.5841     363.2766      1.816     6.28     1202.024     64.04614      145.255        14     1.432     0.774 -33.17   0
        45    475.9973    948.8933 307.7138555  +6.2930432     736.6048     1439.323     1454.417     90.64736     181.3671     362.9874      1.948     4.56     1209.694     64.04614      126.692         7     1.138     0.520 -36.46   0
        46     35.3837    947.5513 307.8970218  +6.2788638     1643.467     3242.057     3611.878     90.50244     181.8008     363.0236      2.036     5.38     1211.536     64.04614     216.8821        21     1.668     1.069 -49.63   0
        47    579.2184    942.0858 307.6711856  +6.2992970     1242.461     2299.336     2335.106     90.64736     181.4395     363.2404      1.918     6.79     1207.537     64.04614     161.0072        15     1.552     0.833 -37.70   0
        48    302.4154    943.3711 307.7861861  +6.2895269     551.2615     1161.825     1966.454     90.64736     181.4395     363.2404      2.092     5.04     1212.507     64.04614     86.99304         5     1.360     0.528 -44.71   0
        49    957.3831    943.3951 307.5139630  +6.3113381     783.3501     1269.793     995.7432     90.64736     181.3671     363.1682      1.424     4.07     1197.868     64.04614     112.3947         7     1.004     0.471  -8.48   0
        50   1010.7861    941.8200 307.4918196  +6.3137616     603.7931     1319.878     1399.029     90.79205     181.4395     363.2404      2.219     3.49     1197.594     64.04614     87.58704         5     1.021     0.345 -44.05   0
        51    618.5419    938.5519 307.6549615  +6.3020669     903.6216     1497.744     1333.086     91.08073     181.7286     363.4933      1.629     4.83     1206.627     64.04614     114.4513         7     1.004     0.658  39.81   0
        52    298.3080    936.1293 307.7881394  +6.2923803     990.5883     2001.648     2670.962     90.93651      181.873      363.385      2.527     6.04     1212.458     64.04614     141.0095        12     1.496     0.686 -31.99   0
        53    765.3878    932.1231 307.5941452  +6.3096113     814.7171     1249.941      1552.21     90.64736     181.2947      363.132      1.838     5.70     1201.643     64.04614     121.6978        10     1.134     0.807 -17.46   0
        54    902.6585    928.8480 307.5372005  +6.3155280      6107.23     10281.02     11521.87     91.08073     181.7286     363.4572      1.828     4.10     1197.959     64.04614     903.7168        36     1.827     0.961 -29.75   0
        55    833.6847    929.9870 307.5658305  +6.3127651     1407.266     980.9409     410.0587     90.64736     181.5841     363.1682      0.781     1.49      1199.87     64.04614     543.9984         5     0.641     0.415  64.64   0
        56    438.5150    926.1909 307.7302048  +6.3011678     1597.512     3146.905     3424.264     90.64736     181.3671     363.1682      2.174     6.21     1209.439     64.04614     186.2917        23     1.645     1.062 -36.82   0
        57    340.2906    924.7319 307.7710784  +6.2984900      6991.74     13426.32     14930.78     91.22474      181.873     363.3488      2.110     4.97     1210.848     64.04614     762.7789        50     2.034     1.220 -32.15   0
        58    260.3900    923.6909 307.8043217  +6.2962492     4909.486     9614.523     10713.45     90.79205     181.2947     363.0959      2.154     5.20      1212.54     64.04614     574.3718        46     2.105     1.210 -34.89   0
        59    588.0671    918.3013 307.6683144  +6.3094144     1030.357     1794.979     1930.094     91.08073      181.873     363.3488      2.008     4.46     1206.099     64.04614     156.7094         9     0.942     0.814  49.80   0
        60    918.1010    914.1644 307.5312782  +6.3221052     817.8979     1525.444     1875.576     91.08073     181.5841     363.5656      2.236     5.72     1196.778     64.04614     118.5936         9     1.269     0.725 -39.45   0
        61    755.1310    906.8826 307.5992628  +6.3196938     1441.549      2510.69     3336.957     91.36851     182.0173      363.385      2.132     6.70     1200.837     64.04614     171.6238        16     1.379     0.914 -42.91   0
        62    986.3492    902.8513 307.5032929  +6.3290439         1071     1730.968     2421.733     91.08073     181.5841     363.2766      1.774     4.68     1194.888     64.04614     160.3219         9     1.146     0.641 -35.75   0
        63    539.4590    903.5158 307.6890191  +6.3138999     902.3524     1405.747     1254.679     91.08073     181.8008     363.4211      1.854     6.03      1207.04     64.04614     121.7883        11     1.235     0.828 -36.30   0
        64      5.6573    903.9871 307.9108613  +6.2958576     698.9634     1455.312     1398.864     90.35728     181.5841     340.4461      2.282     4.53     1210.287     64.04614     87.94678         6     0.878     0.663 -55.98  16
        65    673.4956    900.5042 307.6334102  +6.3196104     1950.506     3689.026     3315.166     91.08073     182.4495     363.1682      1.975     6.21     1203.515     64.04614     234.6035        25     1.798     1.048 -26.70   0
        66     70.0215    896.8617 307.8843542  +6.3009571     2050.901     4122.111     4423.673     90.64736     181.7286     363.2404      2.055     5.61     1210.567     64.04614      233.811        28     1.705     1.089 -27.35   0
        67    213.4088    895.8256 307.8247959  +6.3061853     1534.682     2898.331     3188.627     90.64736     181.5118     363.2043      2.037     5.60     1212.014     64.04614     188.2535        16     1.362     0.961 -29.61   0
        68     87.0900    896.3178 307.8772790  +6.3017535     1406.472     2695.761     2998.222     90.79205     182.0173     363.4211      2.068     5.60     1210.643     64.04614     166.9948        16     1.256     0.898 -24.36   0
        69    950.5769    895.9650 307.5183945  +6.3307000     641.6919     1063.358      719.968     90.50244     181.4395     363.0959      1.762     3.98      1195.11     64.04614     95.53418         5     1.367     0.331 -39.82   0
        70    667.8702    889.6646 307.6361156  +6.3238996     5248.205     9552.565     10598.21     91.08073     181.8008     363.3488      2.009     4.74      1202.71     64.04614     612.9988        42     1.899     1.136 -34.54   0
        71    247.5376    892.0237 307.8107407  +6.3088969     629.0842     1050.565     833.5051     90.64736     181.7286     363.2404      2.039     3.95     1212.038     64.04614     102.8881         5     1.383     0.322 -39.08   0
        72    805.2018    890.1644 307.5790167  +6.3282639     634.7605      1214.77     1534.943     90.06628     181.5118      363.132      1.796     4.63     1198.851     64.04614     110.0685         6     1.114     0.545 -19.60   0
        73     27.9251    888.6125 307.9021310  +6.3029531     931.2324     1916.083     1937.635     90.50244     181.3671      363.132      2.028     6.71     1210.162     64.04614     172.7876        11     1.628     0.776 -41.89   0
        74    905.6392    885.6708 307.5374212  +6.3334585     2337.948     3896.565     3888.259     90.93651     181.7286     363.4211      1.766     5.12      1195.65     64.04614     348.9854        23     1.716     0.815 -26.55   0
        75    351.0131    882.9399 307.7680424  +6.3161071     10771.86     22604.88     26834.47     90.35728     181.6564     362.9874      2.290     5.08     1210.034     64.04614     1146.217        70     2.149     1.450 -30.99   0
        76     41.4138    886.0513 307.8966123  +6.3044628     765.1802     1447.492       1596.7     90.35728     181.7286     363.0597      1.960     5.56     1210.163     64.04614     111.7302         8     1.361     0.639 -11.07   0
        77     86.1679    884.2412 307.8780737  +6.3067097     934.0153     1960.402     1654.408     90.64736     181.6564     363.2043      2.108     5.87     1210.306     64.04614     128.8907        13     1.438     0.740 -49.82   0
