#   1 NUMBER                 Running object number                                     
#   2 X_IMAGE                Object position along x                                    [pixel]
#   3 Y_IMAGE                Object position along y                                    [pixel]
#   4 ALPHA_J2000            Right ascension of barycenter (J2000)                      [deg]
#   5 DELTA_J2000            Declination of barycenter (J2000)                          [deg]
#   6 FLUX_APER              Flux vector within fixed circular aperture(s)              [count]
#   9 FLUXERR_APER           RMS error vector for aperture flux(es)                     [count]
#  12 FLUX_RADIUS            Fraction-of-light radii                                    [pixel]
#  13 FWHM_IMAGE             FWHM assuming a gaussian core                              [pixel]
#  14 BACKGROUND             Background at centroid position                            [count]
#  15 THRESHOLD              Detection threshold above background                       [count]
#  16 FLUX_MAX               Peak flux above background                                 [count]
#  17 ISOAREA_IMAGE          Isophotal area above Analysis threshold                    [pixel**2]
#  18 A_IMAGE                Profile RMS along major axis                               [pixel]
#  19 B_IMAGE                Profile RMS along minor axis                               [pixel]
#  20 THETA_IMAGE            Position angle (CCW/x)                                     [deg]
#  21 FLAGS                  Extraction flags                                          
         1    718.7355     17.4108 307.6452637  +6.6898702     7209.712     11127.91     11629.92     81.50971      163.476     327.1473      1.669     3.96     927.6295     57.68223     912.7584        35     1.589     0.999  68.57   0
         2    638.7997     16.6636 307.6785024  +6.6875005     3440.662     5378.023     5607.849     81.24805     163.4108     326.9845      1.658     3.99     929.6406     57.68223     479.6467        23     1.509     0.888  72.70   0
         3    341.1068     15.9322 307.8022157  +6.6778089     865.6088      1346.43     1089.578     81.90065     163.8663     327.2774      1.688     6.37     946.4411     57.68223     112.0234        14     1.463     0.779  85.65   0
         4    439.1261     12.8860 307.7615929  +6.6823603     5857.021     9501.919     10000.56     82.16024     163.9962     327.2449      1.735     3.87     936.0283     57.68223     678.0457        32     1.474     1.104  67.70   0
         5    686.1948     11.6652 307.6589778  +6.6911521     721.7351     1243.635     1042.313     81.50971     163.3457     327.0171      1.872     5.78     928.4924     57.68223     101.7816         9     1.521     0.618  83.42   0
         6    514.6573      9.9547 307.7303092  +6.6861063     920.1842      1358.08     1590.275     82.03055     163.6712       327.31      1.721     6.01     931.3505     57.68223     135.1669        11     1.237     1.014 -86.01   0
         7    335.6766      7.8674 307.8047442  +6.6809556     11848.87     19699.55     20796.33     82.16024     163.7363     325.0904      1.786     4.01     946.9398     57.68223     1352.025        46     1.594     1.251  69.57  16
         8    109.1719      8.0780 307.8988443  +6.6732438     2477.634     4260.719     4758.526     81.90065     163.6712     326.0388      1.856     4.44     950.2787     57.68223     299.3832        23     1.430     1.030  69.16  16
         9    100.6294      7.1173 307.9024259  +6.6733524     1418.901     2604.357     3269.945     81.90065      163.476     320.2398      1.990     5.11     950.1898     57.68223     179.2117        18     1.392     0.906  74.00  16
        10     40.1002     12.4705 307.9273924  +6.6691019      8132.15     13236.87     13923.45     81.90065     163.8013     327.2774      1.761     3.99     952.1472     57.68223     965.5032        37     1.585     1.101  69.77   0
        11    402.0108      5.9003 307.7772496  +6.6839972     2007.638     3536.861     3254.522     81.77055     163.2805     309.2456      1.872     4.41     940.3406     57.68223     257.4902        26     1.561     1.017  72.30  16
        12    803.9394      6.2207 307.6102371  +6.6973420     932.7028     992.4372     753.6978     81.64024     163.6062     312.6696      1.391     4.56      925.958     57.68223     127.1987         8     0.990     0.596  62.90  16
        13    470.4952      6.3486 307.7487798  +6.6861125     674.5364     896.8851     1257.528     81.90065     163.6062     313.9949      1.505     5.08     932.4237     57.68223     104.9428         7     0.992     0.737 -49.43  16
        14    996.8669      2.8535 307.5301855  +6.7051810     696.8567     1019.623     528.8569     82.03055     151.0173     270.8093      1.461     5.19     916.5222     57.68223     112.0826         9     1.241     0.614  70.72  24
        15    828.0979      1.9285 307.6003431  +6.6999221     1194.267     1761.462     1856.893     78.17593     139.2808     256.1819      1.487     4.31     924.9877     57.68223     209.2504        12     1.205     0.892  35.68  24
        16    662.8045      2.0918 307.6690187  +6.6943205     9187.215     11648.37     11732.56       79.258     141.1035     258.5811      1.364     3.25     928.7824     57.68223     1327.089        23     1.145     0.960  27.32  24
        17    540.4694      1.9736 307.7198532  +6.6902672     1049.684      1393.74     1354.388     78.44784     139.5862     256.8874      1.363     4.47     931.3394     57.68223     181.3337         9     0.969     0.745  82.32  24
        18     80.4362      1.6824 307.9109995  +6.6749153     740.2013     1293.828     1269.111     75.82527     135.5618     252.2027      1.723     5.34      950.373     57.68223     109.6532         9     1.156     0.696   4.75  24
        19    262.6874      1.0939 307.8352987  +6.6812966     678.5578       907.74     1021.021     68.13344     126.4597     242.1665      0.976     2.64     950.4854     57.68223     193.6204         5     0.902     0.290   2.31  24
        20    539.0656    996.8484 307.6869422  +6.2795073     4177.187     6435.005     6670.707     81.90065     163.5411     327.2774      1.612     3.85     968.9988     57.68223     636.7205        27     1.441     1.003  55.05   0
        21    966.6995   1022.7127 307.5085313  +6.2831361     6618.922     8806.094     9080.599     81.24805     144.3854     262.0983      1.468     3.62     958.3286     57.68223     965.4948        25     1.286     0.950  36.28  24
        22    726.6530   1021.3929 307.6082368  +6.2756576     3077.059     4538.487      4359.45     81.50971     158.5831     281.5271      1.584     3.86     965.4421     57.68223     481.8786        22     1.427     0.823  63.94  24
        23    720.8554   1023.2436 307.6105817  +6.2746996     798.1591     1038.156     1544.656     76.38487      136.423     253.2979      1.304     3.21     965.5054     57.68223     152.9275         7     0.877     0.556  57.17  24
        24    449.7060   1022.2032 307.7231877  +6.2660430     975.5779     1315.769      1134.66     81.77055     150.1689     269.6667      1.488     5.54      971.301     57.68223     134.8904        12     1.295     0.925  30.10  24
        25    251.1377   1022.8709 307.8056005  +6.2590983     1323.019     1798.419     1580.691     80.19283     141.9311     259.4854      1.512     5.41     972.2324     57.68223     201.1566        14     1.321     0.760  45.47  24
        26    648.8804    996.2964 307.6413689  +6.2834148     1384.943      1843.74     2302.604     81.77055     163.9312     327.3425      1.541     4.25     965.4974     57.68223     240.1273        14     1.309     0.726  77.96   0
        27     73.7597    995.1469 307.8801734  +6.2645749     829.4514     1309.863      1532.18     81.90065     163.6712     327.2449      1.884     5.20     973.3472     57.68223     117.2626         8     1.152     0.692  66.03   0
        28    492.3188    993.4948 307.7064629  +6.2793243     2365.676     3587.074     4008.673     81.77055     163.9312     327.3425      1.630     3.83     970.0911     57.68223     305.6077        19     1.332     0.822  71.92   0
        29    926.7462    985.5162 307.5263655  +6.2971582     46690.32     69859.59     73722.44     82.03055     163.6712     327.4075      1.635     3.88     958.7223     57.68223     6641.011        62     1.583     1.126  65.26   0
        30      1.0842    986.0621 307.9106508  +6.2658769     650.4511     943.1554     792.8273     67.82018     125.9535     241.9465      1.163     3.26     973.9155     57.68223     202.4601         6     1.263     0.244  83.86  24
        31    234.1787    983.6121 307.8139655  +6.2747350     1751.833     2603.445     2260.149     81.64024     163.4108     327.1147      1.627     3.95     972.0806     57.68223     253.7412        18     1.295     0.908  77.99   0
        32    121.9667    983.0787 307.8605683  +6.2711800     655.9079     887.4538     440.0958     81.90065     163.6712     327.2449      1.533     5.26     972.7237     57.68223     112.3643         7     1.302     0.627  71.43   0
        33    772.8904    977.2758 307.5905210  +6.2954178      7082.88     10823.92     11745.08     82.03055     163.9312     327.2774      1.673     3.92     963.3467     57.68223     1054.577        36     1.614     1.073  85.27   0
        34    633.0260    981.5608 307.6484464  +6.2889672     941.0388     1313.196     1017.191     81.64024      163.476     327.0822      1.520     5.49     965.5983     57.68223     146.0544        12     1.081     0.864  42.36   0
        35    824.6691    979.3191 307.5689546  +6.2963057     2343.251     3397.516     3473.222     82.28973     163.9312     327.2774      1.614     3.86     961.9691     57.68223     318.2532        19     1.330     0.868  69.97   0
        36    559.6315    976.5983 307.6790850  +6.2885566     1047.721     1333.623     1913.477     81.37898      163.476     327.0171      1.534     5.01     967.5869     57.68223     123.2671        15     1.326     0.797  68.67   0
        37    242.2135    976.0119 307.8108862  +6.2781427     1527.348     2183.187     1831.977     81.90065     163.3457     327.1798      1.504     4.29     972.0472     57.68223     250.2981        13     1.230     0.700  65.89   0
        38    207.0705    976.7360 307.8254516  +6.2766619     837.3644     1378.746      1163.69     82.03055     163.6712     327.2449      1.515     4.51     972.1591     57.68223     151.2064         7     0.977     0.592  16.22   0
        39     67.3853    974.3043 307.8835240  +6.2729644     2704.338     4220.066     3994.835     81.77055     163.4108     327.0171      1.684     4.25     973.0061     57.68223     365.4402        20     1.368     0.894  69.87   0
        40    961.0440    972.2674 307.5125692  +6.3037732     7213.109     10975.13     11409.46     82.03055     163.6062     327.2774      1.622     3.73     957.4061     57.68223      950.369        32     1.474     0.993  65.12   0
        41    217.4581    968.7885 307.8214074  +6.2802922     685.7491     1229.515     1305.815     81.37898     163.6062     326.9519      1.611     4.61     972.0811     57.68223     140.4875         7     1.384     0.437  55.28   0
        42    643.3145    966.8304 307.6446699  +6.2953930     759.8926     992.4821     1015.841     82.03055      163.476     327.1147      1.378     4.68     965.2098     57.68223     126.9559         8     1.273     0.489  60.15   0
        43    934.8653    964.0781 307.5237129  +6.3062799     2117.075      3415.96     3635.444     82.16024     163.7363     327.2123      1.719     4.55     957.8334     57.68223     324.8387        18     1.465     0.830  73.01   0
        44    267.7725    960.1523 307.8008102  +6.2855491      4517.21     6860.721     7073.913     81.64024     163.7363     327.1798      1.630     3.98     971.9305     57.68223     658.2468        29     1.558     0.951  71.12   0
        45    794.2181    960.4910 307.5822293  +6.3030605     1322.895     1873.807      1440.94     81.77055     163.4108     327.1147      1.597     4.53     962.3154     57.68223     178.0734        15     1.390     0.834  60.86   0
        46    655.5816    959.8480 307.6398114  +6.2986864      4652.88     6991.514     7066.691     81.50971     163.6712     327.0496      1.561     3.78     964.8276     57.68223     623.1702        24     1.372     0.907  69.85   0
        47   1004.8489    960.0883 307.4947894  +6.3102635      763.127     1105.672     858.8337     82.03055     163.5411     327.3425      1.549     4.41     956.1504     57.68223     119.5526         7     0.976     0.567  78.82   0
        48    477.8231    958.2705 307.7136667  +6.2933797       1168.2     1670.553     1742.483     81.64024     163.5411     327.2123      1.622     6.03     968.9088     57.68223     165.1949        14     1.487     0.688  82.71   0
        49     36.4284    957.3255 307.8969496  +6.2789307     2274.986     3348.745     2932.481     81.90065     163.6712     327.1798      1.621     4.00     972.8635     57.68223     299.1617        19     1.292     0.879  68.72   0
        50    887.1786    956.4701 307.5437673  +6.3078279     1009.521     1369.461     1409.459     81.64024     163.5411     327.2123      1.512     4.99     959.1024     57.68223     155.4791         9     1.232     0.572  71.99   0
        51    958.8776    953.8506 307.5140857  +6.3113041     803.6904      1087.25     329.7614     82.03055     163.7363     327.2449      1.464     5.19     957.0405     57.68223     143.1586         9     1.187     0.642  75.31   0
        52   1011.4575    952.3491 307.4923046  +6.3136791     859.5632      1655.68     1431.784     82.03055     163.6712     327.2449      1.987     6.03     955.9381     57.68223      153.793        12     1.645     0.622 -87.15   0
        53    979.6443    954.1042 307.5054548  +6.3118927     640.2513     939.9496     671.4673     82.03055     163.6062      327.375      1.359     4.53     956.6032     57.68223     99.26703         6     0.953     0.611  20.78   0
        54    580.3057    952.4821 307.6713126  +6.2992055     1765.926     2673.008      2377.29     81.77055     163.9962      327.375      1.636     4.35     966.3973     57.68223       246.42        16     1.430     0.695  66.34   0
        55    303.6158    953.7522 307.7861451  +6.2893959      948.633     1557.751     2091.436     81.50971     163.6712     326.9845      1.687     4.60     971.7083     57.68223     147.4532         8     0.963     0.624  73.46   0
        56    619.4985    948.5448 307.6551726  +6.3021442     1341.181     1923.602     1996.228     81.90065     163.6712     327.5051      1.614     3.98     965.5428     57.68223     195.3849        16     1.267     0.861  86.13   0
        57     69.2647    949.1839 307.8835928  +6.2833978     711.5529     1141.762     1439.641     81.50971     163.5411     327.1147      1.525     4.69     972.4951     57.68223      102.834         8     1.150     0.542  72.14   0
        58    299.1962    946.3966 307.7882281  +6.2922840     1315.144      2004.74      2692.08     81.37898     163.2152     327.0496      1.834     5.34     971.6937     57.68223     172.2234        10     1.290     0.624  79.08   0
        59    567.6777    944.7519 307.6768155  +6.3019736     753.9168      863.657     633.7544     82.03055     163.7363     327.1798      1.492     5.04     966.4495     57.68223     114.0229         8     1.131     0.634  -7.86   0
        60    766.0376    942.3923 307.5945372  +6.3095898     884.9912     1248.095     779.6585     81.24805     163.4108     326.9845      1.548     5.80     962.4445     57.68223     129.5256        11     1.256     0.755  66.26   0
        61    903.7906    939.1785 307.5374497  +6.3155216      7369.29      10848.8     11006.73     81.64024     163.4108     327.0496      1.555     3.79     957.9913     57.68223     1050.066        30     1.453     0.944  67.54   0
        62    439.4990    936.1370 307.7303233  +6.3012311     2214.495     3216.319     3292.451     81.77055     163.7363     327.2774      1.543     5.65     969.5386     57.68223     315.8096        19     1.575     0.812  64.16   0
        63    341.3169    934.6525 307.7711366  +6.2985475     9711.989     14714.55     15943.05     82.03055     163.6712     327.3425      1.664     3.88        971.2     57.68223     1262.407        41     1.606     1.023  66.13   0
        64    112.8096    938.1479 307.8658877  +6.2894200     456.1668     428.5961     232.3646     81.37898     163.5411     326.9845      1.110     3.42     972.1074     57.68223     88.48578         5     1.010     0.334  45.93   0
        65    261.4207    933.5698 307.8043440  +6.2963095      7308.33     11031.31     11378.88     81.50971      163.476     327.1473      1.643     4.01     971.8201     57.68223     999.5408        29     1.478     0.955  64.44   0
        66    179.9625    932.1163 307.8382120  +6.2941700     532.2027     616.4338     598.1284     82.03055     163.6062     327.1798      1.313     3.80     971.8864     57.68223      91.4425         5     0.806     0.514  56.14   0
        67    773.8312    928.0432 307.5917829  +6.3157743     636.5186     806.7019     1179.623     81.64024     163.6062     327.0822      1.627     5.20     961.8074     57.68223     96.49414         8     1.436     0.533  72.08   0
        68    589.5729    928.0146 307.6682877  +6.3096171     1086.761     1822.671     2211.913     81.64024     163.5411     327.1473      1.764     3.54     965.7756     57.68223     195.6104        11     1.198     0.672  65.73   0
        69    919.3884    924.1578 307.5314769  +6.3222438     1238.656     1777.387     2320.807     81.37898      163.476     326.9519      1.674     6.05      957.103     57.68223     188.4006        15     1.454     0.752  55.95   0
        70    876.2694    924.5416 307.5493674  +6.3206447     568.0304      789.687     709.6489     82.16024     163.6712     327.2123      1.213     3.85       958.42     57.68223     130.0682         5     0.866     0.491 -49.02   3
        71    875.0190    922.0345 307.5499706  +6.3216380     744.8759     1144.806     914.8149     81.50971      163.476     327.0171      1.609     5.42     958.3679     57.68223     101.4772        10     1.114     0.801 -19.75   2
        72    986.9263    920.2781 307.5035642  +6.3261006       837.96     1116.547     998.3841     82.28973     163.9312     327.2774      1.540     5.81     955.6547     57.68223     124.2697        10     1.105     0.859 -64.57   0
        73    755.9539    917.6234 307.5995554  +6.3194780     1850.401     2698.696     2813.458     81.64024     163.6712     327.1147      1.543     3.98      961.934     57.68223     272.5115        16     1.236     0.842  75.52   0
        74    631.5984    913.5519 307.6513250  +6.3169958     770.0623     1383.337     1640.892     81.37898     163.2805     326.8217      1.923     4.83        964.6     57.68223      133.194         8     1.415     0.646 -88.47   0
        75    619.8424    914.0491 307.6561894  +6.3163967     778.8591     1078.035      771.783     82.03055     163.6062     327.2123      1.643     4.72     964.8881     57.68223     105.3086         8     1.167     0.542  75.88   0
        76      6.4665    914.6443 307.9108317  +6.2955406     984.9127     1563.177     1488.609     82.03055     163.6062     314.9767      1.844     2.97     972.3069     57.68223     140.4479         9     0.930     0.658  57.49  16
        77    987.2352    913.1316 307.5036753  +6.3290613     1298.072     1820.366     1681.665     81.90065     163.7363     327.3425      1.570     4.16     955.3403     57.68223     183.9142        14     1.255     0.786  82.76   0
