#   1 NUMBER                 Running object number                                     
#   2 X_IMAGE                Object position along x                                    [pixel]
#   3 Y_IMAGE                Object position along y                                    [pixel]
#   4 ALPHA_J2000            Right ascension of barycenter (J2000)                      [deg]
#   5 DELTA_J2000            Declination of barycenter (J2000)                          [deg]
#   6 FLUX_APER              Flux vector within fixed circular aperture(s)              [count]
#   9 FLUXERR_APER           RMS error vector for aperture flux(es)                     [count]
#  12 FLUX_RADIUS            Fraction-of-light radii                                    [pixel]
#  13 FWHM_IMAGE             FWHM assuming a gaussian core                              [pixel]
#  14 BACKGROUND             Background at centroid position                            [count]
#  15 THRESHOLD              Detection threshold above background                       [count]
#  16 FLUX_MAX               Peak flux above background                                 [count]
#  17 ISOAREA_IMAGE          Isophotal area above Analysis threshold                    [pixel**2]
#  18 A_IMAGE                Profile RMS along major axis                               [pixel]
#  19 B_IMAGE                Profile RMS along minor axis                               [pixel]
#  20 THETA_IMAGE            Position angle (CCW/x)                                     [deg]
#  21 FLAGS                  Extraction flags                                          
         1    718.6636     17.7495 307.6452578  +6.6898198     8147.627     11239.89     11829.86     78.27027     156.1065      312.275      1.469     2.98     818.8637     55.03808     1159.758        29     1.311     0.947 -42.13   0
         2    638.8687     17.0581 307.6784320  +6.6874374     4111.967     5662.598     5911.397     78.39401     156.1065     312.1819      1.449     3.14     818.7747     55.03808     591.5775        24     1.212     1.012 -34.87   0
         3    439.0724     13.2527 307.7615644  +6.6823184     6871.369     9835.616     10142.58     78.14632     156.1685      312.275      1.518     3.22     823.0333     55.03808     958.9771        32     1.368     1.019 -43.97   0
         4     40.0165     12.8565 307.9273562  +6.6690788     9105.116     13264.46     13581.25     77.64857     156.1065     311.9955      1.512     3.13     826.1342     55.03808      1341.35        35     1.353     1.065 -47.91   0
         5    686.0591     12.2432 307.6589881  +6.6910029     979.6342     1568.576      1635.53     78.14632     156.1685     312.3371      1.700     5.60     818.6178     55.03808     144.9102        10     1.075     0.871 -11.95   0
         6    514.6017     10.2531 307.7302871  +6.6860871     973.4523     1423.781     1799.974     77.64857     155.9201     311.8401      1.556     5.02     819.5342     55.03808     147.9309        10     1.176     0.705 -14.46   0
         7    335.6380      8.1685 307.8047060  +6.6809482     13950.22      20137.4     21237.79     77.89784     155.9201      311.249      1.564     3.12     826.9498     55.03808     2111.893        41     1.389     1.108 -35.83  16
         8    109.3049      8.4870 307.8987202  +6.6732135     2795.513     4040.654     4245.838     78.27027     156.5405     312.3061      1.547     3.30     826.1066     55.03808     394.1901        21     1.331     0.862 -32.41  16
         9    100.5270      7.4802 307.9024007  +6.6733338     1665.714     2495.335     2243.271     78.51757     156.4166     308.0874      1.571     3.40     826.1751     55.03808     263.2318        15     1.123     0.863 -56.52  16
        10    804.0632      6.9661 307.6101392  +6.6971239     1054.456     1432.065     1416.782     78.14632     156.2306     304.4477      1.376     3.56     817.6262     55.03808     151.9797         9     0.843     0.696 -50.07  16
        11    470.1985      6.6149 307.7488565  +6.6861014     648.3228     875.4694     686.7653     77.89785     155.8579     301.5685      1.220     4.34     820.9093     55.03808     99.20746         7     1.070     0.501 -47.11  16
        12    401.6849      6.1867 307.7773343  +6.6839816     2667.821     3557.904     3577.686     77.89784     156.0444     297.8816      1.443     3.09     825.1175     55.03808     403.4222        17     1.109     0.872 -37.97  16
        13    997.0286      3.0350 307.5300999  +6.7051834     687.2504     874.8075     908.1512     77.89784     145.8997     260.8224      1.316     4.16     813.4539     55.03808     94.62665         7     0.918     0.539 -44.86  16
        14    662.5119      1.9825 307.6691152  +6.6944511     11549.41     14494.14     14869.75     75.11034     133.3331     245.1117      1.350     3.42     818.2042     55.03808     1855.523        25     1.246     0.858 -16.66  24
        15    540.0733      1.8809 307.7199862  +6.6903960     1303.665     1693.343     1727.326     74.46227     132.1648     243.8429      1.333     3.54     818.7564     55.03808     201.6257        13     1.094     0.803 -21.83  24
        16     80.8247      2.2135 307.9107631  +6.6748450     622.1915     904.4699     1058.055      76.8959     136.3523     248.8013      1.557     5.97     825.8663     55.03808     81.09082         8     1.149     0.873  61.61  24
        17    827.3317      1.6175 307.6006511  +6.7001086     1370.004     2055.306     2733.266     71.26954     128.5207     239.5921      1.579     4.04     817.4371     55.03808     268.1589        10     1.172     0.696  14.13  24
        18    539.1377    997.3690 307.6869593  +6.2794356     4323.048     6512.583     6896.226     78.02219     156.2306      312.213      1.622     3.39     852.6193     55.03808       576.51        23     1.317     0.944 -29.03   0
        19    967.1266   1023.0118 307.5084318  +6.2831387     5158.989     7563.501     8298.085     74.85179     133.3331     245.3094      1.538     4.03      847.003     55.03808     639.5253        25     1.499     0.913  -3.95  24
        20    721.7637   1023.6349 307.6102674  +6.2746974     703.0255     1156.713     1502.745     68.21171     124.3812     235.2645      1.664     3.82     853.4614     55.03808     143.3097         8     1.130     0.554  20.40  27
        21    449.7061   1022.5063 307.7232401  +6.2660658     1081.321     1287.169     1152.193     78.27027      140.346     253.1273      1.390     3.23     852.4145     55.03808     172.1986        11     0.919     0.828  88.38  24
        22    251.4165   1023.1466 307.8055286  +6.2591555     1285.715     1689.805     1588.801     73.80851      131.724     243.0466      1.355     3.12     851.9117     55.03808     201.5958        12     1.001     0.771  -7.50  24
        23    648.6866    996.6166 307.6415083  +6.2834093     1467.624     1989.292     1819.337     77.89785     155.9201     312.1819      1.534     3.57     852.6701     55.03808     179.9723        15     1.078     0.905 -39.43   0
        24     73.9748    995.9379 307.8800991  +6.2644287     879.2363     1250.072     1141.703     77.89784     156.1065     312.1819      1.477     4.55      849.024     55.03808     129.6946        11     1.005     0.879 -10.31   0
        25    804.8232    995.3117 307.5767350  +6.2891620     573.8146     984.1177     740.2062     78.27027     155.9822     312.1198      1.494     5.13      847.846     55.03808     80.83936         7     1.287     0.577 -47.96   0
        26    492.4499    993.9056 307.7064565  +6.2793029     2363.965     3469.426     3273.493     78.14632     156.0444     312.3992      1.548     3.37     851.8392     55.03808     306.0735        21     1.261     0.957 -33.09   0
        27    926.8444    985.9553 307.5263922  +6.2970936     40490.26     68104.75     72566.01     78.27027     156.1685      312.213      1.808     3.61     846.9394     55.03808     4715.251        78     1.605     1.432 -41.06   0
        28    528.1780    989.0181 307.6917890  +6.2825161     454.6168     917.2672     1427.572     78.02219     156.1065     312.1819      2.030     5.28     852.1993     55.03808     77.05212         6     1.466     0.536 -58.47   0
        29    332.4477    986.9081 307.7731108  +6.2768318     619.0235     841.2488     534.0151     78.27026     156.1065     312.3681      1.378     4.07     851.9673     55.03808     111.2324         7     1.054     0.468 -41.86   0
        30      1.2144    985.0974 307.9106665  +6.2664573     1206.918     1556.741     1657.166     66.63018     122.1796     232.9873      1.123     2.88      847.433     55.03808     300.7786         8     1.042     0.410 -88.97  24
        31    234.0337    984.3530 307.8140491  +6.2745857     1824.462     2725.771     2743.704     78.02219     156.1685     312.1819      1.520     3.43     850.5648     55.03808      293.384        14     1.113     0.894 -41.42   0
        32    632.7260    982.2662 307.6486148  +6.2887996     854.2279     1154.274     870.6518     78.39402     156.2306      312.213      1.597     5.22     852.1508     55.03808     132.4833         8     1.014     0.758 -30.46   0
        33    824.7119    979.5891 307.5690044  +6.2963159     2409.755     3635.211     3961.078     77.89785     155.9201     312.1198      1.629     3.50     847.7924     55.03808     297.5547        23     1.264     1.100 -72.88   0
        34    773.0021    977.6938 307.5905346  +6.2953727     6439.866     10531.86     11733.15     77.77331     155.8579     311.9334      1.787     3.46     849.4647     55.03808     777.7002        43     1.600     1.234 -56.53   0
        35    739.6228    978.7893 307.6043549  +6.2938061     472.1501     554.6079     695.1461     77.89785     155.9822     312.1198      1.361     3.64     851.3989     55.03808     102.2428         5     0.961     0.397  -5.99   0
        36    559.6573    976.9888 307.6791247  +6.2885349         1017     1430.432     1229.371     77.64857     156.1686     311.9645      1.390     3.40     852.0193     55.03808     163.6107        10     0.981     0.717 -44.26   0
        37    242.5134    976.5239 307.8107925  +6.2781020     1578.971     2355.084     2863.722     78.27027     156.4786     312.3061      1.728     3.15     850.6214     55.03808        232.1        14     1.088     0.782 -45.44   0
        38    207.2626    976.2355 307.8254351  +6.2770381     765.9148     1044.181     540.9824     78.14632     156.1685      312.213      1.620     5.37      849.966     55.03808     137.2443         9     1.292     0.649 -36.12   0
        39    961.2850    972.7393 307.5125359  +6.3036969     6308.078     10698.65     11444.51     78.39402     156.2306     312.3061      1.841     3.86     846.0455     55.03808     752.9558        40     1.515     1.315 -35.69   0
        40     67.4383    974.7113 307.8835276  +6.2729709     2827.546     4248.275     4123.472     78.27027     156.0444      312.275      1.595     3.74     848.4655     55.03808     374.7375        21     1.272     0.971 -47.31   0
        41    217.3741    969.0703 307.8214788  +6.2803351     537.4606     570.2068     458.2847     77.89784     156.0444     312.1819      1.120     3.99      849.966     55.03808     96.06061         5     1.014     0.450 -27.26   0
        42    643.3515    966.9907 307.6447157  +6.2954604     668.8669     1069.043     1214.961     77.77331     155.9822     311.9334      1.488     3.88     851.5918     55.03808     106.3175         7     0.868     0.579 -60.32   0
        43    934.8857    964.4946 307.5237709  +6.3062206     2053.552     3507.469     3690.964     78.27026     156.5405     312.3061      1.842     4.44     846.3683     55.03808     243.9238        23     1.456     0.998 -31.86   0
        44    794.3397    960.9364 307.5822372  +6.3030023     1267.344     1946.009       1972.7     78.27027     156.1065      312.275      1.606     3.96     848.1921     55.03808     170.7012        14     1.090     0.935  -3.35   0
        45    655.7265    960.3677 307.6398003  +6.2986080     4907.949      7274.74     7239.007     78.14632     156.1686      312.244      1.598     3.39     851.3026     55.03808     675.3149        33     1.420     1.090 -35.44   0
        46    267.9297    960.5460 307.8007793  +6.2855502     4711.271     6841.973     7161.573     78.14632     156.1685     312.1819      1.553     3.27     850.7278     55.03808     654.3663        25     1.295     0.950 -42.07   0
        47   1004.9808    959.4603 307.4948390  +6.3106340     653.3311     1138.122     1381.729     77.89784     156.1065     312.0887      1.517     2.68     844.8696     55.03808     109.8757         6     0.766     0.496  -4.88   0
        48    478.1614    958.4653 307.7135774  +6.2934541     1187.249     1893.533     1890.732     78.14632     156.1065     312.3371      1.639     4.77     850.7687     55.03808     166.3518        14     1.447     0.753 -33.29   0
        49     36.5519    957.8951 307.8969153  +6.2788740     2227.182     3502.604     4061.742     78.14632     156.0444     312.3992      1.741     3.21     847.4824     55.03808      346.821        24     1.358     1.001 -27.21   0
        50    887.8590    956.5550 307.5435594  +6.3079305      858.509     1447.475     1210.171     78.14632     156.1065     312.3371      1.770     5.68     847.0535     55.03808     116.8784        10     1.234     0.916 -76.94   0
        51    959.1322    953.4959 307.5140724  +6.3115689     672.5543     1034.977     916.7837     78.14632     156.2926      312.244      1.687     5.76     845.6636     55.03808     103.1455         9     1.251     0.746 -61.07   0
        52    580.3749    952.9833 307.6713290  +6.2991371       1704.4     2493.169     2458.908     78.02219     156.0444     312.1819      1.529     4.02     851.1923     55.03808     233.5317        16     1.279     0.842 -53.22   0
        53    303.8426    954.2067 307.7860844  +6.2893715     865.9643     1146.547     1591.443     77.77331     155.9201     311.9645      1.533     3.59     850.8899     55.03808     167.7554         8     1.032     0.517 -52.81   0
        54   1011.5353    952.9829 307.4923341  +6.3135262     622.1818     1449.446     1349.525     77.77331     156.1065     312.1198      2.387     5.85     844.5862     55.03808     99.51215         7     1.169     0.824 -61.71   0
        55    619.4114    949.2519 307.6552486  +6.3019827     1207.959     1589.863     1767.755     77.64857     156.1065     311.9955      1.564     3.80     851.0212     55.03808     176.1874        13     1.143     0.761 -34.34   0
        56    168.3749    949.8210 307.8424668  +6.2866361     528.8276     613.4423     655.1412     77.89784     155.9822     312.1819      1.195     3.47     848.8825     55.03808     74.41187         5     0.778     0.448 -73.22   0
        57     69.2297    949.5968 307.8836303  +6.2833979     825.4391     1229.932     1769.906     77.77331     155.9822     312.0577      1.721     4.67     847.9929     55.03808     108.8995         8     1.113     0.556 -23.37   0
        58    299.4086    947.0457 307.7881658  +6.2921788     1497.583     2220.783     2744.303     77.77331     156.0444     311.9023      1.601     3.78     850.6614     55.03808     212.0464        15     1.206     0.823 -34.92   0
        59    567.4704    945.0118 307.6769535  +6.3019961     534.5835     782.5315     968.9751     77.77331     155.9201     312.0577      1.473     5.00     850.9166     55.03808     101.8742         6     1.348     0.524 -53.20   0
        60    766.5398    943.1524 307.5943733  +6.3094157      849.402     1234.114     1179.486     78.27027     156.1685     312.3061      1.470     5.19     849.0645     55.03808     113.2952         9     1.165     0.652 -36.65   0
        61    903.8492    939.6540 307.5374859  +6.3154404     6867.563     10927.64     11018.62     78.27027     156.1685      312.275      1.711     3.46     846.5091     55.03808     841.8855        36     1.444     1.175 -39.72   0
        62    142.3909    941.1699 307.8535443  +6.2893345     528.4053     785.3663    -175.3857     77.77331     155.9822     312.0577      1.281     4.36     848.5373     55.03808     99.69434         7     1.684     0.321 -26.26   0
        63    439.7663    936.7649 307.7302449  +6.3011263     2332.512     3459.819     3216.039     78.02219     155.9201     311.9955      1.564     3.38      850.237     55.03808     309.3257        22     1.309     0.965 -20.75   0
        64    341.4662    935.0937 307.7711085  +6.2985225     10090.87     14681.64     15434.28     78.27026     156.3547      312.244      1.546     3.32     850.2696     55.03808      1428.71        36     1.410     1.055 -39.76   0
        65    608.7465    936.4233 307.6601060  +6.3069218      571.397      774.202     900.1588     77.77331     156.1686     312.0577      1.395     2.90     850.6065     55.03808     97.67944         5     0.725     0.446 -21.91   0
        66    261.5318    934.0604 307.8043260  +6.2962684     7584.794     10605.56     10958.63     78.39401     156.1065      312.244      1.503     3.08     849.8969     55.03808     1070.697        28     1.328     0.976 -27.66   0
        67    179.4587    932.9275 307.8384344  +6.2939816     468.6514     686.8936    -51.49505     78.39401     156.1685      312.213      1.496     5.48     848.6852     55.03808     100.7965         7     1.441     0.588 -51.31   0
        68    589.6840    928.5448 307.6682839  +6.3095366     1228.026     1565.489     1577.337     78.27027     156.1686     312.3681      1.513     3.79     850.3653     55.03808     150.1772        15     1.161     0.838 -35.55   0
        69    875.9883    924.0327 307.5495747  +6.3209600      904.625     1523.542     1546.678     77.77331     155.9201     312.1198      1.546     5.90     846.8146     55.03808      121.013        13     1.388     0.706 -76.35   0
        70    919.7283    924.6801 307.5313940  +6.3221510      1038.58     1865.909     2159.596     78.51757     156.4166      312.275      2.017     6.26     845.8985     55.03808     137.7521        15     1.437     0.987 -31.38   0
        71    152.5501    924.4575 307.8498899  +6.2965742     581.5358     557.3557     629.4734     78.27027     156.1686      312.244      1.174     3.02     848.2105     55.03808     128.6201         6     0.901     0.407 -20.90   0
        72    418.4919    922.8080 307.7395453  +6.3061751     745.5519     937.1458     957.4311     77.89785     155.8579     312.0577      1.323     4.38     849.9238     55.03808     94.22693         7     0.910     0.599   6.17   0
        73    986.9959    920.7816 307.5035971  +6.3260018     640.0219     1183.613     1686.029     77.89784     155.7335     312.0577      1.965     4.78     844.2766     55.03808     87.90228         7     1.029     0.630  -3.28   0
        74    848.8810    918.4849 307.5610141  +6.3223461     533.0182     620.6509     155.0289     78.02219     156.4786     312.3061      1.341     3.37     847.1343     55.03808     97.19305         5     1.222     0.269 -55.08   0
        75    756.2352    917.7513 307.5995014  +6.3195573     1750.283     2770.033     3087.344     78.14632     156.2306     312.1819      1.645     4.36     848.9562     55.03808      279.187        19     1.246     1.100 -20.75   0
        76    579.9199    918.1733 307.6726851  +6.3134914     771.2985     928.6509     1095.746     78.14632     155.9822      312.275      1.283     4.52     850.1946     55.03808     124.5675         8     1.064     0.546 -49.84   0
        77    620.1352    914.2576 307.6561210  +6.3164525      814.912     1206.552     745.7375     78.39401     156.1065      312.275      1.584     4.92     850.0401     55.03808     110.8886        12     1.031     0.877 -52.29   0
