#   1 NUMBER                 Running object number                                     
#   2 X_IMAGE                Object position along x                                    [pixel]
#   3 Y_IMAGE                Object position along y                                    [pixel]
#   4 ALPHA_J2000            Right ascension of barycenter (J2000)                      [deg]
#   5 DELTA_J2000            Declination of barycenter (J2000)                          [deg]
#   6 FLUX_APER              Flux vector within fixed circular aperture(s)              [count]
#   9 FLUXERR_APER           RMS error vector for aperture flux(es)                     [count]
#  12 FLUX_RADIUS            Fraction-of-light radii                                    [pixel]
#  13 FWHM_IMAGE             FWHM assuming a gaussian core                              [pixel]
#  14 BACKGROUND             Background at centroid position                            [count]
#  15 THRESHOLD              Detection threshold above background                       [count]
#  16 FLUX_MAX               Peak flux above background                                 [count]
#  17 ISOAREA_IMAGE          Isophotal area above Analysis threshold                    [pixel**2]
#  18 A_IMAGE                Profile RMS along major axis                               [pixel]
#  19 B_IMAGE                Profile RMS along minor axis                               [pixel]
#  20 THETA_IMAGE            Position angle (CCW/x)                                     [deg]
#  21 FLAGS                  Extraction flags                                          
         1    190.0157     19.9911 307.8651132  +6.6680731     9555.967      16698.4     17970.89     84.51217     168.8897     338.0823      1.882     4.02     1004.041     59.61622     1086.948        47     1.600     1.317  74.63   0
         2    935.4499     17.6060 307.5553823  +6.6940203     4250.806     5873.598     5438.965     84.24259      168.957     337.8131      1.434     3.08     980.2224     59.61622     657.6556        22     1.279     0.858  62.96   0
         3    736.4218     16.2396 307.6381497  +6.6879385     1866.268     2853.624      3129.52     84.37749      168.957      338.015      1.690     4.10     984.0978     59.61622     246.2224        17     1.187     1.024  70.18   0
         4    472.3775     16.5621 307.7478799  +6.6789670     1761.758     2826.738     2941.272     84.37749     168.8897      338.015      1.747     4.32     988.8415     59.61622      218.924        18     1.224     1.032  47.85   0
         5   1000.2034     14.0855 307.5285867  +6.6976330     1999.309     2778.059     2339.564     84.24259      168.755     337.9141      1.409     3.21     971.8879     59.61622     344.8312        15     1.170     0.741  66.73   0
         6    719.7037     10.3726 307.6452955  +6.6898017     7070.697     10806.25     11518.02     84.91493     168.8897     338.1496      1.681     3.66     984.3705     59.61622     833.5875        34     1.489     1.058  62.17   0
         7    639.8132      9.6551 307.6785239  +6.6874258     3576.635     5740.182     6259.649     84.10748     169.0916     337.9477      1.730     3.67     985.7871     59.61622     392.9991        31     1.419     1.169  61.64   0
         8    342.0084      9.1215 307.8023130  +6.6776659     863.9247     1458.875     1655.118     84.37749     168.6201      338.015      1.721     4.68     999.9318     59.61622     113.6976        13     1.062     0.937 -57.67   0
         9    440.0413      5.9932 307.7616755  +6.6822461      5291.89     9439.253     10150.45     84.10748     168.8224     320.5734      1.905     4.10     991.3113     59.61622     609.8414        35     1.525     1.226  71.65  24
        10    687.0589      4.7958 307.6590511  +6.6910125     893.6587     1422.784     1005.826     84.10748     169.0243     306.9442      1.445     5.05     985.2446     59.61622     151.7718         9     1.108     0.677  47.38  16
        11    516.0428      3.0440 307.7301878  +6.6860110     633.1776     970.6235     1403.194     84.64664     158.3953     282.6387      1.924     5.27     987.9744     59.61622     88.13342         7     1.415     0.554  61.11  24
        12    336.7396      1.9555 307.8047447  +6.6804474     9154.229     12429.81     13093.56     81.07806     144.0296     265.2862      1.458     4.18     1000.368     59.61622     1276.297        28     1.354     0.998  -6.79  24
        13    110.6323      1.9728 307.8987134  +6.6728417      2024.67     2769.638     2777.572     80.79703     144.0296     265.3719      1.432     3.66     1006.871     59.61622     290.4672        17     1.218     0.906   6.17  24
        14     41.1281      5.6490 307.9274738  +6.6689848     7695.502     12635.69      13499.6     84.78089     169.2261     317.2569      1.760     3.67     1006.163     59.61622     891.6246        36     1.492     1.182  75.51  16
        15    101.8058      1.2956 307.9024045  +6.6728243     764.7872     971.9277     1136.334     72.95622     133.4551     253.5814      1.198     3.38     1007.442     59.61622     152.5191         5     0.794     0.418 -15.82  24
        16    306.6886   1000.6223 307.7835336  +6.2671491     16594.21     23372.33     24625.59     84.78089      168.957     338.0823      1.519     3.14     1025.269     59.61622     2365.446        37     1.397     0.992  71.51   2
        17    760.5645   1022.0914 307.5943254  +6.2734766     1332.892      1762.82     1462.825     84.91493     156.5899     280.7006      1.357     3.89     1019.662     59.61622     225.4287        11     1.256     0.567  62.89  24
        18    727.9167   1023.8567 307.6078243  +6.2716574      567.163     752.1223      1299.81     71.38031     131.3073     251.0572      1.122     3.22     1020.965     59.61622     222.7062         5     1.236     0.244 -12.00  24
        19    583.8928   1023.7241 307.6676396  +6.2668975      1334.92     1523.779     1876.648     72.95622     133.5403     253.5814      1.054     2.40     1023.363     59.61622     424.0739         9     1.065     0.445   2.43  24
        20    310.9094    997.5406 307.7818848  +6.2685629     1206.402     1780.675     2239.053     84.64664     169.1589     338.3513      1.957     3.37      1025.28     59.61622      190.321        14     1.126     0.832  58.51   3
        21    822.2326   1000.6469 307.5694346  +6.2843890     1321.985     1989.054     1833.106     84.51217     169.1589     338.1496      1.620     3.84     1017.185     59.61622     220.6714        13     1.222     0.743  59.55   0
        22    431.1413   1001.1068 307.7318352  +6.2711212     978.7117     1217.664     977.6295     84.64664     169.0916     338.3513      1.534     4.58     1025.194     59.61622     150.7966        11     1.228     0.638  84.48   0
        23      3.3870   1001.7690 307.9094440  +6.2564868     792.3143     1088.333     1158.419     84.24259     161.5941     287.8618      1.575     4.02     1024.418     59.61622     120.1252         7     0.990     0.466  80.58  16
        24    277.9861    998.1492 307.7955363  +6.2672071     1203.734     1670.275     1448.268     84.10748     169.1589     337.9477      1.416     4.30     1025.149     59.61622      194.319        12     1.223     0.679  83.10   0
        25    922.3714    994.6884 307.5280465  +6.2901895      10416.3     13831.87     14550.88     84.91493     168.8897     338.0823      1.405     3.03     1016.516     59.61622     1638.262        30     1.381     0.883  72.13   0
        26     51.9675    993.6298 307.8895461  +6.2614809     515.2059     432.8103     385.7143     84.24259     168.8897     337.9141      1.263     4.33     1024.658     59.61622     91.27405         6     1.127     0.474  69.87   0
        27    896.0565    990.8392 307.5391042  +6.2909012     14438.01     20258.02      21196.9     84.78089     169.2261     338.1832      1.448     3.13      1016.56     59.61622     2300.894        43     1.338     1.136  66.88   0
        28   1017.7351    990.2541 307.4885897  +6.2951984     5684.758     7654.242     7794.774     84.78089     169.0916     332.0746      1.414     3.19     1013.176     59.61622     897.4174        22     1.278     0.814  71.50  16
        29    608.9301    991.0817 307.6583394  +6.2812115     1417.116     2061.975      2153.87     85.04876     169.4276     338.2505      1.540     4.01      1022.91     59.61622     186.9548        14     1.226     0.814  83.78   0
        30    540.0849    989.8906 307.6869702  +6.2793998     4558.791     6476.599     7229.107     84.51217     169.4947     338.3513      1.505     3.33     1023.418     59.61622     641.7396        22     1.301     0.870  65.61   0
        31    649.8018    989.3798 307.6414229  +6.2832807     1542.381     1995.367     1445.182     84.37749      168.755     337.9141      1.432     3.23     1021.276     59.61622     286.8124        16     1.235     0.826  54.49   0
        32    553.8115    994.0076 307.6811313  +6.2781595     9158.836     12782.08     13643.71     84.37749      168.957      338.116      1.476     3.09      1023.28     59.61622     1342.722        29     1.344     0.933  71.66   0
        33     74.8609    988.6135 307.8802090  +6.2643215     974.7735     1529.327     1472.882     84.24259     169.0243     337.9141      1.555     5.28     1024.772     59.61622     159.2137        12     1.382     0.734  59.00   0
        34    805.1284    987.0949 307.5769926  +6.2894131     650.8394     1083.213     1391.695     84.64664     169.2261     338.2169      1.505     4.79     1017.026     59.61622     104.8633         6     1.045     0.623  77.27   0
        35    493.4317    986.4512 307.7064605  +6.2792580     2210.859     2947.065      2795.23     84.64664     169.2261     338.1496      1.446     3.39      1024.35     59.61622     306.9048        18     1.297     0.798  79.85   0
        36    927.7683    978.3848 307.5263515  +6.2971005     51433.64     69916.69     72969.83     84.37749     168.8897      338.116      1.430     3.03      1015.88     59.61622     8082.733        57     1.422     1.023  69.62   0
        37    333.2679    979.5222 307.7732073  +6.2767516     717.8854     937.4536     1444.734     84.91493     169.2261     338.1832      1.556     3.33     1025.316     59.61622     124.1311         7     1.115     0.649  34.66   0
        38      1.3053    978.4439 307.9110973  +6.2660461     2278.497     2756.388     2624.848     73.26734     133.9655     254.0742      1.170     3.08     1024.406     59.61622     533.1042        10     1.199     0.456  86.77  24
        39    235.1337    976.8035 307.8140519  +6.2745813     1863.044     2689.102     2557.187     84.10748     168.8224     337.9814      1.554     3.63     1025.005     59.61622      284.907        16     1.207     0.876  67.62   0
        40    123.0736    975.7686 307.8606221  +6.2712450      704.367     757.4218     533.6525     84.64664     169.1589     338.2505      1.153     4.05     1024.884     59.61622     120.9772         6     0.946     0.496 -38.55   0
        41    633.8130    974.4593 307.6485644  +6.2889062     975.5324     1313.457     1197.985     84.10748     169.0916     337.8804      1.656     4.62     1021.756     59.61622     126.0563         8     1.023     0.593  67.37   0
        42    773.9496    970.0884 307.5905121  +6.2953933     7539.411     10459.17     11488.58     84.78089      168.957     338.3513      1.454     3.08     1017.799     59.61622      1197.73        35     1.521     0.994  87.71   0
        43    825.7370    972.1291 307.5689359  +6.2962797     2537.358     3332.385     3283.369     84.78089     169.1589     338.2505      1.364     3.32     1016.602     59.61622       411.16        14     1.248     0.638  63.77   0
        44    560.8279    969.6282 307.6790374  +6.2884593     970.3326     1509.191     1231.984     84.24259      168.957      338.015      1.658     4.29     1023.061     59.61622     154.5638        10     1.116     0.632  74.43   0
        45    243.4883    969.1633 307.8108402  +6.2780160     1664.945     2336.055     2130.085     84.78089     169.0243     338.2169      1.604     3.37     1025.067     59.61622     271.4136        17     1.181     0.900  44.73   0
        46     68.4086    967.3436 307.8836073  +6.2728856     2906.462      4226.31     4434.956     84.10748     169.0916     337.9477      1.555     3.18      1024.74     59.61622     422.9856        23     1.369     0.899  76.33   0
        47    208.1636    968.7812 307.8255226  +6.2769878     923.5757       1435.2     1204.069     84.24259      168.957     337.9814      1.751     4.46     1024.976     59.61622     143.4158         8     1.030     0.698   4.05   0
        48    962.1334    965.1370 307.5125231  +6.3037156     7845.104     10500.45     10456.87     84.78089     169.1589     338.2169      1.390     2.97     1014.295     59.61622     1323.947        26     1.282     0.858  70.01   0
        49    218.3286    961.0279 307.8215630  +6.2805300     855.6291     1244.164     1328.817     84.51217     169.1589     338.1496      1.568     4.91     1025.033     59.61622      123.874         9     1.120     0.702  74.32   0
        50    644.3864    959.9190 307.6446620  +6.2952627     832.8309     817.4595      670.458     84.37749     168.8897      338.015      1.318     3.70     1021.232     59.61622     127.7311         8     0.915     0.729  27.45   0
        51    935.8743    956.7911 307.5237086  +6.3062859     2433.386     3170.924      3029.69     84.37749     168.6876     338.0487      1.379     3.02     1014.898     59.61622     398.6852        15     1.135     0.762  80.55   0
        52    795.4825    953.4756 307.5821267  +6.3029710     1640.648     2143.129     2213.674     84.91493     169.4947     338.2841      1.454     3.68     1016.771     59.61622     224.8012        13     1.153     0.721  73.27   0
        53    268.8757    953.0375 307.8008413  +6.2855254     4729.214     6967.606     7518.348     84.64664     169.2261     338.2505      1.533     3.41     1025.179     59.61622     738.3309        26     1.360     0.969  71.35   0
        54    656.6680    952.7910 307.6398009  +6.2986161     5078.316     7014.295     6805.744     84.24259      168.957      338.116      1.450     2.97     1020.666     59.61622     748.5876        22     1.220     0.887  67.56   0
        55   1005.8969    952.4968 307.4947706  +6.3103926     788.0457     1138.053     797.7225     84.78089     169.6959     338.0487      1.302     3.25      1012.39     59.61622     143.4247         7     1.132     0.420  69.42   0
        56    478.7232    951.1867 307.7137558  +6.2933244     1248.172     1863.584     1676.811     84.37749     168.8224      338.015      1.548     5.51     1023.861     59.61622     164.0971        12     1.135     0.810  70.87   0
        57     37.5849    950.5022 307.8969766  +6.2788017     2465.241     3570.745     3507.876     84.78089     168.8897     337.9814      1.580     3.71      1024.59     59.61622     343.3115        16     1.237     0.774  67.61   0
        58    888.5969    949.2889 307.5435953  +6.3078067     1042.242     1402.067     1086.259     84.24259     168.8224     337.8804      1.352     3.87     1015.288     59.61622      144.578         9     0.970     0.746  56.82   0
        59    581.5043    945.4750 307.6712628  +6.2991228     1948.717     2974.287     2611.399     84.51218     169.3604     338.2505      1.629     3.95     1022.677     59.61622     253.0846        18     1.241     0.971  35.42   0
        60    304.8742    946.6711 307.7861063  +6.2893616     913.9528      1293.59     1235.418     85.04876     169.2933     338.2505      1.581     3.54     1025.232     59.61622     148.3541         7     0.949     0.628  88.52   0
        61   1012.6145    944.8396 307.4922371  +6.3137777     971.5013     1561.149     1260.046     84.37749      168.957     337.9814      1.838     6.55     1011.936     59.61622       162.43        11     1.542     0.782 -81.19   0
        62    980.0974    946.5327 307.5056855  +6.3119953     671.0757      660.887     860.8027     84.78089     169.2261     338.2505      1.045     2.53     1013.092     59.61622     153.8864         5     0.725     0.572  76.40   0
        63    960.0712    946.2734 307.5140116  +6.3114349     707.4885     990.2021     947.8741     85.04876     169.2933     338.2505      1.402     3.74     1013.721     59.61622     121.1252         5     0.830     0.485  53.29   0
        64    620.5943    941.6326 307.6551576  +6.3020167     1557.927     1919.427     1416.208     84.10748      168.957      338.015      1.423     3.30     1021.932     59.61622     229.1869        15     1.144     0.806  62.66   0
        65     70.5061    942.2206 307.8835853  +6.2833277     886.8256     1460.754      1890.62     84.64664      168.957     338.0487      1.899     6.10     1024.759     59.61622      112.338        12     1.150     0.911  84.34   0
        66    300.6078    939.3165 307.7881262  +6.2922548     1428.876     1919.302     2334.364     84.37749     168.8224     338.0487      1.418     3.44     1025.226     59.61622     196.4884        15     1.154     0.817  73.28   0
        67    568.6090    937.9474 307.6768715  +6.3017991     808.8237     1386.329     1842.192     84.24259     169.0243     337.9141      1.969     5.15     1022.746     59.61622     119.4583         9     1.141     0.658  63.23   0
        68    767.5236    935.6838 307.5943357  +6.3093829     1124.121     1409.369     1469.285     84.91493     169.4947     338.3177      1.299     3.04     1017.185     59.61622     190.0228         8     0.908     0.607  71.46   0
        69    904.7891    931.9734 307.5374508  +6.3154956     8202.403      11059.6     11122.96     84.37749      168.957     338.0823      1.411     3.04     1014.554     59.61622     1309.326        29     1.332     0.896  61.38   0
        70    440.7767    929.1783 307.7302561  +6.3011395     2221.599     3290.354      3037.07     84.51217      168.957     338.1832      1.604     3.75     1024.222     59.61622     297.5016        20     1.387     0.866  64.52   0
        71    342.3673    927.6097 307.7711784  +6.2984885     9924.192     14745.75     14835.49     84.24259     168.8897     338.0487      1.585     3.27     1025.226     59.61622     1312.844        37     1.452     1.085  69.63   0
        72    262.5295    926.5906 307.8043690  +6.2962309     7829.047     11236.07     11132.14     84.24259     168.8224     338.0487      1.568     3.20     1025.259     59.61622     1015.813        31     1.372     1.012  76.40   0
        73    590.4679    921.0764 307.6683606  +6.3094957     1355.031     1582.954     1016.822     84.91493     169.2933     338.1832      1.367     3.16     1022.213     59.61622     227.8075        13     1.112     0.741  62.33   0
        74    774.9180    920.3781 307.5917784  +6.3159489     704.2384     1000.932     1440.251     84.51217     168.8224     338.1496      1.306     3.17     1016.565     59.61622     130.9816         6     0.738     0.627  55.68   0
        75    920.4491    917.0601 307.5314466  +6.3221750     1162.573     1432.149     1395.812     84.78089     169.0916     338.2841      1.292     3.40     1013.867     59.61622     200.8267         9     1.021     0.609  50.94   0
        76    877.4312    916.0092 307.5493485  +6.3211741     877.9187     1184.959     793.0972     84.24259      168.957     338.0487      1.286     3.75     1014.584     59.61622     156.5803         6     0.819     0.493  86.08   0
        77    419.5419    914.8302 307.7395583  +6.3063515     563.7866     807.4404     1043.573     84.51217     169.1589      338.116      1.511     4.22      1024.38     59.61622      80.0155         5     0.898     0.567 -42.87   0
