#   1 NUMBER                 Running object number                                     
#   2 X_IMAGE                Object position along x                                    [pixel]
#   3 Y_IMAGE                Object position along y                                    [pixel]
#   4 ALPHA_J2000            Right ascension of barycenter (J2000)                      [deg]
#   5 DELTA_J2000            Declination of barycenter (J2000)                          [deg]
#   6 FLUX_APER              Flux vector within fixed circular aperture(s)              [count]
#   9 FLUXERR_APER           RMS error vector for aperture flux(es)                     [count]
#  12 FLUX_RADIUS            Fraction-of-light radii                                    [pixel]
#  13 FWHM_IMAGE             FWHM assuming a gaussian core                              [pixel]
#  14 BACKGROUND             Background at centroid position                            [count]
#  15 THRESHOLD              Detection threshold above background                       [count]
#  16 FLUX_MAX               Peak flux above background                                 [count]
#  17 ISOAREA_IMAGE          Isophotal area above Analysis threshold                    [pixel**2]
#  18 A_IMAGE                Profile RMS along major axis                               [pixel]
#  19 B_IMAGE                Profile RMS along minor axis                               [pixel]
#  20 THETA_IMAGE            Position angle (CCW/x)                                     [deg]
#  21 FLAGS                  Extraction flags                                          
         1    191.6412     17.2143 307.8648907  +6.6682397     10258.29     16712.68     17682.83     78.01646     156.4699      312.971      1.725     4.15     831.9183     55.21015     1347.723        41     1.662     1.020 -38.01   0
         2      4.7239     17.2222 307.9425441  +6.6619536     793.3946     1184.797     629.3845     78.14139     156.4699     283.5373      1.680     4.27      833.687     55.21015     143.5927        10     1.171     0.855 -51.68  16
         3    535.8394     15.4049 307.7219495  +6.6805247     2918.755     4577.672     4273.573     77.76601     156.4075     312.9086      1.646     3.96     827.5078     55.21015     396.7349        24     1.522     0.874 -39.12   0
         4    937.3148     14.9589 307.5551571  +6.6941148      3838.33     6184.929     6257.451     78.51498     156.5945     313.1891      1.676     4.22     825.7161     55.21015     508.6424        27     1.550     0.912 -34.79   0
         5    738.0493     13.6681 307.6379932  +6.6880009     1966.707     2899.057     2663.725     78.39064     156.5945     313.2202      1.559     4.28     826.4104     55.21015     248.4586        17     1.417     0.737 -41.14   0
         6    474.1455     13.6511 307.7476405  +6.6791837     1660.793     2513.133     2017.165     78.51498     156.6568     313.2513      1.558     4.18     828.7736     55.21015     227.7889        16     1.316     0.754 -33.49   0
         7   1001.8896     11.2137 307.5284514  +6.6978120     1783.286     2961.378      2459.15     78.26611     156.4699     313.0956      1.700     5.04     822.4266     55.21015     245.5239        22     1.633     0.856 -36.56   0
         8    797.3322     10.4939 307.6134680  +6.6912902     603.6804      643.898      371.299     78.39065     156.8435     313.2513      1.464     5.53     825.8524     55.21015     93.48993         9     1.354     0.637 -44.36   0
         9    721.4209      7.6764 307.6451026  +6.6899192     7114.012     11174.91     11328.96     78.14139     156.4075      310.059      1.684     4.10     826.3311     55.21015     1072.699        33     1.574     0.959 -37.58  16
        10    641.6130      6.8870 307.6782881  +6.6875786     3723.275      5874.53     6291.451     78.14139     156.4699      304.696      1.663     4.18     826.9496     55.21015     518.5961        26     1.481     0.903 -42.45  16
        11    343.7831      6.8014 307.8020319  +6.6776435     871.2491     1477.465     1754.194     78.14139     156.2204      304.023      1.792     5.10     834.7684     55.21015     108.6416        10     1.140     0.645 -43.62  16
        12    397.1050      5.2702 307.7799297  +6.6800630      760.044     1139.823     1222.197     78.39064     156.7191     289.7981      1.473     4.69      832.545     55.21015     110.5541         8     1.292     0.483 -43.52  16
        13    441.8077      3.1802 307.7614272  +6.6824234     6070.065     9501.959      9626.51     78.14139     147.6828     263.5323      1.642     3.90     830.2811     55.21015      826.413        29     1.534     0.937 -37.62  24
        14     42.7056      2.8502 307.9272491  +6.6691642     8252.879     12797.95     13165.32     78.39064     144.4777     259.2785      1.649     3.95     831.9808     55.21015     1088.364        35     1.559     1.009 -32.20  24
        15    688.7424      2.2159 307.6588628  +6.6910819     765.9393     1072.729     1153.277     76.88299     137.1347     249.6183      1.550     4.71     826.4611     55.21015      106.568         9     1.169     0.537 -44.03  24
        16    517.5884      1.0000 307.7300152  +6.6858608     456.4676     656.3332     953.3558     63.23913     118.9263     229.9713      1.398     3.68     827.5403     55.21015     135.0533         5     1.352     0.289   0.00  24
        17      4.8369    998.9008 307.9094483  +6.2566958     648.8704     885.8318     1363.968     78.51498     156.5322     285.2522      1.595     4.36     854.4965     55.21015     110.8156         7     1.152     0.470 -34.27  17
        18    730.3766   1023.2114 307.6074376  +6.2709567     5264.776     7140.465     7450.181     73.24454     131.0238     242.9247      1.393     3.97     858.6682     55.21015     797.7653        22     1.405     0.815  -9.47  24
        19    722.6888   1023.0655 307.6106341  +6.2707604     1112.932     1769.717     1949.189     75.08581     133.3848      245.322      1.633     4.41     858.9578     55.21015     172.4492        13     1.281     0.679 -13.64  25
        20    597.6099   1023.5076 307.6625454  +6.2664011     1637.905     2756.479     3580.972     69.83594     126.6324     238.0166      2.164     4.47     862.3345     55.21015     390.8916        18     1.633     0.768   4.46  24
        21    586.4224   1022.7087 307.6672166  +6.2663571     3633.709     5436.227      6272.74     77.64048     137.9149       250.71      1.711     4.32     862.2338     55.21015     447.1034        26     1.398     1.057 -15.82  24
        22    445.5370   1023.3259 307.7256830  +6.2613911     2727.506      3731.05       4378.3     72.57564     129.5264     241.2728      1.448     3.91     860.8745     55.21015     459.4916        16     1.292     0.723  -6.26  24
        23    280.2013    995.1323 307.7952646  +6.2674934     691.3802     1351.211     1231.146     78.01646     156.2204     313.0333      2.055     4.86     859.6865     55.21015     123.9029        10     1.242     0.608 -39.13   0
        24    924.2433    992.1032 307.5279899  +6.2902631     7309.923     13312.77     14498.86     78.51498     156.5945     313.3759      1.951     4.23     856.0185     55.21015     885.7451        48     1.753     1.274 -34.20   0
        25    555.6259    991.5396 307.6810443  +6.2781959     7802.657      12754.9     14133.92     78.14139     156.6568     313.0956      1.768     4.13     861.1269     55.21015     1010.472        40     1.629     1.073 -38.96   0
        26    897.8702    988.3076 307.5390657  +6.2909516     10514.43     19125.94     21011.38     78.51498     156.7813     313.2202      1.961     4.35     856.1065     55.21015     1145.385        54     1.800     1.283 -34.04   0
        27   1019.6010    987.7099 307.4885465  +6.2952514     3701.112      7164.79     7602.791     77.76601     156.1579     290.9738      2.006     4.34      852.814     55.21015      420.113        38     1.667     1.288 -34.28  24
        28    610.7084    988.7001 307.6582716  +6.2812089     1247.812     2121.835     1954.206     78.51498       157.03     313.1891      1.780     5.16     860.9666     55.21015     168.4869        18     1.488     0.873 -33.33   0
        29      8.3518    989.9559 307.9082901  +6.2605066      523.403     810.0733     821.2909     78.51498     156.5945     312.8774      1.569     3.71     854.3452     55.21015     102.2927         5     0.989     0.572 -19.96   0
        30    541.9030    987.2995 307.6868833  +6.2794876     3852.148     6487.418     7103.925     78.51498     157.1541     313.0645      1.808     4.55     860.9523     55.21015     452.9799        33     1.756     1.012 -30.35   0
        31    651.8156    986.5478 307.6412776  +6.2834706     1314.087     2138.089     2599.394     77.89133     156.7191     312.9398      1.773     4.16     860.2566     55.21015     202.2489        15     1.348     0.699 -33.36   0
        32     76.3289    985.8594 307.8802093  +6.2644815     750.1167     1365.583     947.9394     78.63911     156.6568     313.2825      1.880     5.67     855.1987     55.21015     110.6867         9     1.642     0.552 -57.93   0
        33    495.1318    983.8408 307.7064162  +6.2793515     2089.938     3235.496     3025.547     78.39064     156.5945     313.3136      1.669     4.30     860.3808     55.21015     311.3466        22     1.392     0.922 -30.78   0
        34    929.5945    975.8882 307.5263088  +6.2971357     36783.22     66966.33     72557.88     78.01646     156.3452      312.971      1.951     4.30     855.4194     55.21015      4119.17        82     1.845     1.394 -36.02   0
        35      2.6988    975.4764 307.9111239  +6.2662942     2929.352     4449.594      4788.34     78.14139     142.9165     256.9355      1.618     4.18     853.9554     55.21015     336.8134        23     1.423     0.938 -48.92  24
        36    237.1138    974.1717 307.8138552  +6.2747022     1576.039     2747.648     3056.563     78.63911     156.3452     313.0645      1.933     5.38     858.2935     55.21015     208.3717        21     1.675     0.782 -32.31   0
        37    125.0536    972.7551 307.8604227  +6.2715274     671.4227     1027.629     974.8268     78.51498     156.6568     313.2513      1.552     4.36     855.5156     55.21015     117.8776         6     0.903     0.600 -38.10   0
        38    636.2308    972.2703 307.6482250  +6.2888446      842.243     1373.043     1516.885     78.39065     156.6568     313.1891      1.934     4.49     859.9648     55.21015     114.0754        11     1.211     0.679 -12.18   0
        39    827.6735    969.4343 307.5688389  +6.2964040     2091.776      3685.97     4129.135     78.39065     156.5945     313.2202      1.982     4.47     856.4352     55.21015     261.6301        26     1.553     1.032 -33.25   0
        40    775.7841    967.5417 307.5904451  +6.2954550     5930.965     10299.85     11865.12     77.89133     156.5945      312.971      1.890     4.35      857.122     55.21015     704.1543        43     1.801     1.117 -43.18   0
        41    562.2386    966.6900 307.6791304  +6.2886760     851.9126      1321.21      1221.87     78.51498     156.5945     313.2513      1.679     6.52     860.3336     55.21015     113.9433        14     1.464     0.815 -47.54   0
        42    245.3625    966.7800 307.8106789  +6.2780304     1439.348     2403.005     2322.089     78.14139     156.4075      312.971      1.859     4.28     858.1487     55.21015     186.1379        17     1.337     0.914 -33.61   0
        43    209.8593    965.7465 307.8254524  +6.2772664     711.7606     1234.068     1503.286     78.63911     156.5945     313.2202      2.056     5.03     857.2905     55.21015     123.7222         9     1.371     0.627 -46.54   0
        44     70.3194    964.7049 307.8834151  +6.2730129     2586.195     4115.027     4246.509     78.26611     156.9057     313.3136      1.742     4.65     854.7347     55.21015      340.129        22     1.513     0.904 -35.44   0
        45    963.9656    962.6110 307.5124812  +6.3037619     5663.215      10544.8     11096.67     78.01646     156.4699     313.0333      1.968     4.38     854.2356     55.21015      653.791        42     1.738     1.228 -37.41   0
        46    219.4463    958.9039 307.8217021  +6.2804129     701.0885     1099.677     1043.163     78.51498     156.5945     313.3759      1.543     5.49     857.3026     55.21015     116.3422        11     1.470     0.578 -47.86   0
        47    646.3534    956.9437 307.6445349  +6.2955102      758.315     1268.012     782.2828     78.51498     156.6568     313.3136      1.539     4.89     859.3177     55.21015     112.4763         9     1.079     0.627 -37.05   0
        48    937.7958    954.3282 307.5236224  +6.3063101     1801.603     3165.284     3117.511     78.14139     156.2828     313.0645      1.847     5.06      854.546     55.21015     197.6696        21     1.486     0.978 -24.50   0
        49    797.2952    950.6344 307.5820786  +6.3031526     1253.039     2172.728     2985.171     78.63911     156.5322     313.3136      2.048     5.65     856.4406     55.21015     144.0367        17     1.436     0.835 -48.42   0
        50    658.4178    950.2868 307.6397486  +6.2986615     4205.338     6888.488     7005.973     78.26611     156.4075     313.0956      1.751     4.07     858.9586     55.21015      533.845        28     1.566     0.960 -41.25   0
        51    270.5887    950.4548 307.8007542  +6.2856158      4331.38     6994.807     7136.005     77.89133     156.5945     312.9086      1.727     3.90     857.9927     55.21015     545.5865        28     1.525     1.027 -36.94   0
        52    480.6706    948.7086 307.7135961  +6.2933719     1089.473     1747.044     1701.226     78.39065     156.7813     313.2202      1.749     3.79     859.6682     55.21015     152.5764        12     1.162     0.659 -45.34   0
        53     39.3931    947.9765 307.8968161  +6.2788800     2095.766     3437.616     3625.083     78.01646     156.4699     313.0645      1.699     4.72     853.9403     55.21015     291.2927        20     1.569     0.806 -39.41   0
        54    890.9138    946.5728 307.5433456  +6.3079502     789.8228     1304.855     1248.141     78.63911     156.3452     313.0956      1.832     5.31     855.3458     55.21015     101.6188        10     1.028     0.774 -66.95   0
        55    961.5043    944.2478 307.5141150  +6.3112613     701.0754     1304.243     1624.385     78.39065     156.5322     313.3759      1.823     5.20     853.9233     55.21015     89.33405         8     1.211     0.630 -77.13   0
        56   1014.1438    942.7811 307.4923086  +6.3136190     688.9948     1278.804     1500.197     78.01646     156.5945     313.0333      2.237     5.04     853.2185     55.21015     109.1529         7     1.201     0.653 -67.91   0
        57    583.3766    942.6420 307.6711591  +6.2993107     1568.808     2390.916     2843.792     78.14139     156.5322     313.0021      1.709     4.96       859.39     55.21015     209.3734        17     1.426     0.795 -50.72   0
        58    306.8394    943.6273 307.7859337  +6.2896495      811.712       1195.4     1678.751     78.14139     156.4699     313.0956      1.480     5.70     858.4774     55.21015     134.6489        10     1.334     0.686 -39.70   0
        59     72.1570    939.9742 307.8834837  +6.2832842     766.3515      1506.56     2057.019     78.14139     156.6568     313.0956      2.316     5.92      854.313     55.21015     99.69934         9     1.232     0.800 -51.04   0
        60    622.7288    938.7972 307.6549498  +6.3022129     1277.555     2034.842     2016.636     78.01646     156.2828     313.0645      1.688     4.80     858.8885     55.21015       193.71        15     1.191     1.027  11.01   0
        61    302.5351    936.8311 307.7879487  +6.2923109      1387.16     2060.661     2450.479     78.26611     156.7191     313.1579      1.549     4.35     858.2136     55.21015     191.9208        13     1.294     0.789 -37.39   0
        62    769.0442    933.3627 307.5943845  +6.3093410     711.8571     1230.099     615.2087     78.26611     156.6568     313.0956      1.697     5.16     856.8555     55.21015     111.7882         9     1.411     0.533 -34.92   0
        63    906.6497    929.4785 307.5373822  +6.3155319     6390.259     10958.35     11399.15     78.51498     156.7191     313.2202      1.820     4.13     854.5165     55.21015     757.4272        41     1.690     1.185 -35.55   0
        64    442.5442    926.8955 307.7301554  +6.3011016     2087.345      3487.24     3968.771     78.39064     156.6568     313.4381      1.830     4.99     859.2448     55.21015     252.2722        21     1.535     0.917 -38.27   0
        65    344.2103    925.0393 307.7710423  +6.2985754     8969.981     14598.41     15136.63     77.89133     156.4699      312.971      1.737     4.20     858.8743     55.21015     1237.496        43     1.738     1.033 -38.40   0
        66    264.2181    924.0038 307.8042865  +6.2963222      6691.71     10782.92     11367.03     78.14139     156.2204     313.0333      1.693     3.97     857.0828     55.21015     946.8413        35     1.620     1.005 -39.65   0
        67    592.6256    918.3729 307.6681310  +6.3096392     1149.978     1678.624     1859.224     78.01646     156.4699     313.0645      1.504     4.53     858.5489     55.21015     173.5322         9     1.135     0.545 -41.90   0
        68    922.4291    914.8290 307.5313192  +6.3221057      861.309     1459.045     1572.065     78.01646     156.4075      312.971      2.060     5.99     853.9629     55.21015       116.09        12     1.459     0.692 -39.09   0
        69    225.7368    914.4094 307.8205843  +6.2989928     656.4869     1000.987     1143.191     78.01646     156.4699     313.0021      1.829     5.59     856.2437     55.21015      97.5495         8     1.114     0.790 -44.11   0
        70    153.9563    914.9908 307.8503648  +6.2963445     537.0361     711.5811     1125.637     78.01646     156.4699      312.971      1.520     4.96     854.9364     55.21015      94.6546         6     1.159     0.600 -30.37   0
        71    758.7173    907.9000 307.5995223  +6.3195088     1586.016     2600.789     2637.307     78.51498     157.1541     313.3136      1.726     4.62     856.6401     55.21015     203.0134        20     1.459     0.933 -40.08   0
        72    582.6065    908.2495 307.6726293  +6.3134838     712.5158     1127.146     867.9819     78.01646     156.4699     312.8463      1.639     5.69     858.4044     55.21015     122.9394         8     1.262     0.723 -37.00   0
        73    851.7451    908.2047 307.5608878  +6.3224853     614.7897      848.768      864.096     77.89133     156.4699     312.9086      1.471     4.02     855.3776     55.21015     98.14514         6     0.813     0.568 -40.25   0
        74      9.3333    904.8259 307.9107465  +6.2956837     982.5205     1679.026      1768.24     78.14139     156.5322     313.1268      1.753     6.24     852.3151     55.21015     117.5345        15     1.357     0.806 -42.77   0
        75    633.6793    904.7356 307.6515423  +6.3166410     525.6469     726.4034     409.4925     78.76305     156.7191     313.1891      1.382     3.51     858.0482     55.21015     98.39026         5     1.198     0.296 -35.92   0
        76    622.8217    904.3387 307.6560635  +6.3164421     835.9379     1265.739     1454.291     78.14139     156.6568     313.1268      1.725     3.84     858.0853     55.21015     144.3073        10     1.169     0.707 -52.11   0
        77    989.7600    903.5732 307.5037387  +6.3289947     1103.097     1626.963     2120.751     78.14139     156.4699     313.0333      1.604     4.59     852.3658     55.21015     142.6078        12     1.178     0.700 -41.93   0
