#   1 NUMBER                 Running object number                                     
#   2 X_IMAGE                Object position along x                                    [pixel]
#   3 Y_IMAGE                Object position along y                                    [pixel]
#   4 ALPHA_J2000            Right ascension of barycenter (J2000)                      [deg]
#   5 DELTA_J2000            Declination of barycenter (J2000)                          [deg]
#   6 FLUX_APER              Flux vector within fixed circular aperture(s)              [count]
#   9 FLUXERR_APER           RMS error vector for aperture flux(es)                     [count]
#  12 FLUX_RADIUS            Fraction-of-light radii                                    [pixel]
#  13 FWHM_IMAGE             FWHM assuming a gaussian core                              [pixel]
#  14 BACKGROUND             Background at centroid position                            [count]
#  15 THRESHOLD              Detection threshold above background                       [count]
#  16 FLUX_MAX               Peak flux above background                                 [count]
#  17 ISOAREA_IMAGE          Isophotal area above Analysis threshold                    [pixel**2]
#  18 A_IMAGE                Profile RMS along major axis                               [pixel]
#  19 B_IMAGE                Profile RMS along minor axis                               [pixel]
#  20 THETA_IMAGE            Position angle (CCW/x)                                     [deg]
#  21 FLAGS                  Extraction flags                                          
         1     69.1422     24.1430 307.9002079  +6.6509950     3259.718     10683.33     13900.59      87.4278     174.2339     348.2603      3.000     8.31     1064.585     61.38043     409.9049        70     2.456     1.881 -32.62   0
         2    398.3638     24.8807 307.7631691  +6.6616721     1044.383     2817.366     4080.431     87.15157     174.2339     348.2256      3.143     7.94     1051.836     61.38043     131.8425        18     1.892     0.931 -33.20   0
         3    611.6177     15.5404 307.6747298  +6.6726243     5991.528     20540.47     27989.08     86.87446     174.0262     347.9485      3.067     7.99     1043.637     61.38043     660.8578        89     2.511     2.036 -33.73  16
         4    511.7047     11.8868 307.7164370  +6.6708124     1889.871     5894.152      8041.37     87.28979     174.5796     348.2949      3.041     8.60     1046.701     61.38043     216.3829        60     2.348     1.791 -21.92  16
         5    237.5162      8.0654 307.8306807  +6.6632583     2940.404     10374.29     15930.86      87.4278     174.4414     347.0117      3.769    12.29     1061.494     61.38043     376.5781        91     3.322     1.992 -31.73  18
         6    417.0230      7.4333 307.7559937  +6.6695015     6868.571     25001.27     35126.43     86.73557      173.957     343.0634      3.176     8.34     1050.963     61.38043     853.7333       103     2.654     2.132 -31.07  16
         7      3.6347      8.4082 307.9280041  +6.6553058     930.3599     2482.746     2786.151     86.73557     168.8932     299.8181      2.499     8.83     1065.314     61.38043     114.1545        17     1.611     1.351 -46.40  24
         8    597.7810      6.0404 307.6808095  +6.6760894     1204.966     3790.815     5736.053     86.87446      173.957     330.5711      3.190     9.74     1043.782     61.38043     151.6409        35     1.996     1.675 -38.37  16
         9    893.7388      7.3142 307.5575855  +6.6853827     747.5295      1995.52     2941.216      87.4278     174.3031     342.3598      2.100     4.31     1036.821     61.38043     107.3005         7     1.501     0.352  23.57  16
        10    226.0837      4.6993 307.8355528  +6.6642675     1089.196     3554.503     5520.308     87.28979     174.7177     315.0724      4.055    10.89     1061.732     61.38043     134.5505        23     2.171     1.522  31.19  19
        11    693.9529    995.9155 307.6074107  +6.2703194     4591.386     10056.13     11300.52     87.28979     174.1647     348.2603      2.312     5.41     1098.723     61.38043     500.8789        49     1.987     1.411 -24.98   0
        12    590.3456   1023.4011 307.6495718  +6.2555250      499.236     780.3521     628.5846     79.02596     142.6564      266.524      1.471     4.20     1099.373     61.38043     108.2906         5     1.211     0.415 -13.27  24
        13    211.1530   1023.6243 307.8072529  +6.2428176     641.3344     1075.224     1224.166     76.23045     139.0616     262.6968      1.701     2.90     1099.372     61.38043     133.9294         5     0.754     0.420 -22.62  24
        14    550.2278    995.2377 307.6672053  +6.2658282     2465.075     5729.514     7339.363     86.73557     173.8876     348.0525      2.571     5.81     1098.425     61.38043     267.6338        44     1.894     1.510 -31.33   1
        15    686.3801    994.4789 307.6106085  +6.2706617     829.8339     1616.989     2552.213     86.87446     173.8183      348.191      3.175     5.84     1098.595     61.38043      131.374         9     1.145     0.840 -68.95   0
        16    724.8667    991.0192 307.5947192  +6.2733676     846.6723     1556.599     2417.427     86.87446     174.1647     348.1218      2.215     4.75     1098.384     61.38043     141.7528         7     1.021     0.629 -21.55   0
        17    933.2644    985.2194 307.5082443  +6.2826679     4993.347     9848.224     11211.53     86.87446     174.1647     348.0525      2.134     4.79     1094.778     61.38043      604.774        43     1.824     1.300 -26.42   0
        18    218.3263    986.5267 307.8055255  +6.2583830      773.135     1448.513     919.8899      87.5656     174.4414     348.2949      1.922     5.73     1098.591     61.38043     86.19324         9     1.205     0.768 -25.70   0
        19    692.6552    983.5071 307.6083684  +6.2754029     1910.894     4481.938     5745.592     87.15157     174.0955     348.3987      2.960     7.79     1097.981     61.38043     209.1399        41     2.171     1.423 -19.48   0
        20    415.6665    984.3036 307.7235345  +6.2658723     736.8596     1499.048     1600.094     87.28979     174.2339     348.2603      1.890     4.33     1098.366     61.38043     102.4976         7     1.218     0.438 -29.08   0
        21    340.1718    980.8994 307.7550452  +6.2647665     1121.248     2661.607     2746.285     87.28979     173.8876      348.191      2.305     7.56     1098.776     61.38043     123.0658        18     1.765     0.907   4.99   0
        22    726.8267    970.4910 307.5945954  +6.2819139     4929.972     10745.15     12675.87      87.4278     173.8876     348.0525      2.361     5.39     1096.761     61.38043     553.2668        52     2.103     1.396 -28.04   0
        23    522.5578    971.4383 307.6795156  +6.2747414     2359.116     5592.858     6702.521     87.01312     174.1647     348.0871      2.463     6.08     1098.124     61.38043     252.2367        38     1.783     1.476 -40.90   1
        24    272.6105    970.2795 307.7835007  +6.2669041     8079.179     19832.46      24786.4     86.87446     173.8876     348.0871      2.626     6.06     1098.514     61.38043       833.05        80     2.299     1.717 -24.88   0
        25    492.3235    971.7405 307.6920791  +6.2736117     681.1263     1092.999     740.5142      87.4278     174.2339      348.191      1.601     5.51     1098.403     61.38043     84.23523         8     1.388     0.617  -8.24   0
        26    787.0797    969.8641 307.5695578  +6.2841704     706.7697     1328.371     1235.641     87.56559     174.2339      348.191      2.223     6.17     1094.985     61.38043     113.7812         8     1.385     0.772 -41.24   0
        27    396.0118    969.7640 307.7321994  +6.2712254     530.5201     828.9926     1171.946     86.73557      173.957     347.8792      1.749     3.92     1098.359     61.38043     81.49121         5     0.857     0.513 -49.84   0
        28    887.9941    963.8594 307.5277900  +6.2899943     6068.107     12596.08     14230.41     86.73557     174.0262     347.9832      2.194     5.11      1093.71     61.38043     671.4436        52     1.964     1.362 -33.40   0
        29    519.5328    963.6007 307.6810381  +6.2778790     4409.081        10880      13550.7     86.45712     173.6795     347.9485      2.540     5.98     1098.004     61.38043     450.7964        56     2.049     1.613 -31.79   0
        30    861.5478    960.0801 307.5389161  +6.2906800     8518.296     17848.58     20354.86     87.28979     174.1647     348.2256      2.260     5.10     1093.543     61.38043     940.8015        59     1.987     1.448 -26.21   0
        31    983.1276    959.4717 307.4883714  +6.2949555     3730.016     7209.618     7840.354     87.56559     174.3031     348.2256      2.057     5.03     1092.012     61.38043      500.286        37     1.818     1.156 -31.62   0
        32    505.8844    959.4705 307.6868536  +6.2791318     2220.277     5553.765     6633.944      87.4278     174.4414     348.2603      2.574     6.77     1098.004     61.38043     239.7773        44     2.086     1.416 -16.71   0
        33    575.0891    960.1349 307.6580501  +6.2811566     765.3384      1704.81     1370.212     87.28979     174.3723     348.2603      2.111     5.07     1097.692     61.38043     122.2732         8     1.328     0.826 -84.70   0
        34    615.4832    957.9841 307.6413233  +6.2833865     855.7345     1706.579     1353.455     86.87446     173.8183     348.1218      2.021     7.82     1097.502     61.38043      96.0946        14     1.457     1.174  81.64   0
        35    459.0213    955.6842 307.7064709  +6.2791381     1127.005     2578.369     2681.071     87.01312     173.8183     348.1218      2.264     8.52     1098.124     61.38043     128.0645        23     1.858     1.092 -28.12   0
        36    893.3776    947.6249 307.5260968  +6.2968799     29116.73     61023.11     68978.86     86.73557      173.957      348.191      2.229     5.03     1092.691     61.38043      3546.33        89     2.111     1.521 -28.74   0
        37    200.7319    946.2525 307.8142056  +6.2744352     927.5015     2263.865     2592.415     87.15157     174.0955     348.1564      2.364     7.18     1097.126     61.38043     112.5271        16     1.314     1.098 -48.00   0
        38    791.2455    941.5106 307.5687795  +6.2960228     1663.829     3714.673     4172.585     87.28979     174.0262     348.3641      2.341     5.69     1093.286     61.38043     216.0388        31     1.807     1.218 -27.15   0
        39    739.4755    939.3890 307.5903821  +6.2951831     3877.104     8804.688     10798.01     86.87446     173.8183     348.0179      2.447     5.89     1094.084     61.38043     430.2504        50     2.047     1.471 -27.52   0
        40    209.1286    938.7531 307.8109675  +6.2778134     941.9005     1726.828     2049.447     87.28979     174.1647     348.2256      2.084     6.54     1097.084     61.38043     122.6161        12     1.241     0.995  29.94   0
        41     33.8811    937.3308 307.8838949  +6.2725543     1463.418     3843.777     3960.396     87.56559     174.4414     348.2603      2.532     8.57     1094.053     61.38043     161.2594        34     1.917     1.433 -26.09   0
        42    927.6332    934.4821 307.5122915  +6.3034439     4752.598     9659.771     10298.88     87.28979     174.0955     348.1564      2.173     4.92     1091.735     61.38043     559.5742        47     1.854     1.383 -27.37   0
        43    901.5104    926.1223 307.5234373  +6.3060331     1594.409     2931.691     3381.363     87.01312     174.4414     348.3641      1.988     5.83     1091.406     61.38043     206.7269        24     1.709     1.045 -33.06   0
        44    234.5306    922.7315 307.8009457  +6.2852792     2148.032     5750.699     6752.665     87.28979     174.3031      348.191      2.594     7.11     1097.104     61.38043     242.8358        48     2.013     1.655 -27.50   0
        45    622.2344    922.1417 307.6397239  +6.2984189     2633.953     6412.701     7381.195     87.15157     174.1647     348.1564      2.488     6.51     1096.019     61.38043      276.015        43     1.963     1.453 -25.09   0
        46    760.2202    922.0724 307.5823374  +6.3030254     766.8905     1906.813     2549.405     86.87446     174.0262      348.191      3.001     4.62     1092.764     61.38043     109.6184         7     1.111     0.927  -2.28   2
        47    971.7732    922.0018 307.4943526  +6.3100608     608.8968     1068.096     1668.606     86.73557     173.8183     347.9832      1.810     4.42     1090.489     61.38043     117.3396         6     1.073     0.517  -9.56   0
        48      3.5401    920.5120 307.8970828  +6.2784894     1176.187     2790.306     3134.158     87.28979     168.3212     298.7708      2.513     8.33      1093.63     61.38043     166.2108        20     1.769     1.226 -18.15  24
        49    443.5670    919.6444 307.7141151  +6.2935138     671.4149     1204.453     1296.738     86.87446     174.0955     348.0871      1.805     4.95     1097.546     61.38043     83.76099         6     0.992     0.699 -22.42   0
        50    855.1501    917.3625 307.5430137  +6.3081170     629.1098     1242.138     1544.064     87.01312     174.0262     348.0525      1.863     3.48     1091.368     61.38043     104.5869         5     0.823     0.425  18.59   0
        51    977.7528    914.0590 307.4921324  +6.3135403     672.1381     1609.718     1598.074     87.28979     174.1647     348.3295      2.551     6.08     1090.052     61.38043     93.41089         9     1.641     0.633 -46.93   0
        52    546.6793    914.5828 307.6714021  +6.2990326     722.9174     1799.319     2059.902     86.87446     173.8183     348.1564      2.613     4.84     1096.815     61.38043     104.9559         5     1.156     0.575  29.80   0
        53    266.2259    908.0438 307.7882613  +6.2924034     783.1618     1639.947     1701.268     86.87446     174.2339     348.0871      2.176     5.90     1097.322     61.38043     93.23364         7     1.307     0.748   8.09   0
        54    870.3439    901.3165 307.5372341  +6.3152497     4323.562     9456.812        10085     87.28979     174.1647     348.3295      2.249     5.47      1090.84     61.38043     530.3738        45     1.940     1.340 -34.67   0
        55    734.9658    904.0171 307.5934489  +6.3096476     480.3463     999.1478     987.7744     86.87446      173.957     348.0525      1.948     3.70     1092.598     61.38043     85.02332         5     1.022     0.385  57.83   0
        56    406.3739    898.6409 307.7302930  +6.3009541     1052.308     2643.782      3023.77     86.87446      173.957     348.0179      2.416     8.03     1097.315     61.38043     118.9489        21     1.798     1.176  61.72   0
        57    308.1325    897.2643 307.7711975  +6.2982527     4676.573     12160.75     14898.42     87.28979     174.1647     348.2603      2.657     6.46     1097.384     61.38043     452.0231        65     2.237     1.669 -32.79   0
        58    228.3505    896.3181 307.8044099  +6.2959856      3342.71     8833.956     10296.84     87.28979     174.1647     348.2603      2.651     6.72     1096.755     61.38043     346.6819        55     2.048     1.706 -29.95   0
        59    555.8047    890.6375 307.6684147  +6.3092286     498.3404     1308.288     2006.091     86.31757     173.8876     347.9485      1.565     3.57      1096.05     61.38043     110.6814         5     1.801     0.204  39.65   0
        60    886.9346    885.9226 307.5308513  +6.3221592     720.2888     1721.952     2129.956      87.4278     174.1647      348.191      2.520     7.69      1090.45     61.38043     97.47961         8     1.394     1.186  12.42   0
        61    722.0564    879.7337 307.5996360  +6.3192521     1018.534     2429.352     2816.695      87.4278     174.0955     348.2256      2.477     7.83     1091.987     61.38043     139.5995        16     1.471     1.313 -49.59   0
        62    953.5784    875.2435 307.5034913  +6.3287773     793.2533     1743.487     2245.742     86.73557     174.0262     348.0179      2.031     6.81     1089.286     61.38043     100.0934        10     1.830     0.710 -40.60   0
        63    640.9218    872.9139 307.6336112  +6.3193777     1207.288     2786.427     3149.496     87.28979     174.5105     348.3295      2.432     7.34     1092.898     61.38043     139.7964        23     1.657     1.239 -52.41   0
        64     37.7676    869.6752 307.8845727  +6.3006346     1329.548     3503.997     3823.705     87.15157     174.1647      348.191      2.585     8.92     1094.042     61.38043     157.5966        31     1.701     1.598 -51.54   0
        65     55.7788    869.1856 307.8770988  +6.3014383     957.2269     2336.594     2459.895     87.01312     173.8876     348.1218      2.416     7.80     1094.058     61.38043       114.23        16     1.513     1.126  35.47   0
        66    181.3871    868.3387 307.8248887  +6.3059793     985.3058     2585.149     2951.465     86.73557      173.957     347.9139      2.414     8.44     1095.535     61.38043     130.0278        19     1.531     1.300  27.09   0
        67    635.7708    862.0688 307.6361192  +6.3236873     3423.263     8678.242     10932.43     87.01312     174.1647     348.1564      2.674     6.54      1092.38     61.38043     376.5165        59     2.269     1.635 -25.62   0
        68    873.2079    858.2746 307.5374904  +6.3331275     1762.137     3812.158      4376.06     86.87446     173.6795     348.0525      2.288     7.40     1089.517     61.38043     192.9052        28     1.852     1.176 -24.13   0
        69    318.8776    855.6050 307.7681375  +6.3158216     7079.403     20268.48     26134.78     86.87446     173.6101     348.0179      2.810     6.72     1096.582     61.38043     678.7379        77     2.309     1.828 -24.89   0
        70     53.5721    856.0418 307.8784622  +6.3067947     654.1343     1420.268      1664.69     86.87446     174.0955     348.0871      2.272     4.12     1093.642     61.38043     85.91064         5     0.780     0.622  -6.26   0
        71     82.8763    846.2003 307.8666086  +6.3118389     817.2552     2002.125     2292.687     86.45712     173.4711     347.9832      2.583     8.18     1093.513     61.38043     104.9514        15     1.645     1.138  42.34   0
        72     66.1955    840.0078 307.8737559  +6.3138403     1168.835     3081.785     4231.875     86.59646     173.8183     348.0525      2.973    10.70      1093.11     61.38043     134.6068        28     2.103     1.516 -53.64   0
        73    863.2535    839.8784 307.5422496  +6.3403983       1070.1     2382.529     2854.081      87.4278     174.1647     348.2603      2.260     8.44     1088.512     61.38043     144.1375        17     1.672     1.189 -31.20   0
        74    834.2381    839.1441 307.5543429  +6.3397405     1164.233     2839.177     3354.309     87.28979     174.2339     348.2603      2.598     7.44     1088.631     61.38043     153.2177        22     1.598     1.403 -63.40   0
        75    797.9274    838.8631 307.5694553  +6.3386534      1685.66     4080.905     4297.649     87.28979     174.1647     348.2949      2.408     6.92     1088.868     61.38043     202.2059        33     1.896     1.302 -33.20   0
        76    533.8131    830.5814 307.6795878  +6.3333099     150324.9     409717.3     508218.2     87.01312     173.8183     348.1218      2.730     6.51     1093.898     61.38043     14480.35       200     2.456     1.983 -29.17   0
        77    378.2458    833.2365 307.7442019  +6.3270394     3436.155     9197.406     11297.07     87.01312     174.1647     348.1218      2.698     6.70      1095.58     61.38043     341.8763        64     2.156     1.818 -24.52   0
