#   1 NUMBER                 Running object number                                     
#   2 X_IMAGE                Object position along x                                    [pixel]
#   3 Y_IMAGE                Object position along y                                    [pixel]
#   4 ALPHA_J2000            Right ascension of barycenter (J2000)                      [deg]
#   5 DELTA_J2000            Declination of barycenter (J2000)                          [deg]
#   6 FLUX_APER              Flux vector within fixed circular aperture(s)              [count]
#   9 FLUXERR_APER           RMS error vector for aperture flux(es)                     [count]
#  12 FLUX_RADIUS            Fraction-of-light radii                                    [pixel]
#  13 FWHM_IMAGE             FWHM assuming a gaussian core                              [pixel]
#  14 BACKGROUND             Background at centroid position                            [count]
#  15 THRESHOLD              Detection threshold above background                       [count]
#  16 FLUX_MAX               Peak flux above background                                 [count]
#  17 ISOAREA_IMAGE          Isophotal area above Analysis threshold                    [pixel**2]
#  18 A_IMAGE                Profile RMS along major axis                               [pixel]
#  19 B_IMAGE                Profile RMS along minor axis                               [pixel]
#  20 THETA_IMAGE            Position angle (CCW/x)                                     [deg]
#  21 FLAGS                  Extraction flags                                          
         1     15.8618     29.4404 307.9281984  +6.6688988     3941.546     10505.03     13374.27     90.93178     181.4314     362.7907      2.784     6.63     1184.129      63.9414     426.9589        63     2.211     1.735 -46.62   0
         2    311.3220     24.5782 307.8054470  +6.6807875     5341.151     15691.12     19691.15     90.49911     181.1427     362.7546      2.818     6.97     1178.991      63.9414     596.0798        72     2.301     1.845 -38.33   0
         3    377.6019     22.4288 307.7779457  +6.6838874     943.1393     2697.519     2685.334     90.35443     181.1427     362.5381      2.576     9.80      1171.42      63.9414     129.6711        21     1.732     1.545   8.06   0
         4    630.0359     13.0478 307.6732416  +6.6961733     3944.646     11401.08     15023.13     90.64356     181.4314     362.6464      2.897     7.68     1157.082      63.9414      389.182        69     2.441     1.791 -33.09  19
         5    638.2860     17.6429 307.6696521  +6.6945505     4598.934     13343.46     16453.27     90.93178     181.2871     362.7546      2.819     6.95     1156.977      63.9414      496.939        68     2.244     1.831 -40.37   3
         6    639.4641      9.2295 307.6694494  +6.6980637     1453.019     3919.345     5492.896     90.64356     181.4314     362.6825      2.986     9.06     1156.786      63.9414     158.6183        33     1.700     1.553 -62.60  19
         7    802.5595     17.6813 307.6013030  +6.6999966     837.1666      2197.85     2838.632     90.93178     181.4314     362.6825      2.924     7.85     1150.522      63.9414     105.1171        12     1.608     1.073 -58.42   0
         8    238.5470     14.8360 307.8360577  +6.6823790      2783.72     8272.188     10968.62     90.78778     181.4314     362.7907      2.962     7.71     1181.659      63.9414      329.106        59     2.263     1.743 -34.07   0
         9    399.8200     13.4816 307.7690084  +6.6883231     3355.519       9789.1     12149.51     90.64356     181.0705     362.6825      2.824     7.43     1169.985      63.9414     389.9349        62     2.282     1.801 -30.22  16
        10    661.8331     10.7918 307.6600891  +6.6981629     7502.756     21445.68     32093.17     90.35442     181.2149     362.5381      3.150     8.26     1156.248      63.9414     707.6003       101     3.045     1.805 -36.01  16
        11    714.9182     12.4385 307.6379463  +6.6992486     886.5758     2038.845     2659.194     90.93178     181.5035     362.6825      2.846     7.93     1153.196      63.9414     102.9556        14     1.456     1.209 -26.02   0
        12     46.2144      6.7706 307.9163502  +6.6792754     1280.972     3713.645     4364.882     90.49911     181.1427     351.9171      2.661    10.88     1181.782      63.9414     149.2567        32     2.175     1.517 -36.58  16
        13    137.1076      4.2234 307.8786238  +6.6833692     2193.121     5999.985     7540.763     90.93178     180.3465     321.5738      2.793     7.18     1181.204      63.9414     285.0981        49     2.175     1.570 -42.39  24
        14     43.3944    991.0182 307.8837384  +6.2727863     1886.578     4232.646     4552.359     90.49911     180.9982     362.5742      2.210     6.46     1209.462      63.9414     191.9858        30     1.642     1.316 -32.09   0
        15    797.0433   1023.4788 307.5693266  +6.2844975     736.6047     1146.292     814.3647     81.68498     147.4595     276.4636      1.506     4.58     1212.603      63.9414     156.7235         6     0.985     0.604 -28.63  24
        16    736.5533   1023.2559 307.5944816  +6.2825806     4107.234     6198.423     6406.838     84.51883     151.0534     280.5971      1.596     4.70     1212.539      63.9414      689.772        24     1.643     0.824  -8.34  24
        17    532.0250   1023.4307 307.6795025  +6.2757072     1600.037     2557.825     3465.773     81.84499     148.0792     277.2197      1.849     4.96     1212.276      63.9414     309.7854        13     1.409     0.709   4.88  27
        18    528.7270   1017.2225 307.6810854  +6.2781609      5367.69     11206.14     13548.21     90.49911     181.2149     359.7487      2.302     5.50     1212.177      63.9414      593.292        49     1.979     1.382 -36.80  18
        19    282.3554   1022.9148 307.7833100  +6.2675992     8138.431      13617.6     15378.22     88.30398      156.582     286.9138      1.844     5.78     1213.399      63.9414     1092.704        40     2.017     1.004  -9.05  24
        20    937.0693    988.1708 307.5123138  +6.3037227     5578.104     10528.43     11331.04     90.64356     181.4314     362.6825      1.987     5.06     1208.219      63.9414     665.5507        40     1.825     1.138 -41.64   0
        21    911.0214    979.8284 307.5234269  +6.3063038     1534.212     3024.078      3615.49     90.20951     181.1427     362.6464      2.480     5.53       1207.9      63.9414     234.7511        19     1.604     0.883 -30.50   0
        22    631.5129    976.1803 307.6397548  +6.2985279     3202.373     6543.862     6790.995     90.64356     181.1427     362.6464      2.159     5.39     1210.996      63.9414     343.7067        36     1.807     1.283 -35.50   0
        23    244.0557    976.2986 307.8008269  +6.2855693     2745.184     6135.853     7256.059     90.78778     181.4314      363.007      2.360     5.88     1212.049      63.9414     302.1931        39     1.897     1.369 -33.87   0
        24    770.3547    976.6097 307.5820180  +6.3029646     848.6884     1776.875     1457.207     90.35443     181.2871     362.3938      2.058     5.42     1209.743      63.9414     162.1293         6     1.098     0.756  31.28   0
        25    452.0489    976.0524 307.7143682  +6.2926072     593.5063     1080.234     1654.255     91.07555     181.2871     362.7185      2.276     6.05     1211.265      63.9414     103.1693         7     1.443     0.713 -61.15   0
        26     12.7385    973.9988 307.8970658  +6.2787881     1398.072     3062.939     3405.012     90.20951     181.2149     362.3938      2.352     7.18     1209.013      63.9414     175.6143        22     1.697     1.306 -67.62   0
        27    555.6577    968.5330 307.6715515  +6.2991620     1042.493     2099.069     2293.417     91.07555     181.3593     362.7546      1.973     6.84     1211.333      63.9414     138.8904        16     1.731     0.758 -36.58   0
        28    987.9387    966.8096 307.4918910  +6.3142295     740.9826     1497.263     1654.864     90.20951     181.2871      362.466      2.269     7.15     1205.665      63.9414     125.1782        11     1.385     1.033 -41.23   0
        29     45.1731    965.7538 307.8838655  +6.2832775     531.8571     959.1773     1690.728     90.49911     181.5035     362.6464      2.061     4.49     1209.376      63.9414      79.7124         5     0.789     0.725  39.30   0
        30    597.3549    963.7689 307.6543790  +6.3025167     671.7203     1272.495     997.9609     90.49911     181.5035     362.6103      2.295     4.33     1210.965      63.9414      97.2915         7     0.974     0.548 -44.06   2
        31    275.5319    962.7933 307.7882040  +6.2921964     877.7448     2200.091     3062.745     90.35443     181.0705     362.5742      2.517     7.46     1211.712      63.9414     112.1356        15     1.439     1.082 -51.24   0
        32    879.6670    955.2058 307.5373001  +6.3154312      5202.57     10234.71     10822.06     90.35443     181.0705     362.5381      2.074     4.86      1206.81      63.9414     565.6976        41     1.836     1.203 -36.92   0
        33    317.5166    951.1902 307.7711469  +6.2983883     5879.426     13103.44     15148.63     90.49911     181.0705     362.5742      2.403     5.42     1211.523      63.9414     620.7766        60     2.101     1.506 -34.23   0
        34    415.6843    952.4250 307.7302934  +6.3011516     1250.578     2647.736     2937.218     90.78779     181.1427     362.6464      2.507     7.94     1210.823      63.9414     152.3101        20     1.728     1.085  -9.15   0
        35    237.5311    950.1459 307.8044346  +6.2961502     4322.333     9594.223     11004.66     90.93178     181.3593     362.6464      2.340     5.37     1211.253      63.9414     472.8707        50     1.919     1.483 -36.62   0
        36    896.2733    939.8521 307.5309182  +6.3223220     769.3379     1787.641     1859.896     90.93178     181.5035     362.7907      1.877     4.98     1205.421      63.9414     100.8446         8     1.798     0.391 -39.12   0
        37    731.7684    932.7693 307.5995537  +6.3197857     1083.699     2404.248     3033.989     90.35443     181.1427      362.466      2.346     7.38      1207.12      63.9414     127.6432        19     1.671     0.912 -22.78   0
        38    963.0311    928.7953 307.5035387  +6.3291012     1141.308     2301.793     3205.018     90.20951     181.2871     362.5021      2.237     6.32     1202.832      63.9414     135.0096        15     1.472     0.962 -20.99   0
        39    650.2996    926.4848 307.6336391  +6.3196730     1747.908     3662.581     4281.357     90.93178     182.0074     362.8628      2.389     5.29     1207.892      63.9414      188.776        27     1.507     1.301 -30.03   0
        40    517.4469    929.1430 307.6887820  +6.3141550     787.6182     1531.774     1823.407     90.93178     181.4314     362.8989      1.777     4.32     1210.875      63.9414     104.4087         7     1.136     0.468  42.13   0
        41     47.0809    923.4644 307.8845230  +6.3008027     2018.021     4249.689     4458.855     91.21908     181.5035     362.7185      2.286     6.23     1209.044      63.9414      234.178        33     1.798     1.375 -24.84   0
        42    190.7455    922.2574 307.8248396  +6.3061032     1367.176     3206.808     3852.467     91.07555     181.5035     362.7907      2.519     8.19     1210.312      63.9414     173.6558        23     1.603     1.200 -40.80   0
        43     64.6694    922.3833 307.8772482  +6.3018374     1256.727     2874.506     2777.739     90.35443     181.2871     362.6464      2.298     8.05      1209.06      63.9414     136.5732        23     1.738     1.170 -38.30   0
        44    644.9731    915.9601 307.6362125  +6.3238417     4228.581     9341.205     10693.92     90.49911     181.2149     362.5742      2.269     5.90     1207.716      63.9414     431.0842        44     2.006     1.310 -34.90   0
        45      4.8938    915.1521 307.9023461  +6.3028235     677.6498     1082.734     1441.866     90.78778     181.2871     330.8385      1.645     4.32     1208.707      63.9414     94.36902         5     1.062     0.501  39.19  16
        46    882.7526    912.1198 307.5374832  +6.3333250     2127.889     4248.007     4626.991     90.93178     181.4314     362.7546      2.111     5.63     1204.265      63.9414     216.5973        28     1.625     1.133 -35.49   0
        47    328.1751    909.3915 307.7681457  +6.3160030     9280.504     21690.47     25438.13     90.49911     181.2149     362.5742      2.448     5.69     1210.752      63.9414     953.4525        67     2.086     1.638 -33.58   0
        48     17.7241    912.6535 307.8970980  +6.3042845     937.4645     1644.101     1786.078     90.93178     181.4314     362.7546      1.752     6.15     1208.687      63.9414     129.4786        11     1.266     0.840   6.34   0
        49     62.7945    909.8336 307.8784580  +6.3069565     805.3925     1652.032     1443.604     90.20951     181.2149     362.5021      2.228     5.60     1208.748      63.9414     93.63525         8     1.204     0.733  12.99   0
        50    199.8170    908.6608 307.8215341  +6.3120204     813.2205     1577.644     1680.208     90.35442     181.3593     362.5381      2.010     6.34     1210.232      63.9414      129.548         8     1.193     0.945 -19.90   0
        51     91.8402    900.1162 307.8667162  +6.3119402     1191.395     2468.706     2596.323     90.93178     181.3593     362.6825      2.153     5.37     1208.608      63.9414     172.1398        14     1.275     1.056 -21.08   0
        52     75.2332    893.4292 307.8738495  +6.3141459     1608.975     3609.176      4449.46     90.35443     181.1427      362.466      2.545     6.00     1208.367      63.9414     198.6836        28     1.529     1.458 -82.43   0
        53    872.8870    893.8723 307.5422059  +6.3405325     1292.428     2674.045      2991.44     91.07554     181.7196     362.7546      2.066     7.36     1203.546      63.9414     162.1609        19     1.614     0.940 -19.06   0
        54    843.9165    893.3723 307.5542681  +6.3397777     1498.538     2968.964     2219.588     90.78778     181.1427     362.6825      2.055     6.27     1203.801      63.9414     226.4025        21     1.721     0.854 -38.63   0
        55    807.1051    892.7672 307.5695939  +6.3388057     1993.927     4297.221     5032.222     91.07555     181.2871     362.8628      2.228     6.34     1204.027      63.9414     198.5203        31     1.802     1.213 -31.06   0
        56    543.1934    884.3939 307.6796055  +6.3334899     192183.9     442720.6       518802     90.20951     181.2149     362.5742      2.443     5.65      1208.25      63.9414     19609.17       197     2.311     1.776 -35.40   0
        57    387.5160    887.0818 307.7442379  +6.3271939     4308.735     10147.13     11890.98     90.64356     181.7196     362.8268      2.484     5.79     1210.278      63.9414     427.3853        51     2.001     1.488 -30.31   0
        58    630.7578    887.9075 307.6430795  +6.3349525     793.3428     1684.922     1661.716     90.93178     181.4314     362.8628      2.005     5.65     1206.967      63.9414     92.61951         9     1.528     0.589 -81.73   0
        59    330.6811    885.5504 307.7679195  +6.3259309     7133.486     16653.52     19852.69     90.93178     181.5035     362.7907      2.529     5.74     1210.512      63.9414      709.125        62     2.094     1.602 -33.92   0
        60    881.3793    880.4188 307.5391327  +6.3463696     3797.315     7426.784     8407.258     90.64356     181.3593     362.6464      2.112     5.33     1202.609      63.9414     423.8467        38     1.856     1.185 -34.12   0
        61    649.0134    881.5174 307.6357073  +6.3381982     2148.322     4735.376     5319.567     90.49911     181.1427     362.5742      2.268     7.17     1206.317      63.9414     234.7345        36     2.040     1.217 -31.60   0
        62    623.7815    875.6035 307.6463997  +6.3398011     2027.934     4193.841     4933.133     90.49911     180.9259     362.5381      2.159     6.05     1206.548      63.9414     253.6881        28     1.786     1.126 -38.95   0
        63   1014.8558    874.4988 307.4838367  +6.3532393     3602.747     6854.125     7488.111     90.64356     181.4314      363.007      2.026     5.07     1198.027      63.9414     397.6501        34     1.766     1.127 -36.41  16
        64    813.1750    873.5996 307.5677228  +6.3469220     898.7495      1980.61     2132.837     90.49911     181.0705     362.5381      2.457     7.45      1202.64      63.9414     111.9532        13     1.548     1.003 -13.88   2
        65    616.0703    870.8732 307.6497671  +6.3414978     1277.552     3189.648     4081.373     91.07555     181.5756     362.7546      2.667     9.66     1206.429      63.9414     156.6013        32     2.225     1.294 -54.57   0
        66    939.2521    873.4285 307.5153080  +6.3511755     643.2506     1085.818     1242.854     90.64356     181.5756     362.6464      1.652     3.38     1201.089      63.9414     101.6096         5     0.766     0.432  22.48   0
        67    900.3967    868.1904 307.5316417  +6.3520499     2319.132     4860.994     5480.932     90.20951     181.0705     362.5742      2.185     5.68     1201.712      63.9414     294.1357        31     1.683     1.204 -24.40   0
        68    358.4436    864.3054 307.7571037  +6.3356292     1459.469       3477.8     4133.299     90.93178     181.3593     362.8989      2.511     9.50     1210.207      63.9414     159.3796        28     2.141     1.176 -14.65   0
        69    494.7477    853.9894 307.7007859  +6.3444314     1616.919     4008.474     4500.294     90.20951     181.2871      362.466      2.467     7.28     1208.322      63.9414     230.0065        32     1.847     1.270 -44.51   0
        70    839.5378    852.7735 307.5574707  +6.3563967      790.134     1298.818     1825.339     90.49911     181.3593     362.6464      2.022     5.44     1201.365      63.9414     102.5238         7     1.126     0.742 -52.26   0
        71    542.5208    850.0916 307.6810563  +6.3476315     3233.239     7901.395     10717.03     90.64356     181.7196     362.8268      2.889     9.96     1206.479      63.9414     345.5271        62     2.962     1.511  -9.71   0
        72    461.0000    848.9310 307.7149900  +6.3453960     630.7092     1223.162     1790.052     90.35442     180.8536     362.5021      2.325     3.84     1208.694      63.9414     94.84558         5     0.803     0.525  64.45   3
        73    458.6974    849.3896 307.7159317  +6.3451299     661.6896     1394.601      1961.49     90.64356     180.9982     362.5742      2.093     4.96     1208.722      63.9414     102.1956         6     1.324     0.525  74.89   2
        74    877.6926    847.8005 307.5417756  +6.3597163     988.7573     1913.474     1707.396     90.35442     180.9259     362.3577      2.051     6.29     1200.777      63.9414     128.3802        13     1.162     0.957 -46.29   0
        75    512.3016    844.1217 307.6938245  +6.3490905     10727.62      26015.5     30889.74     90.49911     181.7196     362.7907      2.526     5.93      1207.11      63.9414     1106.704        76     2.175     1.670 -37.49   0
        76    100.7715    847.9588 307.8647915  +6.3337748     751.4321     1789.004     2200.174     90.49911     181.2871     362.5742      2.609     6.62     1207.617      63.9414     115.8357         8     1.360     0.905   2.51   0
        77    925.5491    842.1984 307.5220678  +6.3636169     2544.535     5095.838     5246.621     90.20951     180.9982     362.2855      2.094     5.77     1200.007      63.9414     286.4576        30     1.830     1.065 -44.85   0
