#   1 NUMBER                 Running object number                                     
#   2 X_IMAGE                Object position along x                                    [pixel]
#   3 Y_IMAGE                Object position along y                                    [pixel]
#   4 ALPHA_J2000            Right ascension of barycenter (J2000)                      [deg]
#   5 DELTA_J2000            Declination of barycenter (J2000)                          [deg]
#   6 FLUX_APER              Flux vector within fixed circular aperture(s)              [count]
#   9 FLUXERR_APER           RMS error vector for aperture flux(es)                     [count]
#  12 FLUX_RADIUS            Fraction-of-light radii                                    [pixel]
#  13 FWHM_IMAGE             FWHM assuming a gaussian core                              [pixel]
#  14 BACKGROUND             Background at centroid position                            [count]
#  15 THRESHOLD              Detection threshold above background                       [count]
#  16 FLUX_MAX               Peak flux above background                                 [count]
#  17 ISOAREA_IMAGE          Isophotal area above Analysis threshold                    [pixel**2]
#  18 A_IMAGE                Profile RMS along major axis                               [pixel]
#  19 B_IMAGE                Profile RMS along minor axis                               [pixel]
#  20 THETA_IMAGE            Position angle (CCW/x)                                     [deg]
#  21 FLAGS                  Extraction flags                                          
         1    711.5479     25.0203 307.6451883  +6.6899227      6966.37     10702.11     11138.76     77.70782      156.099     311.7949      1.615     3.82     820.1364     54.99173     954.6158        34     1.647     0.949 -41.72   0
         2    432.0587     20.4178 307.7614832  +6.6824667     5933.842     9585.431      9986.87     77.83224      155.913     311.7639      1.727     3.85     823.5926     54.99173     798.9724        34     1.606     1.029 -37.11   0
         3    328.6059     15.4405 307.8046391  +6.6810517     12406.13     20131.05     21444.15     77.45835     155.7267     311.6707      1.760     4.11     828.8622     54.99173     1720.167        49     1.713     1.098 -38.14   0
         4    102.4720     15.7037 307.8985947  +6.6733447     2407.385     4005.094     4424.963     78.08052      156.223       311.95      1.765     3.92     825.9437     54.99173     396.3276        23     1.643     0.866 -43.24   0
         5     32.9891     20.0525 307.9273190  +6.6692109     7986.239     13206.83     14054.31     77.58318      155.975     311.7328      1.722     3.94     825.7754     54.99173     1085.737        42     1.626     1.122 -43.15   0
         6     93.4775     14.5603 307.9023707  +6.6735142     1525.805     2490.996     2649.718     78.08052      156.037     312.0121      1.750     4.19     825.8223     54.99173     204.7998        19     1.274     0.979 -33.46   0
         7    394.7863     13.3746 307.7772084  +6.6841250     2459.551     3796.292     3744.861     77.95648     155.8509      311.919      1.666     3.86     826.0793     54.99173     321.6707        21     1.391     0.897 -39.62   0
         8    463.2439     13.5378 307.7487560  +6.6863528     715.6741     1151.592     1017.401     78.20435      155.975     312.0431      1.699     5.37     821.3333     54.99173     111.2504         7     1.141     0.713 -43.33   0
         9    655.5569      8.9277 307.6689956  +6.6946951     10607.95     16727.78     18561.92     78.08051      156.099     312.0121      1.682     3.91     819.7879     54.99173     1460.658        44     1.643     1.069 -37.32  16
        10    990.0057     10.1889 307.5299695  +6.7053413     643.3639     984.4916     1063.594     77.83224     155.8509      311.888      1.482     3.86     814.7013     54.99173     105.0763         5     0.839     0.510 -66.12   0
        11    820.5520      8.1783 307.6004557  +6.7005185     1454.941     2634.629     3153.151     77.83224      156.037     311.0802      2.034     4.67     818.8363     54.99173     195.2084        20     1.354     1.180 -76.41  16
        12    533.2786      8.6948 307.7198163  +6.6906988     1219.507     2021.097     2395.612     77.95648     156.2849     312.0121      1.793     4.79     819.7582     54.99173     189.9796        16     1.367     0.798 -46.03  16
        13     73.3311      9.5482 307.9109111  +6.6749058     667.0439     1130.141     1246.844     78.08052      155.913      311.919      1.956     4.31     825.3241     54.99173     89.96521         7     1.217     0.436 -40.06   0
        14    255.8991      5.6425 307.8351813  +6.6826561     5908.197      9977.51     11693.31     78.20435      155.913     292.8123      1.916     4.42     827.1315     54.99173     788.9615        40     1.899     1.007 -31.90  16
        15    890.7955      6.1942 307.5713316  +6.7036823      1271.48     2020.606     1995.375     77.58318     155.7266     297.6633      1.667     5.11     819.0412     54.99173     189.2908        14     1.431     0.673 -41.59  16
        16    647.1870      4.2514 307.6726308  +6.6963460     8665.202     13871.23     15345.38     77.58318      155.291     276.5991      1.696     3.93     819.6383     54.99173     1193.665        40     1.714     0.997 -41.04  24
        17    417.1054      4.3363 307.7682381  +6.6886053     7851.906     12335.36      12750.5     78.08051     155.6645     277.8209      1.675     3.78     824.6079     54.99173     1025.087        38     1.609     1.024 -41.25  24
        18    678.6067      2.6358 307.6596284  +6.6980639     11190.54     22511.01     25409.51     77.45835     141.3277     254.6301      2.119     8.99     819.5099     54.99173     1926.644        48     2.315     0.975 -28.28  24
        19    732.8788      2.8943 307.6370664  +6.6997715     1743.525     2794.786     2987.416     77.95648     144.4431     258.7395      1.733     4.55     819.4751     54.99173     239.7868        16     1.398     0.742 -41.54  24
        20    655.6756      1.4481 307.6691974  +6.6977874       1688.4     2397.709     3017.263     69.28085      125.901     236.7482      1.380     2.93     819.4999     54.99173     386.8746        11     1.170     0.574 -14.29  25
        21    195.3010      1.5434 307.8604999  +6.6823126     892.3188     1267.445     1537.816     70.66384     127.3531     238.2558      1.582     5.30     825.7091     54.99173     150.3464        10     1.196     0.664   2.02  24
        22    625.7968    989.4619 307.6484614  +6.2888291     722.4742     1173.342     768.1885     77.58318     155.8509     311.7018      1.512     4.96     852.3406     54.99173     109.1445        10     1.431     0.487 -36.49   0
        23    975.8315   1023.7921 307.5019688  +6.2863368     467.7675     670.6423     545.5292     66.13656     121.9974     232.5416      1.628     3.74     849.0231     54.99173     110.7595         5     0.996     0.404  -2.42  24
        24    705.3978   1022.6284 307.6142978  +6.2777947     458.0128     658.4182     959.5932     77.33332     138.0019     250.8781      1.567     4.17     852.0484     54.99173     65.60992         5     1.024     0.484 -85.48  24
        25    817.8855    986.9478 307.5687847  +6.2962836     1969.717     3487.683     4079.147     78.20435      155.975     312.1051      1.927     4.49     849.3367     54.99173     289.4457        23     1.522     1.055 -39.17   0
        26    766.0801    984.7688 307.5903690  +6.2954541     5842.437     10277.01     11278.66     78.08051      155.975       311.95      1.909     4.21     850.2473     54.99173     680.4018        44     1.786     1.190 -50.44   0
        27    552.7576    984.1782 307.6789662  +6.2885679     776.5962     1105.979      1227.45     77.83224      155.913     311.8259      1.644     4.69     852.4758     54.99173     107.4515         8     1.175     0.530 -43.87   0
        28    235.3177    983.9818 307.8107784  +6.2780113     1382.375     2140.122     2448.718     77.83224     155.7267      311.919      1.581     4.43     852.3548     54.99173     172.7418        16     1.329     0.805 -36.26   0
        29    199.9946    983.4568 307.8254624  +6.2770423       802.99     1307.776     1455.861     77.70782      155.913     311.7018      1.785     6.83     851.3084     54.99173       103.42        13     1.442     0.906 -64.74   0
        30     60.6086    981.9168 307.8833871  +6.2729952     2377.208     4048.624     4141.887     77.83224     155.7266     311.8259      1.791     4.21     848.8452     54.99173     331.4962        23     1.513     0.963 -36.16   0
        31    954.2452    979.8103 307.5124018  +6.3037783     5418.384     9982.521     10497.12     77.70782      155.913     311.7018      1.930     4.36     847.8975     54.99173     624.8794        35     1.591     1.195 -47.28   0
        32    636.1104    974.4852 307.6446810  +6.2953580     742.3298     1065.215     982.2914     77.95648     156.3468     312.1051      1.614     3.90     852.0626     54.99173     138.3585         7     0.946     0.594 -49.24   0
        33    927.9777    971.4419 307.5235888  +6.3063582     1744.022     3082.504     3264.456     77.83224     155.8509     311.7639      1.897     4.59     848.4193     54.99173     241.7495        25     1.514     1.109 -42.57   0
        34    648.6311    967.5931 307.6397131  +6.2986224     4161.206     6872.459     7240.055     77.58318     155.8509     311.7639      1.815     3.75     851.8548     54.99173     534.6814        33     1.603     1.074 -42.77   0
        35    260.8291    967.6650 307.8007350  +6.2856046     4037.884     6733.382     6982.211     77.95648      156.037      311.919      1.753     3.76     852.0015     54.99173     557.2068        32     1.652     1.005 -38.88   0
        36    787.6597    967.8896 307.5819735  +6.3031442     1137.136     1951.075     1766.467     78.08051      156.099     312.0741      1.863     6.41     849.5796     54.99173     158.0381        20     1.530     1.116 -37.07   0
        37    470.7097    966.0432 307.7136432  +6.2933096      1043.42     1878.319     1874.936     78.20435      155.975     312.0431      1.776     4.11     852.3101     54.99173     159.4398        12     1.170     0.781 -67.94   0
        38     29.4041    965.1346 307.8969090  +6.2788752     1892.498      2862.05     3034.328     77.45835     155.7888     311.7639      1.675     4.03     848.3226     54.99173     268.6471        22     1.434     0.979 -53.29   0
        39    880.6817    964.1331 307.5434725  +6.3077992     789.2893     1376.839     956.1163       78.328     156.2849     312.0431      1.888     5.77     848.7835     54.99173     118.7143        10     1.367     0.830 -19.29   0
        40    296.8402    960.9830 307.7860075  +6.2895718     708.9904      1233.74     1837.013     77.83224     155.8509     311.7949      2.033     6.53     852.1867     54.99173     99.94299        11     1.517     0.790 -70.20   0
        41    951.7528    960.8324 307.5140709  +6.3115316     624.4779     1027.097     973.3638     77.83224      156.037      311.919      1.824     5.35     847.1436     54.99173     79.41144         9     1.291     0.625 -87.81   0
        42   1004.4728    960.2384 307.4921989  +6.3135334     657.2573     1302.115     2261.598     78.08052      155.975     312.0431      3.754     5.52     845.2198     54.99173     122.1651         7     1.162     0.741 -43.16   0
        43    573.1086    960.0095 307.6713268  +6.2992282     1568.154     2625.643     2627.261     77.83224     155.7266     311.7328      1.808     4.20     852.2017     54.99173     241.6467        15     1.311     0.802 -35.12   0
        44    612.5447    956.3914 307.6550729  +6.3020412     1175.455     1966.266     1684.725     77.58318      155.975     311.7018      1.830     5.21     852.1097     54.99173     160.7553        14     1.503     0.655 -28.74   0
        45     62.3228    956.7516 307.8835239  +6.2834434     685.7097     1189.041     1398.174     78.08052      156.099      311.981      2.001     4.84     848.3137     54.99173      93.4632         7     1.033     0.642 -18.51   0
        46    292.2211    954.2072 307.7881534  +6.2922146     1354.067     2434.709     2514.003     77.83224     155.8509     311.7949      1.815     4.82     852.1044     54.99173     184.7809        20     1.451     0.970 -16.01   0
        47    759.1699    949.9338 307.5944047  +6.3096072     749.9401     1290.169     1285.382     77.95648      156.037      311.919      1.750     6.50     849.8405     54.99173     104.3716        13     1.858     0.639 -32.87   0
        48    896.8408    946.7823 307.5373427  +6.3155025     5882.454     10430.42     10166.03     77.70782     155.8509     311.7639      1.858     4.23     848.0857     54.99173     715.8475        41     1.687     1.169 -41.30   0
        49    432.7416    943.9258 307.7301515  +6.3011704     1959.481      3290.71     3617.988     78.20435      156.037      311.981      1.726     4.08     851.9132     54.99173     271.9398        22     1.374     1.071 -49.38   0
        50    334.4482    942.3085 307.7710200  +6.2985438     8771.784     14195.92     15027.45     78.20436      155.913     312.1051      1.766     3.86     851.8384     54.99173     1151.453        42     1.660     1.120 -36.64   0
        51    106.1275    945.2932 307.8657222  +6.2896469     578.9515     773.2288     440.7382     78.08052      156.161     312.0431      1.116     3.38     848.4837     54.99173     93.97394         5     0.947     0.349 -45.79   0
        52    254.5427    941.1835 307.8042364  +6.2963279     6619.498     10906.03     11528.92     77.58318      155.975     311.7328      1.753     4.06     851.0681     54.99173     820.3112        38     1.669     1.059 -40.05   0
        53    582.7479    935.5246 307.6681455  +6.3096607     1045.034      1545.16     1330.682     78.20435      156.099      311.981      1.643     5.28     851.9266     54.99173     121.3322        10     1.125     0.699 -31.80   0
        54    767.1613    935.1646 307.5915809  +6.3159725       619.02     983.4741     1524.134     77.95648      155.913     311.7949      1.612     4.97     849.5308     54.99173     89.73834         7     0.916     0.762 -44.94   0
        55    913.1693    931.3743 307.5310775  +6.3224091     866.7834     1608.088     1708.799     77.70782     155.8509     311.8259      2.057     6.50     847.1583     54.99173     134.0665        12     1.698     0.699 -37.60   0
        56    868.8243    930.9541 307.5495061  +6.3211038     709.8302     962.6674      778.792     77.83224      156.037     311.8569      1.595     4.45     848.4876     54.99173     106.0376         7     1.110     0.508 -31.81   0
        57    979.9189    927.2589 307.5034968  +6.3263332      732.254     1367.712     2097.195       78.328      156.099      311.981      2.776     5.67     844.7184     54.99173     100.3177         8     1.157     0.783 -42.08   0
        58    749.0978    925.3366 307.5994108  +6.3194274     1459.247     2799.591     3249.296     78.08051      156.161     312.0121      2.173     4.87     849.5236     54.99173     230.6497        20     1.502     1.069 -55.35   0
        59    841.6939    925.1334 307.5609668  +6.3226022     470.2196     800.5775     803.5863     78.08051      156.223      311.981      2.035     5.48     848.7365     54.99173     71.82251         7     1.504     0.563 -52.35   0
        60    979.9621    920.6573 307.5036994  +6.3290606     1165.458      2207.16     2936.228     78.20435      156.099      311.981      1.961     6.20     844.6682     54.99173     144.7996        19     1.505     0.973 -36.35   0
        61    613.1428    921.0756 307.6560089  +6.3166434     809.6989     1303.781     1203.974     78.20435      155.975      311.919      1.654     5.73     851.6484     54.99173     111.0131        10     1.127     0.820 -88.40   0
        62    534.3340    920.6874 307.6887469  +6.3141673     990.0366     1799.349     2192.027     78.20435      156.223     312.0121      2.110     5.99     851.7432     54.99173     131.6092        12     1.426     0.709 -39.28   0
        63    667.5565    918.3243 307.6335059  +6.3195986     2367.209     3874.402     3865.437     78.08052      156.099     312.0121      1.746     3.97     850.9612     54.99173     311.1041        24     1.429     0.969 -40.75   0
        64    475.7406    918.7510 307.7131423  +6.3130053     473.1261     587.8132     1051.751     78.20435      156.037     312.0431      1.625     4.87     851.8726     54.99173     76.79633         5     1.285     0.524  26.86   0
        65    828.2928    914.8806 307.5668748  +6.3263885     900.5503     1544.816     1715.302     77.95648     156.2849     312.0431      1.866     4.26     848.7114     54.99173     147.6875        10     1.100     0.758 -28.27   0
        66     64.1876    914.3380 307.8841797  +6.3010184     2778.084     4639.379     5019.949     77.70782     155.8509     311.7018      1.771     4.00     847.3458     54.99173      338.998        26     1.464     0.988 -44.49   0
        67    957.6907    915.5550 307.5131184  +6.3304253     562.6971      754.834     921.9332     78.20436      155.975     312.1051      1.395     4.08      845.424     54.99173     82.09705         7     0.987     0.482  -8.21   0
        68    945.4488    913.7292 307.5182630  +6.3307711     780.4686     1473.115     1682.073     78.20435      155.975     312.0121      2.058     5.64     845.8782     54.99173     113.9213        10     1.350     0.664 -42.04   0
        69     81.6000    913.7266 307.8769704  +6.3018562      1751.85     2653.651     2678.031     77.45835     155.4156     311.7639      1.666     4.24     847.6691     54.99173     233.9153        19     1.429     0.833 -39.44   0
        70    207.8207    913.0975 307.8245819  +6.3063563     1970.028     2952.561     3081.831     78.08051     155.8509     311.7328      1.702     3.75     849.5076     54.99173      280.691        19     1.438     0.784 -41.37   0
        71    241.3707    909.7166 307.8107648  +6.3088785     676.5481     1220.362     982.1663     78.20435     155.8509      311.888      1.878     5.74     850.1252     54.99173     98.81769        10     1.578     0.589 -45.02   0
        72    662.1826    907.4315 307.6361025  +6.3239167      6419.89     10602.27     11043.33     77.83224     155.8509     311.8569      1.773     3.90     850.7592     54.99173     831.4462        39     1.619     1.112 -38.70   0
        73    346.5749    908.8264 307.7671104  +6.3127753     851.5821     1423.051     1270.101     77.70782     155.8509     311.8259      1.850     5.06     851.2994     54.99173     134.7962        12     1.325     0.890 -48.54   0
        74     22.2728    905.4926 307.9018817  +6.3032611     1108.953     1743.651     1470.946     78.08052      156.161     312.0121      1.619     5.07     846.1833     54.99173     135.4961        13     1.397     0.662 -32.47   0
        75    900.0615    903.5614 307.5374507  +6.3334565     2413.643     4310.541     4783.103     78.20435      156.099     312.0121      1.950     4.34     847.0209     54.99173     304.5867        28     1.517     1.109 -46.35   0
        76     35.1799    904.1292 307.8965685  +6.3042582     855.9676     1231.648      1086.93     77.83224      155.913      311.919      1.578     4.30     846.4308     54.99173     121.9551         9     0.985     0.706 -12.18   0
        77    345.1705    900.5388 307.7679723  +6.3161502     15310.75     24850.36     26492.74     77.95648      156.037       311.95      1.744     3.96     851.1268     54.99173     2145.157        48     1.668     1.111 -38.46   0
