#   1 NUMBER                 Running object number                                     
#   2 X_IMAGE                Object position along x                                    [pixel]
#   3 Y_IMAGE                Object position along y                                    [pixel]
#   4 ALPHA_J2000            Right ascension of barycenter (J2000)                      [deg]
#   5 DELTA_J2000            Declination of barycenter (J2000)                          [deg]
#   6 FLUX_APER              Flux vector within fixed circular aperture(s)              [count]
#   9 FLUXERR_APER           RMS error vector for aperture flux(es)                     [count]
#  12 FLUX_RADIUS            Fraction-of-light radii                                    [pixel]
#  13 FWHM_IMAGE             FWHM assuming a gaussian core                              [pixel]
#  14 BACKGROUND             Background at centroid position                            [count]
#  15 THRESHOLD              Detection threshold above background                       [count]
#  16 FLUX_MAX               Peak flux above background                                 [count]
#  17 ISOAREA_IMAGE          Isophotal area above Analysis threshold                    [pixel**2]
#  18 A_IMAGE                Profile RMS along major axis                               [pixel]
#  19 B_IMAGE                Profile RMS along minor axis                               [pixel]
#  20 THETA_IMAGE            Position angle (CCW/x)                                     [deg]
#  21 FLAGS                  Extraction flags                                          
         1     68.1975     26.5686 307.9004273  +6.6507346     2973.476     10553.62     14811.96      81.8393     164.4007     328.8668      3.163     8.40     932.8921     58.00851     346.2416        81     2.430     2.123  78.50   0
         2    610.7794     18.1293 307.6747430  +6.6723159     5883.131     20385.25     27837.03     82.10203     164.4662     329.0632      3.107     7.74     918.5557     58.00851     595.0547        93     2.407     2.173  59.55   0
         3    510.1443     15.1307 307.7167572  +6.6702050     1738.625     5513.772     7618.193     82.49455     164.4662     329.0632      3.104    10.74      919.142     58.00851     185.4226        55     2.252     2.122 -84.55   2
         4    224.7821      7.7863 307.8358521  +6.6637219     908.5722     3313.683     6048.267     82.23308     164.2696     326.3689      5.789    19.75     929.5535     58.00851     121.1152        56     5.007     2.163  55.42  19
         5    235.9068     12.0703 307.8310740  +6.6623247     3015.677     7736.177     12101.29     82.49455     164.7278     329.0959      3.502     9.85     929.8742     58.00851     289.4413        53     2.646     1.454  70.12  19
         6    239.0128     10.0313 307.8298495  +6.6632702     2623.562     5246.151     6353.016     81.97077     164.3352     329.0305      2.169     7.24     929.8148     58.00851     298.0461        26     2.091     0.900  63.55  19
         7    416.2479      9.9679 307.7560376  +6.6692087     6602.737     24635.42     34530.03     82.23308      164.597     329.0305      3.212     8.55     920.7233     58.00851     653.9923       100     2.447     2.286  60.10  16
         8    595.7623      9.6810 307.6812823  +6.6753042     1311.489     3354.566     6092.642     82.49455     164.6625     329.0305      3.771    10.76     918.2847     58.00851     180.0004        34     2.471     1.990 -71.17  18
         9      2.8171     10.3873 307.9282039  +6.6552272     730.3372     2101.614      2073.81     82.23308     151.2321     271.6682      2.466     9.26     935.5113     58.00851     109.0164        20     1.789     1.338  82.31  24
        10    893.1921      9.7951 307.5574003  +6.6851355     940.5473     1814.645     2224.583      81.8393     164.3352     328.9323      2.284     5.65     914.3109     58.00851     130.1184        13     1.388     0.721  88.81   0
        11    693.0013    998.3140 307.6075052  +6.2703704     4387.808     10147.56     12768.54     81.70763     164.1385     328.8013      2.596     5.33     969.5673     58.00851     464.9471        57     2.085     1.741  23.84   2
        12     45.7832   1019.0940 307.8761394  +6.2402281     4519.731     10560.25     12139.79     82.23308     164.4007     311.0988      2.414     5.52     965.9976     58.00851     578.7531        52     1.993     1.518  52.81  24
        13    725.6984    993.4995 307.5940597  +6.2734438     676.4405     1433.125     2265.745     82.49455     164.9891     328.9323      1.913     4.55     969.2302     58.00851     122.0309         7     1.190     0.494  -4.21   0
        14    932.5930    987.8519 307.5081462  +6.2826374      4751.08     9490.646     10684.22     81.97077     164.4007     328.7031      2.122     4.43     966.3407     58.00851     524.4506        45     1.765     1.432  55.26   0
        15    691.7808    986.4559 307.6084120  +6.2752256     1592.442     4211.532      6005.04     81.97077      164.597     328.8996      3.140     9.86     969.1081     58.00851     171.7738        43     2.325     1.686 -20.59   0
        16    217.6942    988.1507 307.8056483  +6.2587439     812.9682     1770.762     1943.091     82.36392     164.4662     329.2268      2.319     6.36     968.5731     58.00851     108.3005        10     1.186     0.957 -49.55   0
        17    339.1467    984.0873 307.7552435  +6.2644715     1021.703     2770.039     3397.127     82.49455     164.4662     329.2268      2.570     9.12      969.686     58.00851     115.1273        21     1.732     1.340 -49.70   0
        18    271.7070    972.6874 307.7836934  +6.2669296     7654.959     19461.98     24493.25     82.49455     165.0544     329.1941      2.687     5.91     968.8667     58.00851     798.4561        82     2.135     1.982  55.81   0
        19    521.7203    973.5690 307.6796189  +6.2748933     2222.682     5384.912     7219.669     82.36392     164.5316     329.0632      2.730     6.11     969.8691     58.00851     233.4323        37     1.656     1.608 -74.04   3
        20    518.8333    966.0872 307.6810725  +6.2778862     4299.858     10915.96      13347.1     82.49455     164.4662     329.0959      2.643     6.23     969.7748     58.00851     449.0549        64     2.175     1.726  66.18   3
        21    787.0923    972.9825 307.5691991  +6.2839522     733.6713     1417.727     1140.624     82.23308     164.3352     328.9651      1.902     8.26      967.557     58.00851     102.0312        13     1.635     1.166 -21.54   0
        22    725.9404    972.9599 307.5946496  +6.2819319     4553.119     10869.31     12355.24     82.49455      164.597     329.1614      2.455     5.36     968.3472     58.00851     518.9458        53     1.857     1.642  33.79   0
        23    887.1287    966.3630 307.5277886  +6.2900027     5791.629     12521.89     13924.92     82.36392      164.597     329.1287      2.270     4.90     966.1853     58.00851     650.4978        53     1.752     1.608  63.87   0
        24    860.7253    962.4902 307.5389072  +6.2907263     8042.334     17852.63     20218.17     82.49455     164.8585     329.1614      2.361     4.90     966.3242     58.00851     876.3964        65     1.860     1.711  39.52   0
        25    982.5966    961.8611 307.4882077  +6.2950244     3407.056     6988.727     7280.236      81.8393     164.3352     328.8013      2.107     4.75     964.9338     58.00851     442.6931        38     1.689     1.339  51.71   0
        26    505.1388    961.7906 307.6869165  +6.2792045     2088.145     5348.617     6317.146      81.8393     164.4662     328.8341      2.620     7.06     969.7849     58.00851     239.0964        44     1.966     1.622  20.67   0
        27    574.0882    963.1593 307.6581758  +6.2809328      758.478     1405.998     1800.815     82.49455     164.5316     329.1287      1.835     5.66     969.2906     58.00851     96.40906        10     1.202     0.752   2.73   0
        28    615.5803    961.0474 307.6409792  +6.2831841     735.1298     1580.381     2136.615     82.10203      164.597     328.8996      2.313     6.32     968.8043     58.00851     100.2193        10     1.231     0.911  68.38   0
        29    458.3560    958.1694 307.7065079  +6.2791425     989.9382     2271.198     2502.378     82.10204      164.597     328.9651      2.298     6.47     969.7239     58.00851     150.3048        19     1.501     1.140  -2.18   0
        30    892.4802    950.0069 307.5261105  +6.2969330     28382.37     61710.95     70147.24     82.10203     164.1385     328.8996      2.307     4.80     965.6598     58.00851     3150.123        94     1.949     1.762  57.22   0
        31    200.6338    948.6151 307.8140841  +6.2744968     941.3182     1886.903      2557.57     82.10204     164.3352     328.9651      2.329     6.00     968.1721     58.00851     130.2172        10     1.304     0.776  28.57   0
        32    790.4124    943.9348 307.5687935  +6.2960551     1360.822     3073.435     3592.666     81.97077     164.4007     328.9978      2.281     7.64     966.1519     58.00851     156.4618        26     1.653     1.336  56.43   0
        33    738.6584    941.8832 307.5904016  +6.2951845     3642.457     9013.301     10947.23     82.62498      164.597     329.1614      2.598     5.70     966.8089     58.00851     408.6237        53     1.906     1.692  55.56   0
        34     33.4448    939.6376 307.8839636  +6.2726188     1452.204     3552.287     4015.494     82.23309      164.597     328.9978      2.470     6.85     965.6938     58.00851     204.2212        34     1.935     1.322  64.29   0
        35    208.4770    941.3073 307.8110671  +6.2777756     787.0537     1828.403     2241.957     82.23309     164.8585     329.1287      2.853     5.27     968.2166     58.00851     102.1554         8     1.108     0.815  -6.79   0
        36    926.7632    936.7686 307.5122867  +6.3035348     4466.983     9495.468     10444.58     82.10204     164.3352     328.8341      2.204     4.71     964.9481     58.00851     508.1804        48     1.719     1.562  57.35   0
        37    900.7130    928.3417 307.5234114  +6.3061506     1348.933     2835.071     3155.766     82.49455      164.597     329.2268      2.130     6.17     964.9187     58.00851     185.2537        24     1.451     1.309  12.74   0
        38    621.4886    924.9446 307.6397355  +6.2982858     2279.155     5711.299      6665.25     82.49455     164.4662     329.2595      2.571     6.19     967.7833     58.00851     249.8593        44     1.850     1.601  38.73   0
        39    234.0073    925.1842 307.8009873  +6.2852839     2237.076      5692.86     6526.137     82.10204     164.3352     328.9323      2.516     6.07     968.5211     58.00851     246.5697        48     1.918     1.638  42.72   0
        40      3.2456    922.5368 307.8971100  +6.2786690     1279.349       2529.8     2955.243     82.36392     156.1367     278.2474      2.047     5.62     965.3811     58.00851     157.0424        21     1.525     1.036  51.97  26
        41    760.0909    924.4825 307.5820667  +6.3030800     753.1805     1557.112     1909.478     82.23308     164.8585     329.1614      2.411     7.05     965.7201     58.00851     99.82434        12     1.507     0.924  67.49   0
        42    443.5732    922.9034 307.7138492  +6.2932101      732.998      1594.17     1771.015     82.62498     164.3352     329.0305      2.350     5.43     969.1887     58.00851     115.2222         9     1.298     0.640   2.58   0
        43    546.2278    917.2673 307.6713163  +6.2989531      890.194     2047.222     2087.458     82.10204     164.5316     328.9978      2.287     7.48     968.8244     58.00851     107.5685        14     1.332     1.176 -33.47   0
        44    977.1748    916.5322 307.4919846  +6.3135596     755.1236     1499.351       1833.1     82.10204     164.4662     328.9978      2.090     5.82     963.0127     58.00851     84.15814        10     1.140     0.836 -49.33   0
        45    923.4654    917.5620 307.5143038  +6.3113552     487.1055     967.0106     1050.512     82.36392     164.5316     329.1614      1.827     4.20     964.3698     58.00851     96.21625         5     1.024     0.492  -3.88   0
        46    585.8946    912.8574 307.6549562  +6.3020929     651.1033     1334.909     922.9087     82.36392      164.597     329.2922      1.955     3.95     968.0042     58.00851     109.0991         6     1.279     0.349  -0.57   0
        47    266.5009    911.1575 307.7879384  +6.2921587     709.2234      1692.13     2493.652     82.49455     164.4662     329.3249      3.099     5.93     968.6888     58.00851     92.16681         9     1.428     0.693  59.25   2
        48    869.5511    903.7318 307.5372071  +6.3152782     4208.016      9333.59     10720.93     82.49455     164.5316     329.0959      2.367     5.12     964.2237     58.00851     450.8147        49     1.867     1.532  52.35   0
        49    307.3400    899.8239 307.7713250  +6.2981997     4336.376     11829.51     14553.66     82.10204     164.5316     328.9651      2.717     6.39     968.7612     58.00851     503.9671        62     2.110     1.763  52.36   0
        50    405.2132    901.0720 307.7305501  +6.3009459      945.379      2554.05     3308.425     81.97077     164.2696     328.8996      2.687     8.49     968.9338     58.00851     100.7393        19     1.661     1.213  -8.26   0
        51    227.4293    898.7281 307.8046189  +6.2959868     3359.437     8977.346     10756.88     82.36392      164.597     329.0632      2.669     6.29     968.3593     58.00851     367.4315        60     2.089     1.788  64.85   0
        52    555.2679    892.7164 307.6683810  +6.3093899     628.9059     1388.605     1492.045      82.7552     164.8585     329.1287      2.141     5.50     967.8753     58.00851     135.0476         6     1.253     0.681 -26.71   0
        53    883.6450    889.2258 307.5318282  +6.3217345     507.5486     1189.163     1246.385     81.97077     164.6625     328.9651      2.592     5.24     963.5454     58.00851     83.56067         5     1.044     0.743  -9.92   0
        54    722.8409    881.4354 307.5990173  +6.3196160     657.9861     1723.871     2457.344     82.23308      164.597     328.9323      2.233     3.42     964.6241     58.00851     139.6211         5     0.795     0.425  24.06   2
        55    952.5297    877.0538 307.5035664  +6.3290426     728.1889     1641.795      2214.43     82.36392     164.5316     329.0305      2.435     7.79     961.5872     58.00851     99.17883        16     1.432     1.186 -18.88   0
        56    640.4613    875.3961 307.6335070  +6.3193730     1210.687      2962.83     3411.578     81.83931     164.3352     328.8013      2.418     7.73     965.9187     58.00851     144.0812        24     1.674     1.271   2.19   0
        57     37.2994    871.9023 307.8846529  +6.3007117     1620.046       3980.3     4424.615     82.49455     164.9891     328.9323      2.630     7.29     963.8512     58.00851     183.5074        37     1.902     1.565  84.76   0
        58     54.8046    871.3660 307.8773859  +6.3015183     945.5898     2586.246     3400.323     81.70763     164.4662     328.8668      2.831     9.31     964.1956     58.00851     104.7465        22     1.637     1.477  52.81   0
        59    181.1467    870.5232 307.8248340  +6.3060865     1034.992      2700.02     3140.593     82.62498      164.597     329.0959      2.493     8.31     966.8376     58.00851     130.7012        22     1.681     1.287  47.61   0
        60    918.0880    870.5334 307.5181203  +6.3305935     560.9985     998.1088     1320.851     82.49455     164.7932     329.0959      1.816     3.97     962.7323     58.00851     109.4474         5     0.912     0.493  -5.58   0
        61    634.9135    864.6575 307.6361775  +6.3236221     3125.166     8585.182     10123.22     82.49455      164.597     329.2595      2.682     6.42     965.7028     58.00851     334.3376        57     2.044     1.774  39.88   0
        62    318.0291    858.1901 307.7682823  +6.3157447     6969.377     19908.08     26209.62     81.97077     164.4007     328.9323      2.886     6.45     968.3657     58.00851     784.7996        92     2.474     2.045  67.49   0
        63    772.7076    865.2470 307.5788068  +6.3279549     685.8321      1305.05     807.9382     82.49455     164.5316     329.2268      1.896     6.08     963.5699     58.00851     89.15515         8     1.092     0.952  83.81   0
        64    872.5093    861.0106 307.5374104  +6.3330144     1569.215     3696.872      4615.01     82.23308     164.2041     328.8668      2.503     6.84     962.3912     58.00851     179.4824        30     1.583     1.538 -85.68   0
        65      8.2748    860.8317 307.8971069  +6.3043117     533.8811     1073.099      1389.43     82.36392     164.6625     328.6048      2.233     5.91     962.8195     58.00851      84.5304         7     1.357     0.725  19.13  16
        66    189.7356    857.2588 307.8217079  +6.3118494     689.5716     1515.087     2273.662     82.62498     164.5316     329.1287      2.714     5.19     966.8947     58.00851     94.94739         6     1.060     0.749  88.01   0
        67     81.4350    848.7277 307.8670693  +6.3117544     936.8221     2412.814     3251.817     82.36392      164.597     329.0959      2.636     9.19     964.2686     58.00851     125.1376        20     1.990     1.184  -8.52   0
        68     62.9768    843.7001 307.8749214  +6.3132132     680.0117     1288.038     2489.258      82.7552     164.3352     328.8668      1.815     3.79     963.6792     58.00851     99.75977         5     1.476     0.280  49.51   2
        69     65.2969    841.7134 307.8740231  +6.3141109      1267.04     2754.922     3835.274     82.49455     164.9891     329.1287      2.592     7.50     963.6812     58.00851     178.0828        22     1.958     0.960  48.61   2
        70    863.0110    842.3171 307.5419916  +6.3404174     1133.553     2630.589      2819.99     82.10203     164.2696     328.9323      2.345     7.51     961.3281     58.00851     124.0974        21     1.430     1.230 -17.52   0
        71    833.6157    842.1740 307.5542313  +6.3395017     1180.781     2623.869     2896.128     82.23308     164.4662     329.0305      2.242     6.33     961.8292     58.00851     157.7138        20     1.485     1.185 -63.71   0
        72    797.0591    841.3132 307.5694757  +6.3386444     1509.956     3950.177     5201.551     82.49455     164.6625     329.2268      2.694     7.77     962.3799     58.00851      158.739        36     1.773     1.577  53.63   0
        73    532.9404    833.0428 307.6796842  +6.3332840     144178.5     404978.1     507836.1     82.49455      164.597     329.1941      2.790     6.34     966.0427     58.00851     14687.83       204     2.361     2.161  53.18   0
        74    377.3286    835.8475 307.7443562  +6.3269453     3187.335      9176.99     11691.87     82.49455      164.597     329.0959      2.820     6.81     967.3734     58.00851     360.6896        64     2.183     1.854  52.93   0
        75    320.4621    834.1546 307.7680813  +6.3257489     5211.544     15389.29     19383.43     82.36392     164.5316     329.1614      2.859     6.96     967.8823     58.00851     560.0015        74     2.213     1.955  41.65   0
        76    871.0716    828.8387 307.5390893  +6.3462494     2727.034     7187.346     8521.632     82.36392      164.597     329.1614      2.607     6.13      960.461     58.00851     282.0499        52     1.835     1.801  23.99   0
        77    638.6209    830.2491 307.6357926  +6.3379512     1582.609     4490.522     5043.778     81.97077     164.6625     328.9651      2.584     7.99     964.0059     58.00851     167.5983        38     1.774     1.626 -25.22   0
