#   1 NUMBER                 Running object number                                     
#   2 X_IMAGE                Object position along x                                    [pixel]
#   3 Y_IMAGE                Object position along y                                    [pixel]
#   4 ALPHA_J2000            Right ascension of barycenter (J2000)                      [deg]
#   5 DELTA_J2000            Declination of barycenter (J2000)                          [deg]
#   6 FLUX_APER              Flux vector within fixed circular aperture(s)              [count]
#   9 FLUXERR_APER           RMS error vector for aperture flux(es)                     [count]
#  12 FLUX_RADIUS            Fraction-of-light radii                                    [pixel]
#  13 FWHM_IMAGE             FWHM assuming a gaussian core                              [pixel]
#  14 BACKGROUND             Background at centroid position                            [count]
#  15 THRESHOLD              Detection threshold above background                       [count]
#  16 FLUX_MAX               Peak flux above background                                 [count]
#  17 ISOAREA_IMAGE          Isophotal area above Analysis threshold                    [pixel**2]
#  18 A_IMAGE                Profile RMS along major axis                               [pixel]
#  19 B_IMAGE                Profile RMS along minor axis                               [pixel]
#  20 THETA_IMAGE            Position angle (CCW/x)                                     [deg]
#  21 FLAGS                  Extraction flags                                          
         1    182.7090     23.6281 307.8650293  +6.6681644     11185.79     16800.03     17701.99     78.54304     156.2165     312.7131      1.602     3.60     839.4719      55.1427      1675.34        38     1.602     0.952 -55.05   0
         2    526.8293     21.8493 307.7221215  +6.6804633     3076.794     4718.032     5073.961     78.04592     156.5276     312.7442      1.606     3.64     828.7113      55.1427     487.1678        25     1.490     0.918 -51.34   0
         3    993.2646     17.7272 307.5284642  +6.6977745     1989.102     2734.452     2195.477     78.41905     156.4654     312.8376      1.480     3.73      823.373      55.1427      276.433        19     1.284     0.923 -57.53   0
         4    712.5450     14.1632 307.6452197  +6.6898606     7534.992     10866.18     10997.96     78.29488     156.4654     312.8687      1.516     3.40     827.8517      55.1427     1220.511        32     1.485     0.893 -52.52   0
         5    632.8192     13.2630 307.6783746  +6.6875618     4011.206     5797.254     5976.852     78.04592     156.4654     312.7131      1.514     3.32     827.9462      55.1427     689.6451        25     1.386     0.915 -53.76   0
         6    334.7578     13.1579 307.8022137  +6.6776018     925.7042     1466.177     1766.735      78.1705     156.4654     312.7131      1.809     4.96     838.8922      55.1427     142.8737        10     1.361     0.512 -52.06   0
         7    432.9294      9.6167 307.7615464  +6.6823620     6386.141     9518.295     9718.618     77.92115     156.4032     312.7131      1.568     3.49     832.4279      55.1427     956.4031        32     1.513     0.927 -51.70  16
         8    388.2224     11.6843 307.7800509  +6.6800068     726.9742     766.9545     620.7102     78.29488     156.1542     312.7442      1.290     4.42     835.5701      55.1427     104.3912         8     1.086     0.511 -55.13   0
         9     33.9174      9.1587 307.9273332  +6.6691248     8927.097     13220.93     13530.52     78.41905     156.4654     312.7753      1.536     3.41     840.6708      55.1427     1442.604        36     1.521     0.958 -50.84  16
        10    680.0276      8.3111 307.6589270  +6.6911877     941.0247     1349.641     1223.704     78.54304     156.2165     312.3706      1.387     3.35     827.7911      55.1427     194.4171         9     1.011     0.616 -41.37   0
        11    508.5070      6.8150 307.7302405  +6.6860555     970.6772      1378.15     1907.318      78.1705     156.2787     303.8758      1.864     4.34     828.9871      55.1427     175.8223        10     1.205     0.710 -72.56  16
        12    329.4803      4.5367 307.8046973  +6.6809835     13437.37     19946.83      21001.5     78.54304     156.5276     280.9141      1.624     3.45     839.0814      55.1427      2014.84        45     1.657     1.000 -51.52  24
        13    103.1012      4.7190 307.8987415  +6.6732895     2645.626     4133.648     4554.932     78.29488     156.9001     283.0878      1.665     3.46     837.9751      55.1427     417.0898        25     1.528     0.909 -57.61  24
        14    424.6010      5.2733 307.7651531  +6.6838754     755.7247     1065.217     1155.412     77.79618     155.9047     289.1413      1.874     3.96     832.8356      55.1427     142.2197         8     1.189     0.446 -79.48  16
        15     94.3792      3.7849 307.9023966  +6.6733813     1695.892     2596.203     3069.937      78.1705     152.8159     271.5441      1.639     4.07     837.9568      55.1427     254.5294        19     1.429     0.875 -55.70  24
        16    464.3381      2.7204 307.7487295  +6.6862636     601.8636     877.3583     611.3784     78.54304     143.0143     256.9248      1.465     3.91     830.7427      55.1427     95.86066         6     1.266     0.346 -74.66  24
        17    798.0664      3.0556 307.6100601  +6.6973086     742.4292     983.6467     644.0622     78.54304     146.5095      261.839      1.412     3.04     827.2438      55.1427     127.2444         7     0.879     0.510 -47.58  16
        18    395.7136      2.3606 307.7772531  +6.6841076     2354.882     3200.361     3133.033     77.92115     138.5915     251.4894      1.450     3.60     834.9398      55.1427     366.9895        15     1.215     0.750 -43.90  24
        19    655.3234      1.1705 307.6694314  +6.6933082     750.2939     1038.889     1000.148      65.8765     121.6943      232.595      1.134     3.58     827.6727      55.1427     183.2504         6     1.059     0.349  -8.07  24
        20    601.6992    995.3220 307.6582683  +6.2810677      1459.56     2257.943      2610.14     78.04592     156.6519     312.8687      1.720     4.53     862.1953      55.1427     210.2948        14     1.313     0.743 -68.66   0
        21    960.5888   1020.0623 307.5084433  +6.2828530       5894.9     10543.95     11146.88     77.92115     156.2787     285.5519      1.900     4.36     856.7241      55.1427     671.2086        41     1.680     1.240 -49.80  24
        22    532.9917    993.6564 307.6868481  +6.2794533     4199.548     6492.823     7366.169     77.79617     156.4032     312.5886      1.636     3.66     862.5697      55.1427     616.1351        27     1.417     1.064 -51.84   0
        23    642.6441    992.9430 307.6413498  +6.2834211     1419.503     2508.508     2493.201     78.29488     156.4654     312.8376      1.768     5.12     860.8077      55.1427     207.9722        18     1.554     0.780 -46.49   0
        24     67.3324    992.3283 307.8802035  +6.2643587     982.9777     1362.921      1187.29     78.41905     156.5898     312.8376      1.549     5.28     860.4004      55.1427     146.7756        11     1.298     0.713 -31.45   0
        25    486.1450    990.1422 307.7064146  +6.2793336     2341.452     3668.381     4013.963     78.54304     156.5276     312.8687      1.631     3.92     862.5234      55.1427     334.5978        19     1.400     0.814 -56.27   0
        26    920.5836    982.3333 307.5263160  +6.2970946     41076.48     68035.75     73026.82     77.92115     156.4032     312.7442      1.811     3.81     856.8066      55.1427     4864.543        77     1.771     1.280 -56.11   0
        27    227.8618    980.8134 307.8139525  +6.2745133     1701.949     2650.446      2449.28     77.92115     156.2787     312.6198      1.635     4.33     862.1458      55.1427     263.3317        19     1.462     0.874 -53.31   0
        28    766.6985    974.0721 307.5904811  +6.2953632     6591.252     10710.25     11857.51      78.1705     156.5898     312.8376      1.759     3.69      858.929      55.1427     902.4705        39     1.749     1.058 -61.50   0
        29    626.8468    978.5211 307.6483928  +6.2888464     961.0057     1099.056     1452.316     78.41905     156.5276     312.8064      1.429     5.10     861.4002      55.1427     118.2835        11     1.116     0.699 -50.63   0
        30    116.4190    979.2253 307.8602693  +6.2714205     610.0663     811.2012     672.5466     77.92115     156.2165     312.7442      1.464     3.20     860.3795      55.1427     108.6702         5     0.717     0.478  76.96   0
        31    818.4972    976.1342 307.5689069  +6.2962436     2308.168     3849.177     4359.168     78.41905     156.5276     312.8687      1.832     3.77     858.3238      55.1427     303.5326        24     1.410     1.016 -46.46   0
        32    553.3461    973.4995 307.6790759  +6.2884574     928.1769     1412.274     1370.422     78.29488     156.4654     313.0863      1.456     3.66     862.3486      55.1427      138.676        10     1.063     0.636 -38.82   0
        33    236.1453    973.0667 307.8107751  +6.2779899     1393.341     2028.333     2285.572     78.41905     156.4032     312.8064      1.479     3.62     862.1216      55.1427     243.5992        16     1.305     0.793 -54.23   0
        34    200.3344    972.7259 307.8256529  +6.2769267     896.7592     1483.291     1538.426     78.54304     156.4654     312.8376      1.669     5.52     861.3022      55.1427     136.7214        10     1.350     0.635 -62.84   0
        35    954.8829    969.0853 307.5125197  +6.3037094     6381.567     10750.76     11171.35      78.1705      156.714     312.9308      1.808     3.74     855.4398      55.1427     767.5715        38     1.644     1.109 -53.50   0
        36     61.1888    970.9012 307.8834779  +6.2729979     2913.387     4336.099     4671.263     78.17049     156.1542     312.6198      1.624     3.67     860.3362      55.1427     427.1617        20     1.323     0.847 -53.95   0
        37    211.1887    964.7636 307.8214157  +6.2805789     700.2134     1237.716     1110.636     77.92115     156.2787     312.5263      1.566     4.29     861.3461      55.1427      109.649         6     1.083     0.484 -26.10   0
        38    637.3684    963.3515 307.6445344  +6.2954617     881.5129     1065.464      884.866      78.1705     156.4654     312.7753      1.584     4.60     860.9841      55.1427     142.5688         9     1.032     0.723 -38.30   0
        39    928.9055    960.8680 307.5235802  +6.3062348     2029.632     3447.279     2322.935     78.29488     156.6519     312.8687      1.833     4.50     856.0001      55.1427     254.8041        23     1.455     0.993 -39.42   0
        40    787.9056    957.6554 307.5822275  +6.3028502     1330.432       2161.8     2380.364     78.29488     156.4654     313.0552      1.694     5.80     858.4805      55.1427     183.9847        14     1.480     0.657 -63.98   0
        41    261.6464    956.9504 307.8007322  +6.2855007     4483.759     6612.652     6575.264     78.41905      156.341     312.8997      1.554     3.56     862.4139      55.1427      661.814        27     1.489     0.874 -52.75   0
        42    649.4666    956.6079 307.6397382  +6.2986509     4654.813     7024.217     7023.978     77.92115     156.2165      312.682      1.638     3.73     860.5251      55.1427      619.605        25     1.433     0.901 -53.03   0
        43    471.7978    955.0662 307.7135514  +6.2933339     1126.487     1870.096     2092.585     77.79617     156.1542     312.6198      1.734     5.33     862.0806      55.1427     168.8269        12     1.228     0.704 -53.62   0
        44     30.3051    954.3849 307.8968567  +6.2787765     2153.649     3235.243     2966.165      78.1705     156.2165     312.6509      1.636     4.51      860.417      55.1427     280.3077        19     1.488     0.771 -51.49   0
        45    881.6781    952.9167 307.5434544  +6.3079405     1001.658      1511.52     1692.225     78.54304      156.776     312.9308      1.717     4.88     856.8474      55.1427     116.8038        10     0.929     0.835  66.57   0
        46    952.7000    950.9022 307.5140351  +6.3111438     610.4858     967.4742     1058.501     78.41905     156.8381      312.682      1.998     5.95     854.9598      55.1427     84.62402         8     1.194     0.834 -69.33   0
        47    297.5323    950.3050 307.7860584  +6.2894500     906.4495     1234.839     949.7634     78.29488     156.5898     312.8687      1.550     4.95     862.9388      55.1427     147.6713        13     1.339     0.768 -54.44   0
        48   1005.4243    949.4607 307.4921931  +6.3134984     905.8622     1734.436     1396.702     78.04593     156.4032     312.7442      1.959     6.18     853.3994      55.1427     103.7981        12     1.183     0.907 -23.12   0
        49    574.0830    949.1183 307.6712866  +6.2992183     1776.567     2546.916     2294.006      78.1705      156.714     312.9308      1.531     3.87     862.0937      55.1427     256.7509        15     1.263     0.756 -41.54   0
        50    613.3969    945.6924 307.6550800  +6.3019497     1198.427      1596.39     583.2803     78.04592     156.1542     312.5886      1.508     4.38     861.8307      55.1427      158.152        15     1.279     0.822 -50.36   0
        51     63.1652    945.8575 307.8835038  +6.2834035     731.2091     1159.018     1791.236     78.29488     156.4654     312.8687      2.073     4.56     860.2487      55.1427     120.1949         9     0.991     0.763 -47.36   0
        52    293.0052    943.2372 307.7881762  +6.2922159     1323.801     1677.774     1513.248     77.54562     156.2165     312.6198      1.402     3.90     862.9006      55.1427     174.8905        11     1.021     0.707 -66.98   0
        53    760.4075    939.2706 307.5942610  +6.3095212     882.5827     1454.221     1741.907     77.92115     156.0918     312.7442      1.847     5.53     858.7426      55.1427     143.8186        11     1.477     0.584 -50.22   0
        54    433.5110    933.1573 307.7301840  +6.3010948     2188.766     3295.032     3243.562     78.41905      156.341     312.8687      1.589     4.58     861.8028      55.1427     304.3908        18     1.556     0.725 -45.54   0
        55    106.8873    934.7599 307.8657281  +6.2894571     452.8658     581.2326     402.9745     78.41905     156.4032     312.8687      1.181     3.46     859.9229      55.1427     91.88342         5     1.024     0.338 -44.29   0
        56    602.5863    933.2262 307.6599873  +6.3067344     606.9811     628.7887     164.3612      78.1705     156.2787     312.7753      1.364     4.87     861.9425      55.1427     103.3273         7     1.199     0.561 -51.29   0
        57    335.1414    931.5388 307.7710776  +6.2984610     10013.41     15018.11     15935.62     78.41905     156.4032     312.8687      1.589     3.58     862.5092      55.1427     1427.029        38     1.534     1.011 -47.19   0
        58    255.2211    930.4578 307.8042932  +6.2962223     7419.508     10982.98     11017.48     78.04592      156.341     312.6509      1.595     3.55      861.683      55.1427     1104.876        32     1.535     0.928 -51.73   0
        59    174.1571    928.8098 307.8380025  +6.2941770     520.3542     759.7651     726.0659     77.92115     156.2787     312.5886      1.235     3.99     859.6613      55.1427     96.19135         6     0.796     0.571 -57.10   0
        60    897.6926    936.0085 307.5373723  +6.3154562     6681.615      10595.5     11119.48     78.04592     156.1542     312.6509      1.701     3.66     856.1119      55.1427     839.3601        36     1.607     1.073 -56.43   0
        61    583.3289    924.9341 307.6682612  +6.3095128     1122.145     1543.209     1226.589     78.41905     156.5276     312.8376      1.562     4.57     861.8009      55.1427     145.4795        12     1.238     0.692 -26.88   0
        62    913.4420    921.1857 307.5313301  +6.3221020     1029.999     1829.173      2220.17     77.79617     156.2787     312.5886      2.315     5.63     855.3859      55.1427     132.6863        14     1.287     1.049 -10.04   0
        63    869.7647    920.2691 307.5494952  +6.3210216     684.4599     1109.769     512.3299     78.29488     156.4654     312.9619      1.622     5.09     856.6928      55.1427     114.7216         8     0.956     0.767 -76.24   0
        64    217.2448    920.4808 307.8203958  +6.2990646     708.4805     1108.783     1317.232     78.41905     156.4654     312.8064      1.569     4.63     860.5121      55.1427     90.42432         7     0.875     0.697  77.02   0
        65    146.0880    920.4707 307.8499368  +6.2966755     606.8228     751.5276     980.7033     78.54304      156.714     312.8376      1.522     5.34      859.431      55.1427     92.13654         9     1.276     0.631 -28.15   0
        66    411.9789    918.9857 307.7396006  +6.3062231     600.9397      889.662     1042.869      78.1705     156.2165     312.7442      1.540     3.82     861.4717      55.1427     108.4188         6     0.878     0.676 -39.24   0
        67    573.2263    915.0735 307.6727871  +6.3132454      711.514     1224.373      998.618     78.04592      156.341     312.7753      1.969     5.29     861.4329      55.1427     98.88135         9     1.257     0.629 -43.25   0
        68    749.8304    913.9870 307.5995010  +6.3196061     1776.506     2696.933     3013.707     77.92115     156.2787     312.7753      1.577     3.86     858.6478      55.1427     263.5737        18     1.349     0.818 -55.71   0
        69    980.9562    909.8969 307.5036769  +6.3290167     1378.347       2100.6     3315.932     78.41905     156.4032      312.993      1.632     3.94     853.0754      55.1427     195.0006        15     1.258     0.803 -55.26   0
        70    613.8409    910.4328 307.6560809  +6.3165219        838.1      997.892     1144.146      78.1705     156.4032      312.682      1.339     4.68     861.0394      55.1427     121.4776         8     0.941     0.659 -53.23   0
        71    534.7122    909.9449 307.6889497  +6.3140721     1303.012     1749.578     1492.025     78.41905      156.341      312.993      1.417     3.92     861.2648      55.1427     195.0206        11     1.129     0.655 -60.10   0
        72      1.2740    910.8120 307.9103817  +6.2957872     577.3004     637.3733     658.7685     67.04772     123.2831     234.1793      1.219     2.49     859.7869      55.1427     147.6754         5     0.846     0.441  84.69  24
        73    668.2816    907.3910 307.6335803  +6.3196006     2493.396     3707.549     3629.571     78.04592     156.0918      312.682      1.554     3.66     859.5403      55.1427     365.4972        20     1.429     0.796 -48.13   0
        74   1019.0499    906.3800 307.4879783  +6.3317397     503.8734     840.1445     794.5259     77.92115     156.5276     296.1897      1.768     4.62     851.5949      55.1427     76.47021         5     1.073     0.564 -72.16  16
        75     64.7888    903.3532 307.8842662  +6.3010059     2977.311     4610.742     4447.304     77.92115     156.2787     312.5263      1.677     4.04      859.266      55.1427     429.7469        24     1.492     0.991 -59.29   0
        76    829.2040    903.6868 307.5668916  +6.3265126     724.2831      1116.69     973.1808     77.92115     156.1542     312.5575      1.720     3.99     857.0837      55.1427     101.1448         7     0.986     0.557 -72.76   0
        77    208.2722    902.3824 307.8247316  +6.3062348     2173.533     3444.376     3273.414     77.92115     156.4032     312.7753      1.643     4.07     860.2629      55.1427     325.1803        20     1.513     0.778 -47.52   0
