#   1 NUMBER                 Running object number                                     
#   2 X_IMAGE                Object position along x                                    [pixel]
#   3 Y_IMAGE                Object position along y                                    [pixel]
#   4 ALPHA_J2000            Right ascension of barycenter (J2000)                      [deg]
#   5 DELTA_J2000            Declination of barycenter (J2000)                          [deg]
#   6 FLUX_APER              Flux vector within fixed circular aperture(s)              [count]
#   9 FLUXERR_APER           RMS error vector for aperture flux(es)                     [count]
#  12 FLUX_RADIUS            Fraction-of-light radii                                    [pixel]
#  13 FWHM_IMAGE             FWHM assuming a gaussian core                              [pixel]
#  14 BACKGROUND             Background at centroid position                            [count]
#  15 THRESHOLD              Detection threshold above background                       [count]
#  16 FLUX_MAX               Peak flux above background                                 [count]
#  17 ISOAREA_IMAGE          Isophotal area above Analysis threshold                    [pixel**2]
#  18 A_IMAGE                Profile RMS along major axis                               [pixel]
#  19 B_IMAGE                Profile RMS along minor axis                               [pixel]
#  20 THETA_IMAGE            Position angle (CCW/x)                                     [deg]
#  21 FLAGS                  Extraction flags                                          
         1      3.8831     35.1856 307.9360225  +6.6322324     693353.6      1880919      2221110     90.65511     178.3168     316.6613      2.627     7.69     1181.318     64.05162     60514.67       264     2.328     2.005 -67.42  28
         2    143.4810     22.3616 307.8784312  +6.6421837     1397.846     3831.384     5479.471     91.08852     181.8164     363.3076      3.008     9.71     1171.373     64.05162     152.2072        28     1.956     1.408 -31.44   2
         3     25.8034     20.0583 307.9274251  +6.6392133     5569.766     14575.05     19514.17     90.36501     181.5996     363.0908      2.887     6.56     1179.555     64.05162       629.86        81     2.356     1.913 -20.59   0
         4    827.2032     14.1384 307.5944836  +6.6682737     2877.887     7427.584     9352.684     90.36501     181.5273     363.0546      2.752     7.05     1143.187     64.05162     340.2592        55     2.247     1.584 -20.37  16
         5    772.5031     14.2009 307.6172216  +6.6664384     1498.272     3899.458     4266.251     90.51018     181.3102     362.9823      2.563     8.36     1145.901     64.05162     158.4567        30     1.866     1.386  10.31   2
         6     65.9942     11.8508 307.9109976  +6.6439442     1463.131     3635.841     4418.709     90.51018     181.5273     362.9823      2.513     8.56     1175.689     64.05162     213.1316        30     2.050     1.387 -15.95  16
         7      7.8173      7.6900 307.9353217  +6.6437233     1090.365     2619.908     2846.576     90.79981      181.455     357.1853      2.446     6.31     1181.524     64.05162     140.6956        17     1.375     1.222 -77.20  16
         8    766.8267      2.5591 307.6199742  +6.6710606     978.6531     1822.368     2036.911     90.65511     163.6516     295.4717      2.119     5.35     1145.609     64.05162     140.8622         9     1.130     0.922  33.41  24
         9    576.1270   1010.9308 307.6651972  +6.2481144     1912.679     4352.023     5468.125     91.23254     181.8886     363.3799      2.456     7.09     1201.264     64.05162     222.3157        29     1.741     1.204 -18.67   0
        10    282.2708   1001.4862 307.7875761  +6.2422666     808.1546     1779.473     1758.995     91.23254     182.0329      363.416      2.261     5.89     1201.301     64.05162     120.8917         9     1.481     0.659 -19.70   0
        11      6.3240    998.5891 307.9022904  +6.2342823     7554.463     16810.96     19583.17     90.65511     181.3102     347.9507      2.408     5.36     1197.435     64.05162      833.462        65     2.063     1.607 -17.95  16
        12    704.9470    999.1917 307.6120832  +6.2572300     2752.831     5852.374     6789.982     90.51018     181.5996     363.0546      2.336     5.92     1199.989     64.05162     301.3888        35     1.893     1.182 -17.57   0
        13    235.4291    995.7892 307.8072253  +6.2430636     800.2571     1566.352     2316.251     90.51018     181.5273     363.1992      2.103     6.00     1201.252     64.05162     136.0148         8     1.631     0.621 -22.56   0
        14     70.9314    988.7490 307.8757895  +6.2404996     4506.445     10433.07     12317.32     90.94428     181.5996     363.3076      2.444     5.81     1198.739     64.05162     508.2463        53     2.077     1.509 -31.21   0
        15    800.2071    988.0850 307.5728870  +6.2649697     8780.356      19183.6     21998.45     90.65511     181.3826     363.1992      2.280     5.87     1198.487     64.05162     932.6117        61     2.068     1.463 -16.15   0
        16    614.5861    997.5428 307.6496737  +6.2549199     981.5252     2301.141     2102.858     90.36501     181.5996     363.0185      2.229     7.52     1200.969     64.05162     135.9899        16     1.759     0.900 -17.82   0
        17    574.4336    967.3076 307.6673727  +6.2660822     2443.909     5419.331     7413.848     91.23254     181.5996     363.4522      2.839     9.92     1200.061     64.05162     261.4679        41     2.364     1.377  -2.71   3
        18    583.6950    978.9456 307.6631329  +6.2615805     92296.07     210974.5     258858.7     90.94428     181.6719     363.6327      2.526     5.79     1200.344     64.05162     9621.016       141     2.397     1.767 -21.34   3
        19    585.3409    971.8140 307.6626898  +6.2645816     42161.51     98462.17     118372.6     90.36501     181.6719     363.0546      2.484     5.81     1200.127     64.05162     4320.965        95     2.361     1.488 -17.28   3
        20    217.9146    981.8347 307.8149728  +6.2482468     2166.963     4946.835     5399.362     91.08852     181.5996     363.3799      2.341     6.24     1200.922     64.05162     244.2628        36     1.957     1.275 -10.37   0
        21    794.5317    975.8906 307.5756552  +6.2698205     4308.115     9093.427     10706.39     91.23254     181.8886     363.3799      2.293     6.35     1198.338     64.05162     489.4237        43     2.033     1.284 -18.00   0
        22    892.3604    972.7592 307.5351221  +6.2743471     1097.025     2112.252     1247.964     90.79981     181.8886     363.2354      2.011     6.53     1197.646     64.05162     151.4043        14     1.401     0.853 -43.10   0
        23    214.7634    970.7860 307.8166559  +6.2527069     1159.693     2527.404     3147.546     90.51018     181.5273     363.1269      2.495     7.87     1200.645     64.05162     141.4342        18     1.408     1.262 -43.50   2
        24    718.3126    968.3436 307.6075709  +6.2704179     4532.349     9953.544     12217.03     91.08852     181.5996     363.5244      2.434     5.82     1198.758     64.05162     511.1843        49     2.067     1.348 -22.40   0
        25    433.2506    968.5486 307.7259767  +6.2608883     2069.274     5384.812     7176.021     91.08852     181.5996     363.3076      2.940     7.63      1200.33     64.05162     233.5596        41     2.006     1.536 -24.08   0
        26    750.7001    963.8497 307.5942685  +6.2733461     847.5929      1691.03     2422.384     91.08852     181.7442     363.5605      2.599     5.40      1198.24     64.05162     136.0389         8     1.018     0.905 -49.54   0
        27    957.9197    957.6796 307.5083952  +6.2827423     4861.591     9831.654     10615.28     91.37633     182.0329     363.5605      2.116     6.00     1195.358     64.05162     599.9215        42     1.950     1.215 -22.70   0
        28    242.7409    958.1169 307.8054637  +6.2588715     909.1815     1950.771     2306.226     91.08852     181.8164     363.4522      2.278     5.63     1200.543     64.05162     110.5173        10     1.143     0.781 -35.91   0
        29    717.0546    955.8506 307.6085145  +6.2755381     1669.516     3919.806      5334.13     91.08852     181.7441      363.416      2.960     9.93     1198.484     64.05162     204.2097        37     2.404     1.218 -23.77   0
        30    364.3615    953.0718 307.7551155  +6.2649964     1059.678     2430.529     2377.832     90.94428     181.7441     363.4522      2.299     7.06     1200.737     64.05162     161.5795        14     1.508     1.026   2.97   0
        31    751.1885    942.8476 307.5947731  +6.2820398     4717.063     10874.24     12658.86     90.36501     181.5996     363.0185      2.394     5.87      1197.92     64.05162     506.1647        55     2.030     1.527 -15.29   0
        32    546.5189    943.2015 307.6797820  +6.2751171     2259.745     5437.233     6564.086     90.21961     181.2378     363.0546      2.594     6.32     1199.814     64.05162     249.7354        40     1.919     1.448 -26.32   3
        33    543.9456    935.7991 307.6811009  +6.2780903     4464.257     10862.01     13359.09     90.36501     181.3826     362.9823      2.536     5.89     1199.718     64.05162     469.7686        55     2.056     1.582 -24.59   2
        34    297.0540    942.4804 307.7834324  +6.2671369     8338.905     19326.68     24809.76     91.08852     181.7441     363.4522      2.666     5.99     1200.564     64.05162     922.7745        77     2.375     1.665 -25.85   0
        35    421.2548    942.4110 307.7318430  +6.2712895     508.8807     1093.364     1709.095     90.36501     181.6719     363.0185      2.645     4.88     1200.205     64.05162     94.35913         5     1.045     0.646  63.84   0
        36    267.9879    940.2508 307.7955815  +6.2670922     697.4422       1401.9     1551.706     90.36501     181.5996     363.0546      2.133     3.79     1200.383     64.05162     91.31006         5     0.817     0.504  53.08   0
        37    912.5485    936.3385 307.5279609  +6.2900621     5595.078     12169.95      13949.4     91.08852     181.6719     363.3799      2.291     6.14     1195.258     64.05162     590.5446        50     2.018     1.386 -17.64   0
        38    886.0247    932.4496 307.5391102  +6.2907929     8167.643     17477.84     19683.87     90.65511     181.8164     363.2715      2.271     5.63     1196.167     64.05162     899.5236        60     2.122     1.387 -17.15   0
        39    530.5510    931.6906 307.6868038  +6.2793438      2324.87     5398.995     6737.973     91.08852     181.5273     363.5605      2.582     6.84     1199.677     64.05162     254.0813        41     1.911     1.528 -10.25   0
        40   1007.7363    931.7650 307.4885716  +6.2950937     3328.977     7069.025     8354.222     90.94428     181.8164     363.3799      2.273     6.51     1191.927     64.05162     432.5403        39     2.002     1.218 -25.15   0
        41    599.1378    931.9227 307.6583046  +6.2815207     657.7297     1740.537     2044.441     91.37633     181.8164     363.3799      2.685     6.09     1198.655     64.05162     99.81763         8     1.148     0.909  -9.69   0
        42    640.3684    930.7934 307.6412152  +6.2833528     828.3439      1965.24      2005.36     90.36501     181.5273     363.1269      2.637     6.64     1198.294     64.05162     117.1091        14     1.958     0.632  -6.75   0
        43    483.9263    928.2388 307.7062883  +6.2792241     1223.353     2815.167     2714.305     90.94428     181.7441     363.4522      2.431     8.11     1199.721     64.05162     140.8976        21     1.513     1.271  -5.08   0
        44    917.8772    920.0076 307.5262965  +6.2969857     28255.43     60968.47     69626.42     90.65511     181.1653     363.1631      2.298     5.73     1194.118     64.05162     3085.369        85     2.155     1.500 -19.95   0
        45    225.4115    918.4186 307.8140063  +6.2746972      1037.69       2086.9     2778.589     90.65511     181.3826     363.2715      2.414     7.04     1199.639     64.05162     130.0873        15     1.616     0.860  -0.96   0
        46    815.9878    913.7164 307.5688355  +6.2962188     1406.631     3127.906     3266.724     90.65511     181.5273     363.1992      2.327     8.56     1196.508     64.05162     160.7317        24     1.762     1.162 -33.04   0
        47    763.9750    911.7116 307.5905103  +6.2953274     3926.757     8727.607     10253.28     91.23254     181.5273     363.2354      2.375     6.31     1196.711     64.05162     405.2365        51     2.172     1.411 -18.81   0
        48    234.3065    911.6335 307.8105412  +6.2777962     846.4257     1719.625     2829.528     91.23254     181.5996     363.4522      3.090     7.40     1199.624     64.05162     121.2043        11     1.599     0.959 -42.89   0
        49     58.6244    908.9678 307.8836074  +6.2730518     1729.339     3879.702     4686.828     90.36501     181.5996     363.1631      2.538     7.45     1197.744     64.05162     200.5066        26     1.896     1.026 -22.00   0
        50    952.2187    906.6876 307.5124780  +6.3036231     4644.056     9809.249     11159.74     90.79981      181.455     363.2354      2.211     5.78       1192.4     64.05162     511.0336        44     1.927     1.292 -24.60   0
        51    925.6366    898.5446 307.5237949  +6.3061100     1561.894     3307.381      3992.71     90.94428     181.7442      363.416      2.266     6.40     1192.708     64.05162      173.597        22     1.680     1.060 -16.02   0
        52    646.6411    894.5273 307.6398326  +6.2985447     2560.382     5638.454     6484.729     90.94428     181.7442      363.416      2.390     6.27     1196.347     64.05162     252.6995        40     1.995     1.306 -30.64   0
        53    258.9064    894.8257 307.8008917  +6.2855583      2401.47     5674.572     6454.018     91.23254      181.455     363.1992      2.562     6.59     1199.677     64.05162      288.726        40     2.099     1.264 -37.01   0
        54    784.7914    894.6305 307.5824380  +6.3030733     777.3942     1684.109     2125.813     90.51018     181.5273     363.1631      2.432     5.98      1195.67     64.05162     106.9081         9     1.429     0.705 -33.87   0
        55     28.5633    892.3165 307.8966592  +6.2789301      1271.26     2859.708     3342.125     91.08852     181.6719     363.3076      2.305     6.97     1197.483     64.05162     167.7808        21     1.557     1.264 -15.93   0
        56    469.1737    892.3717 307.7136284  +6.2935540     545.1295     1243.208     1518.267     90.51018     181.5273     363.1992      2.345     5.18     1198.809     64.05162     78.99854         5     1.029     0.736  76.10   0
        57    947.6934    888.3672 307.5149741  +6.3110433     686.2347     978.5024     942.0574     91.23254     181.5996     363.4522      1.505     4.56     1191.606     64.05162     98.24036         6     1.063     0.555 -52.37   0
        58    571.5247    887.6177 307.6712706  +6.2989114     836.7758     1909.922     2091.453     90.51018      181.455     363.2715      1.910     5.04     1197.291     64.05162     151.6187         8     1.481     0.485 -85.09   2
        59   1003.3801    885.8163 307.4919254  +6.3139352     540.4577     1387.871      1696.87     90.79981     181.5273     363.2715      2.545     5.06     1190.158     64.05162     81.06995         5     1.008     0.718 -12.73   0
        60     59.5315    883.8028 307.8840843  +6.2834791     582.4193     1391.122     2066.142     90.36501     181.3102     363.1269      3.162     5.29     1197.372     64.05162     108.7257         6     1.127     0.702   2.73   0
        61    290.7891    880.9666 307.7881167  +6.2923440      760.178     1734.924     2357.491     90.51018     181.3826     363.1992      2.578     4.85     1199.976     64.05162     99.88623         6     1.316     0.507  69.27   0
        62    894.8632    873.6949 307.5374152  +6.3153611     4521.203     9938.881     11626.53     90.94428     181.8886     363.4522      2.334     5.71     1191.615     64.05162      546.214        47     2.111     1.301 -21.52   0
        63    430.5764    870.7608 307.7303926  +6.3012024     1170.516     2766.006     2916.377     90.65511      181.455     363.1269      2.394     8.53      1198.31     64.05162     136.4403        22     1.840     1.105 -15.96   0
        64    332.6344    869.5309 307.7711207  +6.2984590     4929.679     11768.87     14719.19     90.94428     181.7442     363.4883      2.665     6.23      1199.57     64.05162     506.0902        69     2.392     1.612 -20.22   0
        65    252.5630    868.4233 307.8044206  +6.2962560      3693.83     8981.728     11345.62     90.65511      181.455     363.1269      2.640     6.44     1199.195     64.05162     399.7081        59     2.236     1.593 -17.29   0
        66    911.1758    858.0258 307.5311655  +6.3223741     628.6295     1537.273     1814.987     90.51018     181.5273     363.2715      2.311     7.38     1190.722     64.05162     92.72717         9     1.330     1.147 -67.95   0
        67    747.1503    851.9041 307.5995148  +6.3194820     940.3655     2192.154     2123.087     90.94428     181.6719     363.5605      2.301     8.40     1193.069     64.05162     111.7316        15     1.769     1.116  -4.02   0
        68    977.8303    847.3464 307.5038331  +6.3289871     777.4948     1686.877     2218.402     90.94428     181.8164     363.2715      2.006     6.70     1188.851     64.05162     105.9435        12     1.710     0.736 -17.20   0
        69    665.6223    845.0767 307.6336150  +6.3196049     1359.982     3321.606      4694.94     90.65511     181.5996     363.3076      2.843     9.38     1192.969     64.05162     161.6201        25     2.179     1.127 -21.34   0
        70    206.1528    841.1098 307.8246250  +6.3059978     1328.589     2865.375     3524.143     91.08852     181.5996     363.5244      2.347     7.60     1197.997     64.05162     194.2164        21     1.776     1.150 -39.09   0
        71     80.4634    840.0923 307.8768719  +6.3022355     962.0358     2235.763     3213.217     91.08852     181.9607     363.4522      2.531     9.44     1196.635     64.05162     148.3788        15     1.942     1.285 -10.09   0
        72    660.1781    834.5004 307.6362334  +6.3237945     3680.658     8555.764     10573.34     91.08852      181.455     363.1269      2.585     6.28     1192.421     64.05162     377.5178        54     2.138     1.568 -18.81   0
        73    897.9331    830.5918 307.5375901  +6.3332719      1770.52     3892.329     4195.367     90.51018      181.455     363.1992      2.229     6.83     1189.967     64.05162     201.4307        26     1.715     1.176 -23.48   0
        74    343.3950    827.8735 307.7680600  +6.3160278      8157.06     20437.08     26884.21     90.65511     181.2378     363.2715      2.786     6.34     1198.321     64.05162     867.4977        80     2.366     1.762 -18.28   0
        75     77.0969    829.0663 307.8786444  +6.3066788     702.8912      1540.77     1724.506     91.08852     181.8164      363.416      2.701     5.69     1196.435     64.05162     103.4171         7     1.220     0.748   8.84   0
        76     62.6373    841.6051 307.8842256  +6.3010168     1567.369     3912.252     4323.083     90.07398      181.455     363.1269      2.521     7.49     1196.671     64.05162     200.4076        28     1.835     1.334 -23.10   0
        77    106.8155    818.3805 307.8666614  +6.3120832     928.4779     1920.759     2513.052     90.79981      181.455     363.2715      2.432     4.62     1196.388     64.05162     155.8403         9     1.047     0.730 -27.17   0
