#   1 NUMBER                 Running object number                                     
#   2 X_IMAGE                Object position along x                                    [pixel]
#   3 Y_IMAGE                Object position along y                                    [pixel]
#   4 ALPHA_J2000            Right ascension of barycenter (J2000)                      [deg]
#   5 DELTA_J2000            Declination of barycenter (J2000)                          [deg]
#   6 FLUX_APER              Flux vector within fixed circular aperture(s)              [count]
#   9 FLUXERR_APER           RMS error vector for aperture flux(es)                     [count]
#  12 FLUX_RADIUS            Fraction-of-light radii                                    [pixel]
#  13 FWHM_IMAGE             FWHM assuming a gaussian core                              [pixel]
#  14 BACKGROUND             Background at centroid position                            [count]
#  15 THRESHOLD              Detection threshold above background                       [count]
#  16 FLUX_MAX               Peak flux above background                                 [count]
#  17 ISOAREA_IMAGE          Isophotal area above Analysis threshold                    [pixel**2]
#  18 A_IMAGE                Profile RMS along major axis                               [pixel]
#  19 B_IMAGE                Profile RMS along minor axis                               [pixel]
#  20 THETA_IMAGE            Position angle (CCW/x)                                     [deg]
#  21 FLAGS                  Extraction flags                                          
         1    611.3733     20.7402 307.6835758  +6.7066523     10361.75     18736.39      19746.7     80.74545     161.9417     323.5295      1.899     6.29     897.6472     57.05003     1450.397        42     1.863     0.973  30.20   0
         2    750.7512     15.6014 307.6258459  +6.7134611      4296.18     7665.464     8027.386     80.48706     161.4909     323.2074      1.901     6.93     897.3326     57.05003     646.1861        30     1.778     0.880  30.39   0
         3    237.6618     10.6276 307.8391614  +6.6982264     9052.909     16722.11     17853.32     80.74545     161.9417     323.6261      1.943     5.48     918.5895     57.05003     1148.538        42     1.865     1.044  31.68  16
         4     12.7276      8.4198 307.9326735  +6.6915299      16522.2     30154.12     31511.28     80.74545     161.7487     323.6261      1.922     5.98     920.9198     57.05003      2231.38        52     1.916     1.034  30.95  16
         5    753.7354      7.0011 307.6248937  +6.7171121     1404.062      2410.83      2478.22     80.48706     161.6198     315.7749      1.813     6.40      896.995     57.05003     205.4468        17     1.556     0.739  29.56  16
         6    330.6674      5.9807 307.8006819  +6.7032854     898.3872      1508.51     1813.884     80.74545     161.8774     306.8083      1.815     6.23     914.2415     57.05003     145.7423        14     1.580     0.692  28.24  16
         7    489.5704      1.4786 307.7348213  +6.7105030     4784.891     6471.989     7051.179     72.45129      130.932     245.9908      1.394     4.82     898.9633     57.05003      893.299        22     1.672     0.627   3.34  24
         8    459.3596   1009.6246 307.7135916  +6.2932562     788.3704     1501.527     1649.235     80.74545     161.7487     323.4329      1.968     6.51     940.6013     57.05003     120.0596        14     1.792     0.665  37.60   0
         9    942.3693   1022.9515 307.5126503  +6.3039831     4964.731     7990.372     7950.447     78.38931     139.3329     255.2987      1.704     5.70     930.2985     57.05003     672.5221        27     1.800     0.849  18.49  24
        10     47.5285   1023.7865 307.8840567  +6.2735112     799.0805     1013.513     1074.276     68.76363     126.8103     241.5043      1.283     3.51     942.1143     57.05003     213.5475         7     1.209     0.372   8.59  24
        11     18.3860   1008.8555 307.8966546  +6.2786900     1755.735      3379.23     3634.403     80.48706      161.813     323.3685      2.132     6.76     942.0253     57.05003     241.8442        24     1.833     0.886  32.46   0
        12    870.3576   1009.3367 307.5429965  +6.3071896     764.1014     1284.859     1498.581     81.13148      161.813     323.7226      1.893     5.11       933.03     57.05003     111.7073         7     1.037     0.712 -53.60   0
        13    868.2646   1006.8796 307.5439473  +6.3081339      646.605     1127.431     1507.091     81.38783     161.9417     323.6261      1.638     3.07     933.0436     57.05003     139.7097         5     1.057     0.444 -32.12   0
        14    941.4293   1004.8558 307.5136434  +6.3114229     575.0107     914.9139     911.6219     80.87433     161.9417     323.5617      1.577     5.04     929.6832     57.05003       83.703         7     1.602     0.449  27.72   0
        15    563.3840   1004.2958 307.6705901  +6.2989580     968.0231     1434.688     1839.802     80.87433     161.6842     323.5295      1.478     3.29     939.2272     57.05003     176.1729         7     0.902     0.687  65.34   3
        16    560.5491   1003.0262 307.6718093  +6.2993868     1152.483     1726.156     2217.918     80.74545     161.9417     323.5617      1.634     3.73     939.2791     57.05003     190.4017        10     1.046     0.674  58.32   2
        17    284.8371   1004.6290 307.7862005  +6.2894358     666.4997     1366.049      1647.63     80.74545     161.6198     323.4973      2.540     4.68     942.4966     57.05003     106.1029         7     1.443     0.430  33.68   0
        18    993.4724   1003.6127 307.4920811  +6.3136802     666.9671     1734.514     2416.132     80.61636     161.4909     323.4651      3.096     7.67     926.7664     57.05003     88.47491        12     1.627     1.012  -5.85   0
        19    601.2568    999.9641 307.6550141  +6.3020205     1065.146     2007.992     2058.543     81.00301     161.8774     323.6904      1.995     6.89     937.9537     57.05003     164.0494        15     1.614     0.825  38.64   0
        20     50.7253   1000.7327 307.8835049  +6.2831372      646.412     1400.004     2252.536     81.25976      162.006     323.6261      2.542     6.90     941.9716     57.05003      94.6571         9     1.707     0.781  24.45   0
        21    281.2699    997.8506 307.7879085  +6.2921140     1083.269     2187.035     2465.756     81.00301      161.813     323.6904      2.140     6.37     942.4835     57.05003     139.8914        15     1.735     0.656  21.93   0
        22    748.2805    994.0587 307.5941814  +6.3094000     684.2643     1579.331     2149.934     81.25976     161.9417     323.6583      2.698     6.24     934.9135     57.05003     93.15308        11     1.623     0.674  30.20   0
        23    885.5920    990.5662 307.5372984  +6.3154505     5663.805      10827.2        10966     80.61636     161.6842     323.4651      1.991     5.89     931.6822     57.05003     712.8887        40     1.956     1.047  31.46   0
        24    421.2948    987.7158 307.7301256  +6.3010193     1859.581     3383.094     4070.291     81.00301      162.263     323.7869      1.992     5.89     941.7635     57.05003     251.1953        24     1.668     0.947  33.96   0
        25    323.0424    985.9583 307.7709682  +6.2984330      7955.53     14681.99     15931.56     80.87433     161.8774     323.5295      1.960     6.22     942.3653     57.05003     1040.698        39     1.879     0.973  32.37   0
        26    243.1190    984.8262 307.8041812  +6.2962039     5763.635        10925     11620.45     81.00301     161.6842     323.6904      1.979     6.49        942.4     57.05003     809.4813        40     1.927     1.021  31.26   0
        27    571.5588    979.5078 307.6680258  +6.3094673     1032.709     2095.922     2319.405     81.13148      161.813     323.7548      2.108     7.60     938.6433     57.05003     154.5009        16     1.825     0.884  28.14   0
        28    755.5066    978.8217 307.5916904  +6.3159337     681.5362     966.9172     1176.618     81.13148     161.6842     323.4651      1.608     4.27     934.3485     57.05003     89.82556         6     1.096     0.473  29.44   0
        29    901.9253    976.0071 307.5310035  +6.3220094     794.7329     1292.048      1192.28     80.74545     161.4264     323.5295      1.611     4.40     930.4205     57.05003     135.5988         8     1.406     0.392  28.84   0
        30    859.0281    975.3075 307.5488343  +6.3208594     622.1391     868.9222     622.0371     81.25975     161.6198     323.5295      1.475     4.13     932.1392     57.05003      91.4353         5     0.821     0.594  86.53   0
        31    968.5733    971.3918 307.5034903  +6.3261493     765.7777     1315.441     1692.106     80.74545     161.6842     323.4973      1.640     4.68     926.9711     57.05003     103.7394         8     1.153     0.538  37.20   0
        32    737.5366    968.6564 307.5994894  +6.3195271     1387.167      2747.29     3279.832     81.25976      161.813     323.6583      2.016     6.18     934.4941     57.05003     197.5021        21     1.887     0.864  24.45   0
        33    561.1185    969.0869 307.6727082  +6.3134185     533.9855     897.7808     1059.053     80.87433     162.1345     323.7869      2.157     5.37     938.8292     57.05003     95.06482         6     1.590     0.512  52.44   0
        34    523.3578    964.6252 307.6885322  +6.3139898     962.0537     1943.939     1925.028     80.74545      161.813     323.4329      2.155     7.15      939.383     57.05003     139.3531        18     2.020     0.710  26.80   0
        35    968.7460    963.8926 307.5036685  +6.3292513     1010.051     2202.568     2605.941     81.00301      161.813     323.8191      2.540     7.06     926.7326     57.05003      130.985        16     1.632     0.855  48.73   0
        36    612.4797    964.3829 307.6515450  +6.3170884     558.7738     1048.943     551.1277     80.74545     161.5554     323.5617      1.886     6.23     937.3098     57.05003      131.448         9     1.249     0.873  14.87   0
        37    656.1255    961.9860 307.6335072  +6.3195456     2073.423     3804.543      3853.44     80.61636     161.6198     323.4651      1.874     6.19     936.0472     57.05003     249.4117        23     1.787     0.838  26.88   0
        38    945.8033    960.0308 307.5133212  +6.3300768     473.4095      658.697     684.6937     80.61636     161.6842     323.4329      1.561     4.31     927.7501     57.05003     77.77435         5     1.044     0.506  55.02   0
        39     52.6186    958.0375 307.8841543  +6.3008282     2368.462      4499.95     4826.452     80.74545     161.7487     323.4007      2.094     5.92     941.7069     57.05003     309.6387        25     1.789     0.912  34.85   0
        40    817.9976    959.2152 307.5664036  +6.3261267      668.453     1143.997      1029.99     80.74545     161.4909     323.4973      1.830     3.85     932.5967     57.05003     93.83563         5     0.829     0.513  57.50   2
        41     70.2334    957.3531 307.8768657  +6.3017063     1481.487     2749.386     2872.418     80.87433     161.8774     323.5939      1.936     6.83     941.7058     57.05003     244.8278        19     1.869     0.700  32.39   0
        42    932.6534    956.7977 307.5188878  +6.3309709     620.0109     1204.375     1780.059     80.48706     161.6198     323.2719      2.348     5.91     928.2871     57.05003     83.43439         7     1.120     0.877  71.63   0
        43    196.1541    956.8638 307.8246143  +6.3061630     1748.512     3442.371     3325.972     81.00301      161.813     323.6904      2.029     6.86     942.0081     57.05003     254.8604        22     1.793     0.843  29.44   0
        44    335.3838    952.9371 307.7669524  +6.3124824      782.389     1602.048     1918.207     80.61636      161.813     323.4973      2.060     6.75     942.0569     57.05003     126.5237        13     1.888     0.676  28.50   0
        45    650.7714    951.1003 307.6360935  +6.3238600     5781.052     10740.61     11427.52     81.13148     161.6198     323.5939      1.944     6.33     936.0461     57.05003     745.5029        31     1.829     0.905  28.77   0
        46    229.4841    953.3232 307.8108981  +6.3087500     660.4546     851.9969     1332.396     81.25976     162.1988     323.7548      1.174     3.41     942.0393     57.05003     133.7053         5     0.790     0.426  66.81   0
        47     10.8963    949.1055 307.9017728  +6.3031047     944.0215      1748.74     1548.493     81.13148     162.4554     323.5295      1.938     5.87     941.6362     57.05003     143.7634        12     1.614     0.602  37.65   0
        48    763.4031    948.2793 307.5894320  +6.3288091     606.0275     827.2896      886.123     80.48706     161.3618     323.4007      1.876     4.33     933.4964     57.05003     104.9775         6     1.118     0.610  40.34   0
        49    888.5518    947.2851 307.5375127  +6.3334196     2300.805     4141.339     4326.599     81.13148     161.8774     323.6583      1.888     5.86     929.9248     57.05003     307.9986        24     1.741     0.880  26.39   0
        50     25.7267    948.2747 307.8956449  +6.3039493     663.4095     691.9583     738.5405     81.38783     162.1345     323.7226      1.521     3.79     941.6353     57.05003     122.2214         5     1.004     0.412  -6.09   3
        51     22.3309    947.6233 307.8970763  +6.3041035     741.9477     1111.558     870.1323     80.74545     161.7487     323.6261      1.551     5.18     941.6339     57.05003     135.7682         8     1.203     0.630 -71.20   2
        52    333.8278    944.2219 307.7678905  +6.3160282     13345.95     25175.55     27080.84     80.61636     161.6842     323.5939      1.957     6.19     941.9904     57.05003     1777.312        47     1.886     1.025  29.78   0
        53    204.7486    943.8492 307.8214836  +6.3118264     1116.236     1919.329     2156.178     81.25976     161.7487     323.5939      1.779     6.37     941.8937     57.05003     147.8872        14     1.598     0.714  41.85   0
        54     68.3090    945.1042 307.8780762  +6.3066983     1038.302     2047.071     2419.548     81.13148     162.3913     323.6261      2.251     6.68     941.6329     57.05003     123.0787        15     1.823     0.687  31.45   0
        55     96.6656    934.6237 307.8666580  +6.3119839     1419.078     2880.307     3325.577     80.74545     161.8774     323.5939      2.059     7.52     941.5865     57.05003     196.8137        23     1.891     0.894  38.31   0
        56    411.7082    935.1541 307.7358656  +6.3223973      933.076     1397.491     1192.037     81.13148      161.813     323.7869      1.630     5.13     940.9095     57.05003     126.8108        10     1.404     0.530  25.62   0
        57    663.5752    930.4863 307.6314673  +6.3328014     643.7448     1094.723     1920.257     81.25976     161.6842     323.4973      2.298     3.50     935.3608     57.05003     115.6952         6     0.846     0.500   1.55   2
        58    491.6677    931.5363 307.7027945  +6.3265844     769.5302     1318.728     1159.984     81.13148     161.8774     323.7226      1.758     5.89     939.4953     57.05003     135.8212        10     1.610     0.607  48.30   0
        59    878.6229    928.9748 307.5422450  +6.3406465     1738.703     3244.081     3286.808     80.61636     161.7487     323.6261      1.824     6.48     929.7244     57.05003     214.1697        21     1.797     0.832  26.74   0
        60    849.4067    928.6165 307.5543856  +6.3398143     1661.314     3029.425     3381.757     80.74545     161.6198     323.4973      1.929     6.46     930.9249     57.05003     207.7074        25     1.864     0.879  35.76   0
        61     80.8799    928.4542 307.8734179  +6.3139974     2010.025     3886.439     3967.224     81.13148     161.8774     323.7226      1.977     6.48     941.5393     57.05003     248.3505        27     1.786     0.992  26.04   0
        62    812.9241    928.0902 307.5695483  +6.3388072     2416.646     4492.063     5000.236     81.13148     162.1345     323.6904      1.995     5.93     932.1259     57.05003     296.3255        24     1.817     0.824  28.13   0
        63    548.8998    919.4703 307.6794401  +6.3334926       277157       512345     543868.1     81.00301      162.006     323.6904      1.967     6.27     938.3398     57.05003     38853.81       178     2.037     1.238  31.78   0
        64    327.3973    925.4000 307.7711908  +6.3235822     509.0979     717.4197     541.1986     80.48706     161.4264     323.4007      1.408     3.85     941.8913     57.05003     97.25397         5     1.000     0.424  74.39   0
        65    393.1474    922.0665 307.7440089  +6.3271753     6415.465     11952.72      13270.6     81.13148      161.813     323.5939      1.964     6.83     940.9009     57.05003     877.8308        37     1.920     0.932  30.13   0
        66    636.9291    922.5729 307.6427932  +6.3351728       1009.1     1815.938     1363.668     80.74545     161.7487     323.5939      1.897     5.74     935.9825     57.05003     136.8262        11     1.562     0.593  29.29   0
        67    336.2985    920.4425 307.7676620  +6.3259292     10519.74     19208.13     20137.38     81.13148     161.7487     323.8834      1.936     6.05      941.722     57.05003     1348.659        44     1.888     1.012  33.82   0
        68    887.0323    915.6520 307.5391982  +6.3464292     4156.521     8063.757     8884.291     81.00301     161.8774     323.5617      2.118     5.84     928.9065     57.05003     554.2069        40     2.034     1.104  28.14   0
        69    654.7413    916.7580 307.6355932  +6.3381724     2989.211     5485.114     5635.101     81.13148     161.8774     323.7226      1.881     5.46     935.2119     57.05003     404.3997        25     1.780     0.839  31.26   0
        70    629.6022    910.8156 307.6462278  +6.3397807     2836.233     5189.344     5656.444     80.74545     161.4909     323.4651      2.033     6.03     935.7402     57.05003     378.6269        28     1.900     0.930  37.93   0
        71   1020.6180    909.8592 307.4839341  +6.3532986     3594.738     7068.412     7654.055     80.74545     161.4909     288.6168      2.029     5.68     923.0651     57.05003     435.7053        36     1.918     1.041  30.58  24
        72    818.0689    910.2637 307.5680073  +6.3463401     1205.605     2544.675     2342.431     81.13148     161.9417     323.7226      2.081     7.45     931.3024     57.05003     174.9705        21     1.981     0.783  39.03   0
        73    725.0978    912.0220 307.6065442  +6.3424922     697.8937     1112.789     567.5425     81.00301     161.6198     323.4651      1.866     3.67     933.4378     57.05003     107.7329         5     0.999     0.388  31.02   0
        74    737.8361    910.2594 307.6013150  +6.3436479      459.561     703.4749     662.5508     81.13148     161.8774     323.6261      1.207     3.50     933.1465     57.05003     80.57446         5     1.011     0.349  44.93   0
        75    619.8735    909.5912 307.6503074  +6.3399590      767.832     1441.782     1696.356     80.74545     161.4264     323.4973      2.168     4.91     935.9962     57.05003     115.5569         9     1.540     0.443  26.63   0
        76    944.4591    908.5334 307.5155952  +6.3512940     669.6678     1212.821     1514.182     81.25976      161.813     323.6583      1.967     4.12     926.3395     57.05003     115.0389         6     1.077     0.451  12.60   0
        77    906.3275    903.4887 307.5315935  +6.3520983     2661.127     4891.102     5004.899     81.13148     162.1345     323.6904      1.975     6.02     927.7327     57.05003     382.4633        28     2.005     0.847  33.96   0
