#   1 NUMBER                 Running object number                                     
#   2 X_IMAGE                Object position along x                                    [pixel]
#   3 Y_IMAGE                Object position along y                                    [pixel]
#   4 ALPHA_J2000            Right ascension of barycenter (J2000)                      [deg]
#   5 DELTA_J2000            Declination of barycenter (J2000)                          [deg]
#   6 FLUX_APER              Flux vector within fixed circular aperture(s)              [count]
#   9 FLUXERR_APER           RMS error vector for aperture flux(es)                     [count]
#  12 FLUX_RADIUS            Fraction-of-light radii                                    [pixel]
#  13 FWHM_IMAGE             FWHM assuming a gaussian core                              [pixel]
#  14 BACKGROUND             Background at centroid position                            [count]
#  15 THRESHOLD              Detection threshold above background                       [count]
#  16 FLUX_MAX               Peak flux above background                                 [count]
#  17 ISOAREA_IMAGE          Isophotal area above Analysis threshold                    [pixel**2]
#  18 A_IMAGE                Profile RMS along major axis                               [pixel]
#  19 B_IMAGE                Profile RMS along minor axis                               [pixel]
#  20 THETA_IMAGE            Position angle (CCW/x)                                     [deg]
#  21 FLAGS                  Extraction flags                                          
         1    794.6577     29.9810 307.6010709  +6.7369069     19889.58     58435.45     71928.51      92.3428      185.054      369.924      2.736     6.50     1196.423     65.24405     1864.769       104     2.168     2.098 -26.59   0
         2    837.9673     25.9085 307.5831676  +6.7400322     909.7719     2363.208     3598.584     92.93098     184.9804     370.1816      3.470     9.31     1195.648     65.24405     116.0197        18     1.833     1.318 -28.82   2
         3    802.3814     11.8549 307.5984671  +6.7446469     1299.949     4057.827     4007.435     92.19518     185.1276      369.924      2.584    10.24     1195.086     65.24405     174.0352        33     1.864     1.569 -60.20  16
         4    964.0633      8.5538 307.5312269  +6.7513972     24069.63     56662.89     62776.48     92.63736      185.054     370.1816      2.336     5.38     1189.719     65.24405     2431.923        84     1.922     1.753 -66.86  16
         5    196.8720     10.1728 307.8507501  +6.7250818     5271.332     19263.93     23885.95      92.4902      185.054     370.0344      2.909     8.20     1228.917     65.24405     809.9215        74     2.219     2.018 -66.43  16
         6    247.9335     10.1500 307.8294819  +6.7268047     2634.839      7943.77     10533.27     92.63737     184.9804     370.1081      2.859     8.36     1228.531     65.24405     303.1116        52     2.264     1.886 -41.71  18
         7    837.2247      7.7104 307.5840928  +6.7475196     3761.069     10104.31     12046.04     92.93098     184.9068     366.5206      2.572     6.31     1194.733     65.24405     369.8458        50     1.791     1.765 -41.79  16
         8    700.7153      9.3167 307.6409036  +6.7423021     751.7562     2019.146     2812.166      92.4902     185.3482     370.2184      2.730     4.36     1198.308     65.24405     121.3488         5     1.130     0.479  50.85   2
         9    987.5928      3.0875 307.5216098  +6.7544370     1952.593     4008.597      4236.93     92.19518     173.5835     309.8481      2.103     5.37     1186.966     65.24405     215.4418        28     1.457     1.310 -53.34  24
        10    707.7411      4.5645 307.6381379  +6.7444983     771.5688     1823.933     3400.054     92.78429     185.1276     332.8649      2.160     4.31     1197.738     65.24405     119.4133         7     1.264     0.419  39.64  16
        11    272.1149      1.6407 307.8196990  +6.7311283     4699.545     6998.099     6708.266     85.12786     152.5316     284.5957      1.551     5.28     1228.262     65.24405     651.4917        20     1.666     0.705  -0.71  24
        12    792.4449    994.4304 307.5693694  +6.3387011     2497.281     4620.054     4917.361     92.34281     185.2012     369.9976      1.992     4.68     1260.735     65.24405     280.9297        28     1.548     1.177 -56.22   0
        13    176.1638   1022.8038 307.8249142  +6.3063816     1441.888     2338.513     2022.704     90.25401     161.3838     294.5218      1.658     5.66     1265.682     65.24405     189.6948        17     1.440     1.016 -20.41  24
        14     50.2690   1023.2311 307.8772959  +6.3019802     1260.138     1774.265     1928.711     86.55602      154.572      286.789      1.464     4.16     1263.929     65.24405      173.827        12     1.108     0.761   3.22  24
        15     32.9231   1023.4730 307.8845068  +6.3012978      1376.03     2056.245     1857.734     83.83797     150.8253     282.2889      1.498     3.72     1263.261     65.24405     208.2607        11     1.210     0.607   3.18  24
        16     60.6048    995.0401 307.8739540  +6.3139643     1714.781     3565.117     4243.122     91.89921     184.8331     369.8135      2.214     5.61     1263.805     65.24405     199.1385        22     1.449     1.142  44.02   0
        17    528.4630    985.9297 307.6795349  +6.3333987     218206.1     476095.2     521565.4     92.78429     185.1276     370.1816      2.228     5.10     1264.516     65.24405     22861.37       156     1.944     1.735 -52.45   0
        18    372.7881    988.6564 307.7442379  +6.3270658     4609.859     11111.42     11702.43     92.04731      185.054     369.7767      2.288     5.62     1266.217     65.24405     548.3407        45     1.760     1.545 -42.47   0
        19    316.0131    987.0657 307.7679226  +6.3258214     7621.673     17798.51     19362.64     92.19518     184.9068     370.0344      2.298     5.29     1265.916     65.24405     799.5831        56     1.807     1.617 -51.72   0
        20    634.3351    983.2351 307.6355590  +6.3380477     2493.194     4922.216     4805.024     92.63737     185.1276     370.1816      2.006     5.00     1263.706     65.24405     285.4686        30     1.466     1.345 -30.12   0
        21    866.7869    981.9155 307.5388482  +6.3463447     4430.792     8285.523     9504.028     92.34281     184.9804     369.9608      2.012     4.44     1259.875     65.24405     501.0098        38     1.590     1.350 -51.32   0
        22   1000.0370    976.0299 307.4835819  +6.3532101     4276.796     7068.334     7583.666     92.34281     184.8331     369.9608      1.777     3.84     1256.364     65.24405     566.4551        29     1.438     1.113 -59.48   0
        23    609.1036    977.0206 307.6462716  +6.3397706     2368.961     4718.199     5267.329     92.63737     184.9068      369.924      2.062     5.02     1263.743     65.24405      278.948        30     1.501     1.338 -17.86   0
        24    797.2346    976.2009 307.5679919  +6.3463861     1131.779     2251.336     2724.737     91.75086     184.9068      369.924      2.137     7.11     1260.179     65.24405     120.5768        17     1.622     0.874 -43.36   0
        25    601.5092    972.3470 307.6495909  +6.3414463     1428.964     3565.419     4881.676     92.63737     184.9068      370.292      2.656    10.00     1263.568     65.24405     168.1061        30     2.303     1.211 -53.23   0
        26    924.0376    974.1878 307.5152787  +6.3514414       679.67      1419.95     1428.516     92.19518     184.9068     369.8135      1.941     3.81     1258.951     65.24405     116.6766         5     1.233     0.338 -64.97   0
        27    885.3903    969.4434 307.5315258  +6.3521130     2520.912     4400.424     4584.156     92.19518     184.9068     369.8503      1.840     4.63     1259.026     65.24405     314.8522        25     1.454     1.155 -41.70   0
        28    295.3897    969.4637 307.7771042  +6.3323966     690.4041     1196.139     1317.379     92.19518     184.9068     369.9608      1.940     5.37      1265.57     65.24405     99.21167         5     1.117     0.729  17.87   0
        29    344.1564    965.8305 307.7569299  +6.3355298     1652.692     4083.567     4556.133     92.34281     185.1276     369.9976      2.275     7.33     1266.065     65.24405     213.0898        29     1.608     1.418  72.89   0
        30    480.1564    955.6440 307.7006682  +6.3442858     2008.762     4538.874     4341.591     92.78429     185.1276     369.9976      2.164     6.93     1264.534     65.24405     224.8029        34     1.868     1.356 -36.66   0
        31    527.1795    951.7983 307.6812258  +6.3474454     3666.863     8505.487     11334.03     92.34281     184.7594     369.8135      2.715     5.80     1263.901     65.24405     406.5192        50     2.008     1.651 -29.92   0
        32    445.8106    950.6273 307.7151342  +6.3452079     755.2655     1556.448     1073.538     92.34281     184.9068     369.9976      2.387     4.81     1264.532     65.24405     111.7455         7     1.158     0.565 -26.80   2
        33    862.5635    949.2002 307.5417112  +6.3597093      1096.13     1855.756     1691.914     91.60228     184.9068      369.924      1.779     6.48     1258.121     65.24405     136.6779        15     1.315     1.037 -37.35   0
        34     87.0250    949.1719 307.8645191  +6.3337853     890.4525     1674.281     2063.839     92.19518     184.9068     369.9976      2.103     3.75     1263.415     65.24405     137.2222         8     0.997     0.675 -80.09   0
        35    497.5092    945.6161 307.6937853  +6.3490055     11925.72     27478.61     29839.56      92.4902     184.9068     369.9976      2.280     5.38     1264.171     65.24405     1243.184        58     1.809     1.612 -51.95   0
        36    662.8371    947.8589 307.6248927  +6.3536029     709.8131     1007.666     1153.475     92.78429     185.2012     370.1449      1.491     4.61     1261.525     65.24405      104.834         6     1.106     0.546 -66.78   0
        37    910.9927    943.6841 307.5217385  +6.3635994      3154.09     5501.035     5767.601     92.34281     184.7594     369.9608      1.835     4.43     1257.631     65.24405     361.8326        26     1.412     1.178 -52.50   0
        38      6.9483    936.4300 307.8982820  +6.3363557     886.7222     2111.003     2023.878      92.4902     185.2747     360.7141      2.087     6.41     1261.732     65.24405     134.8413        11     2.048     0.563  79.79  16
        39    290.4928    934.3487 307.7803353  +6.3467280     2026.588     5022.882     5954.936     92.63737     184.9804     370.3656      2.529    10.52      1265.64     65.24405     326.0482        39     2.009     1.536 -43.99   0
        40    755.6105    929.9691 307.5868809  +6.3640833     38019.55     78750.71     85139.32     92.19518     184.8331     369.9976      2.124     4.78     1259.849     65.24405     4185.219        78     1.810     1.560 -48.22   0
        41    213.2032    928.1603 307.8127159  +6.3466921     3126.296     7894.039     10649.63     91.75086     184.7594     369.8135      2.808     6.02     1265.713     65.24405     337.2035        46     1.794     1.694 -41.40   0
        42    880.8188    925.1102 307.5349259  +6.3702621     6543.077     12377.55     13485.88      92.4902     184.8331     370.0344      1.969     4.32     1256.725     65.24405     734.4272        42     1.640     1.314 -53.82   0
        43    683.9011    924.6005 307.6169120  +6.3639072     13839.64     31509.38     35343.09     92.19518     184.6856      369.703      2.260     5.12     1260.207     65.24405      1451.45        59     1.830     1.612 -49.94   3
        44    677.5779    921.1538 307.6196606  +6.3651190     56310.99     124804.1     137038.9     92.34281     185.1276     369.9608      2.252     5.18      1260.07     65.24405     5781.448        97     1.919     1.679 -53.86   3
        45    322.6137    922.2688 307.7673758  +6.3527906     11629.67     29407.44     33044.64     92.19518     184.9804     369.9976      2.428     5.81     1265.309     65.24405     1217.963        66     1.905     1.742 -51.19   0
        46    384.3911    920.1074 307.7417349  +6.3557514     12167.52     30580.07     34544.88     92.34281     184.7594      369.924      2.419     5.82     1264.523     65.24405     1239.407        69     1.909     1.753 -57.01   0
        47    212.4277    906.8989 307.8137615  +6.3554427     793517.5      2510191      2925838     92.93098     184.8331     370.1081      2.737     5.01     1265.082     65.24405     64022.25       473     2.377     2.168 -76.15   4
        48    921.4807    918.3678 307.5182275  +6.3743995     1633.192     2869.552     3047.961     92.63737      185.054     370.1081      1.971     4.75     1256.245     65.24405     189.0718        17     1.213     0.975 -40.11   0
        49    877.7306    916.5676 307.5364999  +6.3736857     5155.361     9915.604     10016.12     92.63737     185.1276     370.1816      2.015     4.42      1256.26     65.24405     581.3281        39     1.645     1.298 -55.36   0
        50    618.2070    915.8074 307.6445551  +6.3653439     3859.481     9117.143     10313.62     92.04731     184.9068     369.9976      2.360     5.83     1260.746     65.24405     415.9678        41     1.840     1.459 -48.45   0
        51    407.0706    913.9011 307.7325053  +6.3590724     994.6301      2312.38     2361.768     92.63737     185.2747     370.1081      2.317     8.00     1263.936     65.24405     133.1345        14     1.401     1.278  27.68   0
        52   1000.7817    907.5117 307.4855832  +6.3815202     665.7622     1266.649     1517.137      92.4902     184.8331     370.0344      1.537     4.35      1253.33     65.24405     113.8086         7     1.753     0.308 -48.13   0
        53    652.1627    905.3337 307.6307754  +6.3708013     1311.602     2726.048     3521.789     92.63737      185.054     370.2184      2.548     5.74     1259.802     65.24405     164.0265        18     1.534     0.976 -79.84   2
        54    387.3693    902.7849 307.7410832  +6.3630019     28977.81     73997.73     83468.82     92.34281     184.8331     370.0713      2.447     6.03     1263.945     65.24405     3017.323        86     1.988     1.789 -54.61   0
        55    505.0169    901.6741 307.6921499  +6.3673961     4080.599     9944.708     10584.63     92.19518     184.8331     369.9976      2.357     5.72     1262.418     65.24405     426.4692        45     1.812     1.545 -38.46   0
        56    421.8010    900.3434 307.7268339  +6.3651620     2522.912     6450.865     7561.134     92.04731     184.7594     369.8135      2.508     6.51     1263.336     65.24405     296.3024        44     1.860     1.608 -42.89   0
        57    750.2019    898.1645 307.5902078  +6.3770322     7507.936     16368.14     17703.06     91.75086     184.9068      369.924      2.194     4.93      1258.11     65.24405     785.1725        51     1.756     1.525 -54.84   0
        58    418.6941    893.4731 307.7283603  +6.3678941     1143.943     2892.906     3196.154     92.63737     185.2747     370.1449      2.362     8.82     1263.178     65.24405     137.3173        22     1.517     1.431  89.50   1
        59    101.0008    880.9267 307.8610250  +6.3624256     1227.432     2412.693     3678.805     92.04731     184.4642     369.9608      2.988     6.25     1262.409     65.24405     163.9963        20     1.448     1.279  34.09   3
        60    108.1664    890.5684 307.8577142  +6.3586861     6439.615     16363.74      19205.4     92.19518     184.8331     369.8503      2.447     5.90     1262.751     65.24405     766.7087        53     1.826     1.695 -82.76   3
        61    100.5661    887.9147 307.8609680  +6.3595264     1609.631     4344.973     6479.357     92.78429     184.9804     370.1081      3.137     9.68     1262.521     65.24405     212.0344        39     2.008     1.683  88.01   3
        62    771.6169    892.1410 307.5814971  +6.3802329     954.2078     1497.353     1214.778     92.34281     184.9804     369.8503      1.743     6.18     1256.798     65.24405     114.8407        11     1.239     1.019  72.82   0
        63    116.4038    890.4609 307.8542892  +6.3590069     1721.764     3927.412     4205.075     92.04731     184.8331     369.8135      2.416     6.80     1262.939     65.24405     208.2563        29     1.549     1.443  48.48   1
        64    895.6744    886.4773 307.5300467  +6.3867050     4881.602     9283.777     10222.53     93.07745     185.4217     370.1816      2.000     4.67     1254.399     65.24405     524.1906        39     1.656     1.358 -53.87   0
        65    944.5173    886.6736 307.5097079  +6.3882502     1184.509     1892.123     2596.847     93.07745     185.4952     370.2184      2.263     6.56     1254.004     65.24405     145.5288        15     1.314     0.920 -45.99   0
        66    538.0522    883.3849 307.6790186  +6.3760503     1259.357     2877.809     3149.104     92.04731     185.1276     369.8135      2.290     8.22     1260.914     65.24405     148.2311        21     1.597     1.184 -62.82   0
        67    651.2329    883.8425 307.6318900  +6.3796420     940.1482     2076.949     1850.116      92.4902     185.1276     369.9608      2.260     7.65         1259     65.24405     139.4597        16     1.618     1.029 -21.66   0
        68    889.6498    878.6238 307.5328198  +6.3897464     2151.137     4352.134     4360.091     92.34281     185.2012     370.0344      2.088     5.15     1254.001     65.24405     262.7853        29     1.588     1.256 -52.93   0
        69    919.3079    878.0744 307.5204923  +6.3909608      2434.43     4615.959     4984.196     92.78429     185.2747     370.1449      1.996     5.16      1253.87     65.24405     267.2053        27     1.545     1.202 -55.79   0
        70    950.2435    877.3707 307.5076382  +6.3922812     1402.542     2621.438     2855.994     92.34281     185.1276     370.0344      2.046     5.64     1253.374     65.24405     165.4359        20     1.540     1.079 -46.12   0
        71    214.9629    874.4401 307.8138098  +6.3689267     1405.215     3782.847     5195.721      92.4902     185.1276     369.9976      2.972    10.56     1264.134     65.24405     159.4977        32     1.920     1.617 -87.66   0
        72    788.0135    876.8250 307.5751895  +6.3871023     576.5701     1077.425     1175.532      92.4902     184.9068     370.0713      1.951     3.91     1254.924     65.24405     86.21814         5     0.847     0.518 -59.63   0
        73    642.8173    876.9051 307.6356280  +6.3822249     858.0428     1546.313     1546.265     92.63736     184.9068     369.9608      1.918     6.40     1258.806     65.24405     108.6678        12     1.245     0.924  -1.13   0
        74    907.3806    868.0377 307.5257964  +6.3947070     808.8436     1616.463     1642.415      92.3428     184.8331     369.8135      2.040     6.58     1253.307     65.24405     121.2373         8     1.175     1.033 -56.10   0
        75    934.0826    865.8456 307.5147547  +6.3965010     1785.549     3407.831     3526.186     92.78429     185.1276     370.1449      1.955     5.31     1253.052     65.24405     202.2383        23     1.377     1.216 -75.12   0
        76    882.3215    866.0042 307.5362967  +6.3947119     738.3854     1431.542     1483.687     92.34281      184.538     369.8871      2.128     4.51     1253.256     65.24405     99.49048         7     0.919     0.630 -29.80   2
        77   1008.1025    859.7931 307.4841455  +6.4014628     6219.201     11028.92     11816.51      92.4902     184.6856     369.8871      1.884     4.15     1251.505     65.24405     723.7725        38     1.580     1.216 -52.95   0
