#   1 NUMBER                 Running object number                                     
#   2 X_IMAGE                Object position along x                                    [pixel]
#   3 Y_IMAGE                Object position along y                                    [pixel]
#   4 ALPHA_J2000            Right ascension of barycenter (J2000)                      [deg]
#   5 DELTA_J2000            Declination of barycenter (J2000)                          [deg]
#   6 FLUX_APER              Flux vector within fixed circular aperture(s)              [count]
#   9 FLUXERR_APER           RMS error vector for aperture flux(es)                     [count]
#  12 FLUX_RADIUS            Fraction-of-light radii                                    [pixel]
#  13 FWHM_IMAGE             FWHM assuming a gaussian core                              [pixel]
#  14 BACKGROUND             Background at centroid position                            [count]
#  15 THRESHOLD              Detection threshold above background                       [count]
#  16 FLUX_MAX               Peak flux above background                                 [count]
#  17 ISOAREA_IMAGE          Isophotal area above Analysis threshold                    [pixel**2]
#  18 A_IMAGE                Profile RMS along major axis                               [pixel]
#  19 B_IMAGE                Profile RMS along minor axis                               [pixel]
#  20 THETA_IMAGE            Position angle (CCW/x)                                     [deg]
#  21 FLAGS                  Extraction flags                                          
         1    118.6795     29.5602 307.8903551  +6.8176252      2609.34     6611.348     10290.27     95.54391      191.012     381.7204      3.138    11.10     1306.165     67.29111     279.9712        60     2.904     1.758 -38.43   2
         2    651.5049     19.9965 307.6680717  +6.8392746     893.1832     2449.519     4197.511     95.39214     190.5563     381.4546      3.538    12.24     1270.018     67.29111     113.6368        15     2.052     2.032  50.70   2
         3    647.6846     23.6539 307.6695434  +6.8376358     912.2996     2153.983     3661.381     95.69545     190.9361     381.9481      3.451     8.52     1270.279     67.29111     104.9946        11     1.668     1.216  34.68   2
         4    955.5519     19.2024 307.5410633  +6.8496545     893.4194     2158.325     3288.853     94.93535     190.5563     381.2646      3.103     7.42     1262.882     67.29111     120.9564        12     1.770     0.871  79.75   2
         5    465.4087     14.9214 307.7459961  +6.8352043     700.9171     1880.612     3363.998     95.24011      190.328     381.5685      2.065     6.10      1279.91     67.29111     115.2635         8     1.952     0.536 -68.89   0
         6    939.9759     13.2180 307.5477742  +6.8516148     903.2106     2562.154     3991.603     95.24011     190.7843     381.6824      3.221     7.00     1263.929     67.29111     140.5049        10     1.607     0.855 -59.89   0
         7    871.3491      8.7523 307.5765994  +6.8511950     1155.004     3105.956     4680.456     95.84675     190.7843     381.7584      3.372     8.97     1264.729     67.29111     175.8464        25     1.995     1.765 -25.92  19
         8    879.8652      5.0118 307.5731681  +6.8530230     3502.629     12461.14     16141.95     95.08785     190.7083     349.7067      3.018     8.52     1264.618     67.29111     386.0366        72     2.331     2.007 -50.31  24
         9    197.8254      6.5425 307.8580763  +6.8297770     1289.317     3594.258     5661.978     95.24012     190.9361     367.9588      3.218     9.80     1303.093     67.29111     162.0098        28     2.408     1.112 -39.97  18
        10    821.8538      5.2385 307.5973988  +6.8510124     2600.261     9608.562     12615.83     95.69545      191.012     352.7595      3.066     8.58     1263.943     67.29111     363.7133        69     2.217     2.145 -41.31  24
        11    184.6064      3.1617 307.8637145  +6.8307349      1023.07     2181.337     3178.988     94.62959     179.7567     320.9271      2.562     6.54     1303.763     67.29111     121.7816        14     1.579     0.759 -44.41  26
        12    216.8577      1.8479 307.8502852  +6.8323514     2041.397     3781.192     4120.595     90.56095     161.1394     297.6429      1.985     7.24     1302.037     67.29111     260.5577        20     1.766     0.831  -5.89  24
        13    976.0877    973.5713 307.5001662  +6.4557139     683.4982     1168.071     1284.577     95.84675     190.6323     381.6065      1.992     4.86     1328.297     67.29111     129.7921         7     1.168     0.764  72.76   0
        14    107.7963   1023.5612 307.8609433  +6.4062804     3786.811     6346.825     7054.799      84.4336     153.3056     288.9979      1.811     6.20     1333.299     67.29111     677.7848        21     1.902     0.633   2.19  24
        15    999.5078    971.9663 307.4904429  +6.4571498     1186.339      2636.75     3043.202     95.84675     190.7843     381.8343      2.547     7.84     1328.094     67.29111     163.1617        18     1.641     1.047 -22.36   0
        16    899.7670    967.8566 307.5322225  +6.4555588     624.0362     1480.353     1879.987     95.54391      191.012     381.7584      2.128     5.59     1327.757     67.29111     108.7234         7     1.586     0.556 -54.31   0
        17    836.0537    956.3370 307.5592122  +6.4582182     1292.922     3271.356     3667.589     95.69545     190.8602     381.7204      2.402     9.44      1327.27     67.29111     201.1055        26     1.873     1.411 -18.14   0
        18    794.9966    955.6957 307.5763748  +6.4571271     658.4816     1284.778     1433.336     95.39214     190.5563     381.3786      1.645     4.20     1327.655     67.29111     148.4246         5     1.734     0.290 -29.66   2
        19    793.2145    953.4788 307.5771939  +6.4579848     1220.348     2136.943       2656.8     95.24012     190.6323     381.5685      2.130     5.37     1327.511     67.29111     158.1129        15     1.243     1.015 -26.39   2
        20    222.9498    949.4739 307.8154010  +6.4407421      3077.31     9266.277     12243.66     95.69545      191.012     381.7963      2.958     7.27     1332.646     67.29111     314.2811        63     2.194     1.867 -39.26   0
        21    775.2512    945.2498 307.5849724  +6.4607938      71876.4     191138.8       237272     95.69545     190.7843     381.6824      2.698     6.46     1327.244     67.29111     8131.358       170     2.624     1.899 -36.36   0
        22    157.2293    944.0534 307.8430214  +6.4407982     22498.47     69157.48     89910.88     95.39214      191.012     381.6824      2.928     7.00     1332.391     67.29111       2356.2       113     2.413     2.077 -42.41   0
        23     81.1480    940.4677 307.8749043  +6.4397494     2406.546     7581.608     8927.611     95.54391     190.8602     381.7204      2.857     7.87     1330.741     67.29111     334.4937        53     2.137     1.770 -55.61   0
        24    172.8885    943.6261 307.8364989  +6.4414956     4762.504     4853.204     4515.638     95.84675     190.7083     381.6065      0.701     1.03     1332.511     67.29111     2205.398         6     0.533     0.483   7.29   0
        25    946.1917    936.0435 307.5139176  +6.4702449     959.0786     1694.723      1889.93     95.08785     190.7083     381.4546      1.991     5.54     1325.037     67.29111     128.8899         8     1.137     0.761 -29.26   0
        26    811.5638    932.3236 307.5702503  +6.4673383     2327.313     5535.161     6869.962     95.54391      191.012     381.7963      2.615     7.26     1326.168     67.29111     275.1257        39     2.042     1.390 -31.05   0
        27    330.5881    931.0067 307.7710951  +6.4519533     6391.727     19936.84     26043.88     95.24011     190.7083     381.6445      2.917     7.11     1331.986     67.29111     697.0385        83     2.339     2.006 -39.58   0
        28    133.8616    929.6653 307.8532675  +6.4459698     971.7347     2355.868     3596.746     95.69545     190.8602     381.7963      2.758     8.44     1331.648     67.29111     121.4884        15     1.669     1.191  64.46   0
        29    765.6688    925.8438 307.5896310  +6.4685010     2577.243     6966.456     9052.419     95.69545     190.8602     381.7963      2.805     7.20       1326.4     67.29111     273.2042        51     2.131     1.627 -37.55   0
        30    496.7762    925.8504 307.7018907  +6.4595982     2303.993      7307.61     9498.905     95.24011     190.9361     381.6445      2.943     8.67     1330.993     67.29111     302.0513        58     2.330     1.798 -37.87   0
        31    144.0210    919.3133 307.8493796  +6.4505880     2700.671     8129.519     10136.84     95.69545     190.6323     381.6065      2.840     7.75     1331.598     67.29111      311.967        54     2.075     1.792 -35.22   0
        32    239.1628    915.6442 307.8097861  +6.4552683     30793.76     100166.4     133604.4     95.39214     190.9361     381.6065      3.007     7.28     1331.996     67.29111     3420.839       131     2.510     2.167 -42.15   0
        33     15.8036    917.9826 307.9029507  +6.4468703     2008.603     5846.629     7081.229     95.24011     190.4041     381.5685      2.736     8.03     1330.015     67.29111      234.308        51     2.119     1.833 -60.79   0
        34    781.9435    918.1435 307.5830975  +6.4722228     786.1722     1795.687     2046.551      95.9978     190.9361     381.8343      2.589     7.38     1325.859     67.29111     113.5151        10     1.623     0.939 -48.95   0
        35    541.0240    918.3396 307.6836733  +6.4641700     981.0298     2745.478     3771.946     95.24011     190.8602     381.6445      2.983     9.06     1330.524     67.29111      123.078        19     1.921     1.193  16.77   0
        36    465.8378    906.2175 307.7154748  +6.4666903     15505.76     48709.16     67520.96     95.24011     190.7843     381.4546      3.088     7.33      1330.66     67.29111     1667.899       121     2.588     2.157 -33.82   0
        37    761.9432    907.6899 307.5918021  +6.4758841      7055.76     19176.73        23562     95.54391     190.8602     381.9102      2.686     6.71     1325.636     67.29111     852.6036        74     2.302     1.752 -38.23   0
        38    224.7312    911.4650 307.8159534  +6.4565167     641.8921     1506.637     2378.698     95.69545      191.012     381.7963      2.630     3.49     1331.866     67.29111     107.0453         5     0.751     0.467 -17.29   0
        39    938.1153    908.6863 307.5182155  +6.4812901     851.1241     1408.557     1361.803     95.39214     191.1636     381.8343      1.884     5.20     1323.681     67.29111     97.06775         8     0.969     0.788 -87.86   0
        40    625.6403    900.8430 307.6489410  +6.4742065     1119.672     3403.812     5090.529     95.39214     190.9361     381.6065      4.330    11.21     1328.021     67.29111     186.1611        34     2.411     1.749 -40.44   0
        41    110.2989    894.1586 307.8643162  +6.4598665     9385.451     29422.04     38670.77     95.69545     190.7843      382.024      2.969     7.22     1329.691     67.29111     1103.161        90     2.357     2.073 -47.73   0
        42    295.3551    895.1073 307.7870272  +6.4656266     1469.316     4465.543     6080.529     95.69545     190.8602     381.9102      3.041    11.00     1331.172     67.29111     194.5861        40     2.331     1.650 -24.90   0
        43   1012.9695    894.3391 307.4874485  +6.4896913     772.9286     1946.285     2678.274     95.39214     190.9361     381.7204      2.869     4.70     1318.664     67.29111     111.0026         6     1.163     0.538 -50.90   0
        44    476.3127    893.8030 307.7115239  +6.4721706     923.6785     2426.874     3865.467     94.93535     190.4802     381.4546      3.317     5.93     1330.343     67.29111     127.2075         9     1.464     0.677 -40.48   2
        45     76.4710    891.2259 307.8785384  +6.4599532     1005.723     2963.673     3615.719     95.24012     190.7843     381.6824      2.927     6.83     1329.177     67.29111     131.4326        13     1.457     0.898 -23.23   2
        46    838.2078    892.0894 307.5604900  +6.4848546     769.3334     1590.318     1516.093     95.08785     190.5563     381.4546      2.201     6.00     1323.833     67.29111     120.4066         8     1.242     0.814  -4.01   0
        47    935.2480    888.0264 307.5201121  +6.4897381     2759.531     6476.241     7213.356     95.24011      191.012     381.6824      2.348     5.70     1322.667     67.29111     326.2676        42     1.902     1.439 -55.82   0
        48    407.2301    874.9594 307.7410067  +6.4776709     14383.49     47870.93     64815.91     95.08785     190.6323     381.5685      3.055     7.75     1330.447     67.29111     1557.489       114     2.550     2.133 -40.10   0
        49    615.0641    874.6763 307.6542453  +6.4846758     4560.728     14378.23     17889.48      95.9978     190.9361     381.7204      2.887     7.54     1327.177     67.29111     475.6536        73     2.361     1.902 -40.25   0
        50    172.4408    872.7922 307.8391026  +6.4707680     6833.267     22271.87     30283.53     94.93535     190.7083     381.3786      3.056     7.39     1330.495     67.29111     781.0325        88     2.386     2.111 -36.67   0
        51    947.9382    872.4725 307.5153402  +6.4965881      673.792      1473.34     1961.477     95.84675     190.9361     381.8343      2.274     5.08     1320.965     67.29111     140.6747         7     1.658     0.440 -54.11   0
        52    539.4033    870.5954 307.6859728  +6.4838573     716.2033     1594.266     2698.563     94.93535     190.4041     381.5685      2.478     7.24     1328.195     67.29111     126.2186        10     2.850     0.515 -56.15   2
        53    535.5906    869.8988 307.6875883  +6.4840191     884.4651     2025.617     2930.884     95.39214     190.4802     381.5305      2.804    10.51      1328.23     67.29111     129.4396        14     2.121     1.453 -81.66   2
        54    910.7607    867.9337 307.5310163  +6.4972380      2357.76     5674.607     6726.925     95.54391     190.8602     381.8722      2.467     7.28     1322.013     67.29111     291.3506        43     2.123     1.460 -36.51   0
        55    583.7836    867.0311 307.6675649  +6.4868011     2271.845     7157.284     9608.405     95.24011     190.6323     381.6445      3.020     8.41     1327.281     67.29111       283.62        56     2.240     1.802 -47.04   0
        56    933.0392    860.6805 307.5219601  +6.5009723     1741.275     4335.482     5329.735     95.69545      191.012     381.6824      2.529     7.31     1321.235     67.29111     252.2538        30     1.700     1.473 -28.47   0
        57    496.0883    858.2012 307.7044785  +6.4875466     2503.107     8146.673     10909.34     94.78259     190.4041     381.4546      3.033     8.56     1328.746     67.29111     284.7494        62     2.360     1.815 -34.18   0
        58    343.5266    859.0416 307.7681448  +6.4821382     918.6247      2359.09     3190.249     95.54391      191.012     381.7963      2.941     8.80     1329.976     67.29111     124.4491        14     2.012     1.075 -44.74   2
        59    852.2228    853.8179 307.5559354  +6.5011420     1402.918     3814.571     5515.177     95.39214     190.8602     381.6824      3.086     9.38     1321.498     67.29111     173.0679        28     1.842     1.334 -48.01   0
        60    859.5942    847.5747 307.5530691  +6.5039669     1023.206     2255.763     3332.573     95.08785     190.7083     381.5685      2.881     4.47     1320.889     67.29111     135.0558        10     1.115     0.796 -19.24   2
        61    682.3607    844.2321 307.6271818  +6.4994910     1078.469     2887.434     3413.643     95.24012     190.7083     381.5305      2.860     7.85     1324.681     67.29111     132.8462        14     1.751     0.985 -51.06   2
        62    356.7847    844.2000 307.7631150  +6.4887149     1009.455     2285.086     3558.367     95.08785     190.5563     381.4546      3.028     5.57     1329.473     67.29111     129.9126        10     1.244     0.703 -66.65   2
        63    355.7498    840.7532 307.7636645  +6.4901057     1042.529     2529.659     3987.104     95.69545     190.7843     381.8343      3.016     7.12     1329.382     67.29111     147.4299        13     2.019     0.703   6.20   2
        64     47.6358    843.7535 307.8921981  +6.4786211     751.6175     1616.659     2790.899     95.24012     190.9361     381.6445      2.886     4.70     1328.128     67.29111     111.3771         6     0.949     0.660  10.20   0
        65    745.2718    835.3365 307.6012168  +6.5052497     6520.373     18852.59     25700.25     95.69545     190.9361     381.7963      2.959     7.32     1322.548     67.29111     707.0035        89     2.634     1.855 -41.61   0
        66    265.9482    835.9765 307.8013197  +6.4890984     981.3459     2840.924     3217.964     95.08785     190.9361     381.6445      2.692     8.48     1329.532     67.29111     116.8374        16     1.683     1.195  19.55   0
        67    774.2168    831.9525 307.5892462  +6.5076058     530.5247     1230.816     1924.314     95.08785     190.8602     381.4926      1.927     3.99     1321.867     67.29111     108.8291         5     1.354     0.336 -25.74   0
        68     83.5910    827.5071 307.8777422  +6.4865355     1575.059     4710.081     6860.215     95.24012     190.4802     381.5305      3.142    10.48      1327.61     67.29111     216.0803        37     1.957     1.564  42.65   2
        69    930.3480    830.4412 307.5241076  +6.5133870      932.722     2126.407     1844.849     95.69545      191.012     381.7584      2.311     6.89     1319.167     67.29111     139.0101        11     1.464     0.912 -14.01   0
        70    582.4377    839.2375 307.6690712  +6.4982486     3351.112     11282.62     15588.55     95.39214     190.7843     381.6065      3.100     8.23     1326.018     67.29111     356.5518        74     2.501     1.933 -51.10   0
        71    984.2639    824.8303 307.5017856  +6.5174857     2151.325     5969.305     7191.776     95.39214      191.012     381.6824      2.740     6.94     1316.497     67.29111     258.2747        46     1.966     1.670 -30.90   0
        72    721.9202    825.6492 307.6112954  +6.5084831     851.9269     2301.174     2852.469     95.69545      191.012     381.7584      2.713     6.21     1322.736     67.29111     108.2863         8     1.271     0.854  69.57   0
        73    320.5874    823.0712 307.7789474  +6.4962493     1183.043     2727.949     4624.242     95.08785     190.6323     381.5305      3.538     8.75      1329.02     67.29111     144.5415        22     2.115     1.010 -75.76   2
        74    242.1097    823.4781 307.8116985  +6.4934739     599.7552     1262.069      2549.98     95.39214     191.2394     381.8343      2.570     4.28     1329.197     67.29111      97.8739         5     1.535     0.341  26.84   0
        75    683.6313    807.3708 307.6279026  +6.5147744     5253.511     16880.29     22191.33     95.08785     190.6323     381.4546      2.989     7.93     1323.076     67.29111     575.2271        82     2.424     1.960 -42.25   0
        76    798.4214    809.8577 307.5798892  +6.5175415     689.2851     1598.472     2380.273     95.24011     190.8602     381.5305      2.479     3.40     1320.223     67.29111      106.483         5     0.762     0.440 -68.92   0
        77    785.1033    808.3735 307.5855004  +6.5177151     968.6359     2098.188     2776.877     95.84675     190.6323     381.6824      2.357     5.64     1320.404     67.29111     110.3878        10     1.224     0.732 -49.35   0
