#   1 NUMBER                 Running object number                                     
#   2 X_IMAGE                Object position along x                                    [pixel]
#   3 Y_IMAGE                Object position along y                                    [pixel]
#   4 ALPHA_J2000            Right ascension of barycenter (J2000)                      [deg]
#   5 DELTA_J2000            Declination of barycenter (J2000)                          [deg]
#   6 FLUX_APER              Flux vector within fixed circular aperture(s)              [count]
#   9 FLUXERR_APER           RMS error vector for aperture flux(es)                     [count]
#  12 FLUX_RADIUS            Fraction-of-light radii                                    [pixel]
#  13 FWHM_IMAGE             FWHM assuming a gaussian core                              [pixel]
#  14 BACKGROUND             Background at centroid position                            [count]
#  15 THRESHOLD              Detection threshold above background                       [count]
#  16 FLUX_MAX               Peak flux above background                                 [count]
#  17 ISOAREA_IMAGE          Isophotal area above Analysis threshold                    [pixel**2]
#  18 A_IMAGE                Profile RMS along major axis                               [pixel]
#  19 B_IMAGE                Profile RMS along minor axis                               [pixel]
#  20 THETA_IMAGE            Position angle (CCW/x)                                     [deg]
#  21 FLAGS                  Extraction flags                                          
         1    713.6107     17.9215 307.6450886  +6.6899949     7860.317     11419.74     11440.09     77.78316     155.5663     311.6292      1.552     3.86     824.9542     54.95705     1101.989        29     1.422     0.906 -45.56   0
         2    633.8811     17.0580 307.6782472  +6.6876812     3768.671     5593.334     6122.833     78.15503     155.9386     311.8153      1.563     3.95     825.7037     54.95705     604.3087        21     1.415     0.799 -47.30   0
         3    434.0156     13.4188 307.7614174  +6.6824803     6575.288     9929.881      10775.5     77.90731     155.6905     311.6913      1.610     4.14     827.3297     54.95705     937.9904        33     1.532     0.931 -43.71   0
         4     34.9526     12.9839 307.9272430  +6.6692339      8822.08     13262.54     13897.71     77.65881     155.8766     311.5362      1.567     3.82     832.6229     54.95705     1210.966        36     1.558     0.944 -46.03   0
         5    681.0198     12.1169 307.6588259  +6.6913002     833.1028     1421.337     1314.314     77.78316     155.6284     311.7223      1.600     5.12     824.7131     54.95705     138.1108         9     1.324     0.560 -52.71   0
         6    509.8435     10.5377 307.7300066  +6.6862147     1036.729     1517.167     1557.472     78.15503     155.8766     311.8773      1.538     5.79     825.9092     54.95705     139.6132        14     1.408     0.670 -36.81   0
         7    330.5306      8.3700 307.8045866  +6.6810884     13729.21     20502.49     21773.09     78.03127     155.9386     311.5052      1.651     3.93     833.5991     54.95705     1985.514        39     1.573     0.972 -45.80  16
         8    425.4305      8.9110 307.7651364  +6.6840532     852.8564     1186.779     1787.235     78.27859     155.7526     311.7223      1.868     5.47     827.5223     54.95705     111.4745        11     1.143     0.806 -71.61   0
         9    104.1536      8.5853 307.8986393  +6.6733820     2646.967     3804.715     4052.466     77.53425     155.7526     311.5362      1.528     4.37     833.2111     54.95705     346.0825        16     1.338     0.726 -35.86  16
        10    799.2026      7.1691 307.6098833  +6.6972984     1029.472     1473.223     1506.631     77.53425     155.7526     305.3318      1.415     4.19     824.2079     54.95705     148.0237        11     1.191     0.680 -45.69  16
        11     95.4879      7.5719 307.9022741  +6.6735084     1682.118      2398.27     2349.496     78.27859     155.6905     307.9792      1.563     4.35     833.1297     54.95705     271.5562        13     1.226     0.689 -43.31  16
        12    464.8403      5.9597 307.7488603  +6.6865947     554.5143     803.1298     797.5532     77.90731     156.0625     295.3235      1.692     5.19     826.3668     54.95705     78.65527         6     1.143     0.665 -81.24  16
        13    396.8101      6.2892 307.7771168  +6.6841745     2388.928     3515.026     3938.608     77.90731     155.6284     298.2867      1.650     3.92     829.3483     54.95705     369.5396        21     1.420     0.860 -38.61  16
        14    991.4744      3.5329 307.5301088  +6.7052241     660.0323     936.6645     1069.539     78.27859     150.5141     267.2879      1.362     4.43      820.142     54.95705     117.7105         7     1.075     0.519 -45.86  16
        15    821.8367      1.8150 307.6006576  +6.7002659     1424.696     1933.092     2230.736     73.30537      130.867     242.2104      1.463     4.61     824.0216     54.95705     240.9579        13     1.071     1.026 -15.16  24
        16    657.4611      2.1494 307.6689499  +6.6946265     11301.31     14515.81     14715.75     76.40414     135.3685     247.3824      1.407     3.92     824.8049     54.95705     1613.461        26     1.361     0.828 -28.60  24
        17     75.1748      3.0337 307.9108673  +6.6746976     664.7864     947.6764     882.2056     77.53425     145.6849     260.4013      1.401     4.33     832.5533     54.95705     107.1936         6     0.948     0.562 -25.62  16
        18    535.1219      1.7428 307.7197987  +6.6906938     1201.262     1309.356     1205.894     72.90877     129.9778     241.1306      1.222     3.84      825.606     54.95705     190.8762        10     1.001     0.666 -28.55  24
        19    256.6020      1.0910 307.8355499  +6.6816079     733.8636     872.2974      1131.66     63.86378     119.9223     230.3061      0.940     2.41     834.6818     54.95705     216.8561         5     0.890     0.284   2.92  24
        20    395.5233    992.9702 307.7444544  +6.2767544     534.6926     855.8769     707.6967     78.03127     156.0006     311.8153      1.693     4.78     858.4365     54.95705     83.30817         5     1.231     0.527 -39.71   0
        21    962.0163   1023.0308 307.5082425  +6.2833014     4749.358     7062.058      7387.44     74.61217     132.7005     244.7113      1.540     4.50     852.0397     54.95705     615.0208        24     1.483     0.879 -13.93  24
        22    721.4690   1021.8677 307.6081556  +6.2757443     2865.116     4600.297     4836.234     78.15503     146.8742     261.8448      1.742     4.27     857.3466     54.95705     339.6034        27     1.526     1.043 -47.70  26
        23    716.2901   1023.7056 307.6102442  +6.2748121     596.3232      693.819     1076.556      67.5413     123.6521     234.0112      1.039     3.79     857.3431     54.95705     143.2607         5     0.986     0.419  -7.97  27
        24    444.6419   1022.5434 307.7230673  +6.2661922     952.4553       1392.2     1073.003     78.03127     139.3787      252.257      1.536     4.01      859.188     54.95705     142.2083        11     1.115     0.749 -25.86  24
        25    246.5008   1023.2892 307.8053048  +6.2592316     1135.374     1492.541     1404.952     72.24292     129.7545     240.6491      1.314     4.37     857.9755     54.95705     183.5117        13     1.277     0.678 -16.11  24
        26    921.7304    986.1118 307.5262038  +6.2972001     40309.86     68675.52     72888.99     78.15503     156.1863     311.7843      1.826     4.00      853.567     54.95705     4712.571        72     1.716     1.302 -48.51   0
        27    326.6022    987.3964 307.7732567  +6.2767419     572.3353     741.0797     764.6757     77.53425     155.5042     311.5362      1.570     3.89     858.1432     54.95705     72.63123         5     0.999     0.433 -75.36   0
        28    229.1481    984.2991 307.8138220  +6.2747464     1651.251     2648.835     2910.007     78.15503     155.9386     312.0012      1.783     4.88     857.2379     54.95705     226.6793        18     1.623     0.723 -48.36   0
        29    627.9214    982.7016 307.6483092  +6.2887845     853.4209     1277.252     1141.373     77.78316     156.1863     311.8153      1.534     3.35     857.8903     54.95705     126.8855         9     0.890     0.691 -61.74   0
        30    116.9637    983.3395 307.8604303  +6.2713695     718.0603     936.3843     572.5408     78.15503     155.9386     311.7533      1.288     4.21     855.6642     54.95705     110.8731         7     0.755     0.670 -12.41   0
        31    767.9011    977.8223 307.5903526  +6.2954829      6469.76     10476.62     11742.24     78.03127     155.6905     311.5672      1.740     3.95     856.1945     54.95705     803.4406        37     1.603     1.120 -49.86   0
        32    819.7230    979.7960 307.5687696  +6.2964004     2243.864      3768.11      3729.29     77.78316      155.442     311.6292      1.725     4.21     855.5612     54.95705     286.3463        24     1.460     1.012 -46.75   0
        33    554.3932    977.1584 307.6790240  +6.2886103     975.5374     1542.112     1940.056     77.53425     155.6284     311.5052      1.595     4.67     858.1386     54.95705     159.4973        11     1.187     0.625 -35.50   0
        34    237.3036    976.8987 307.8106852  +6.2780759      1467.38     2440.411     2884.322     78.15503     156.4337     311.6292      1.882     4.22     857.2017     54.95705     213.5544        15     1.297     0.760 -49.05   0
        35    201.3306    976.4673 307.8256350  +6.2770447     790.3885     1211.786     913.8259     78.15503     156.0625     311.7843      1.567     5.56     856.6588     54.95705      111.117        11     1.291     0.676 -45.09   0
        36     62.1187    974.9489 307.8834833  +6.2729876     2571.669      4247.73     4467.616     78.15503     155.9386     311.7843      1.753     4.82     854.8808     54.95705     373.3397        22     1.548     0.818 -49.12   0
        37    956.1071    972.8405 307.5123739  +6.3038273     6233.116     10607.33     11366.96     78.27859     155.8766     311.8773      1.810     4.21     851.9734     54.95705     725.1985        37     1.579     1.148 -45.06   0
        38    638.6458    967.1822 307.6443769  +6.2955513     834.3547     1117.101      629.888     77.65881     155.8146     311.5362      1.431     4.89     857.4501     54.95705     106.8196        10     1.017     0.765 -49.06   0
        39    929.8504    964.4562 307.5235564  +6.3064126     2030.442     3580.542     4384.631     78.15503     155.9386     311.7843      1.923     4.25     852.9853     54.95705      271.371        23     1.386     1.062 -46.19   0
        40    789.5380    961.0208 307.5819314  +6.3031435      1394.46     1956.048     1943.584     77.78316     155.9386     311.6602      1.471     4.99     855.4342     54.95705     202.5266        14     1.346     0.758 -47.46   0
        41    650.5964    960.4149 307.6396419  +6.2987455     4646.051     7181.761     6937.407     77.78316     155.5663     311.6292      1.660     3.93     857.2077     54.95705     615.7019        28     1.464     0.997 -41.09   0
        42    262.7045    960.5355 307.8006900  +6.2856855     4387.802     6874.042     6941.639     78.03127     156.0625     311.8153      1.661     4.02     857.2832     54.95705     587.2588        28     1.541     0.921 -49.85   0
        43    999.8568    960.6437 307.4946158  +6.3103231     563.0491      839.538     921.4202     78.03127     155.9386     311.7843      1.603     5.18     850.0763     54.95705     91.81628         7     1.148     0.661 -42.80   0
        44    472.5223    958.7639 307.7136345  +6.2934605      1169.52     1823.493     1832.738     78.03127     156.0006     311.7843      1.709     5.18     857.5848     54.95705     148.9156        14     1.313     0.741 -48.67   0
        45     31.4113    957.9671 307.8968050  +6.2789648     2160.927     3330.069     3009.576     77.65881     155.6905     311.6292      1.627     4.26     854.3161     54.95705     305.2141        21     1.496     0.876 -40.34   0
        46    882.3596    957.1639 307.5435194  +6.3078377     923.4683     1353.605     1429.092     77.90731     155.9386     311.6292      1.471     3.54     854.0563     54.95705     132.4247         8     0.971     0.602 -31.93   0
        47    953.7311    953.6794 307.5140010  +6.3116594     598.8662     1043.137     772.3178     78.27859     156.1245     311.7533      1.869     4.49     851.9041     54.95705     101.3511         6     1.093     0.525 -38.11   2
        48    298.8000    954.0685 307.7859212  +6.2895683     842.2419         1213     896.1489      77.6588      155.442     311.5672      1.420     4.84     857.6183     54.95705     129.2116         9     1.170     0.568 -61.61   0
        49    975.1356    954.5385 307.5050847  +6.3120190     480.2846     823.0466     600.1702     78.15503     155.9386     311.8153      1.599     5.37     851.0782     54.95705     77.08606         6     1.458     0.558 -20.04   0
        50    575.1649    952.9005 307.6712138  +6.2993219     1778.142     2729.555      2419.24     78.15503     155.8146     311.9392      1.618     4.27     857.5724     54.95705     260.6602        18     1.431     0.767 -42.01   0
        51     64.0780    950.0894 307.8835083  +6.2833173     764.8264     1321.944     1569.459     77.90731     156.1863     311.9082      1.654     5.19     854.3607     54.95705      105.626         9     1.170     0.650 -70.76   0
        52    614.3416    949.3502 307.6550664  +6.3021000     1359.965     1828.996     1701.135     78.15503     155.9386     311.8153      1.455     4.38     857.4106     54.95705     193.5673        12     1.194     0.668 -46.46   0
        53    294.3096    947.0262 307.7880226  +6.2923251     1471.974     2123.315     2293.793     78.27859     155.6905     311.6292      1.610     4.28     857.5314     54.95705     199.8152        14     1.309     0.713 -56.60   0
        54    562.1099    945.0406 307.6768981  +6.3021297     694.4141     1014.327     806.2902     78.15503     155.9386     311.8153      1.426     4.04     857.3966     54.95705     137.4332         6     1.001     0.465 -37.98   0
        55    761.2195    942.9487 307.5942951  +6.3096584     922.6058     1700.171      1549.37     77.65881     156.0006     311.5982      1.902     6.14     855.6664     54.95705     130.2755        15     1.415     0.873 -52.83   0
        56    136.7774    941.2520 307.8536229  +6.2894128     660.3239     917.5402      1585.82     77.65881     155.9386     311.6602      1.677     5.56     855.1119     54.95705     107.0044        11     1.343     0.649 -55.53   0
        57    434.6556    936.8922 307.7300918  +6.3012208     2117.265     3101.383     3122.968     78.03127     155.8146     311.9082      1.577     3.68     857.0336     54.95705     326.2269        20     1.368     0.898 -54.09   0
        58    336.3279    935.2265 307.7709738  +6.2986082      9748.76     14727.68     15274.08     77.78316     155.8146     311.6913      1.619     4.14     857.5887     54.95705     1289.871        36     1.519     0.960 -44.70   0
        59    256.4231    934.1385 307.8041867  +6.2963731     7363.263     11024.35     11307.02     77.78316     155.8766     311.6913      1.587     3.96     856.8369     54.95705     998.8344        29     1.540     0.873 -47.66   0
        60    584.4899    928.6266 307.6681566  +6.3096565     1277.693      1745.08     1913.212     78.27859     155.6905     311.6602      1.576     5.56      857.002     54.95705        156.7        13     1.220     0.776 -55.78   0
        61    898.7696    939.7416 307.5372885  +6.3155792     6799.185     11000.36     10959.91     77.90731     155.9386     311.7223      1.734     3.84     853.2305     54.95705     835.3522        37     1.613     1.074 -45.41   0
        62    914.5145    924.9134 307.5312468  +6.3222274     1160.173     1759.378     2010.311     77.90731     156.1245     311.8463      1.686     4.66     852.6811     54.95705     140.7821        14     1.310     0.752 -33.62   0
        63    218.4273    924.3659 307.8202915  +6.2991308     543.6732     987.4792     1404.925     77.65881     155.6905     311.5672      1.638     3.44     856.1237     54.95705     86.20874         5     1.144     0.298 -69.06   0
        64    147.3024    924.4662 307.8498188  +6.2966973     565.3797     913.0522     736.6012     78.15503     156.0006     311.8153      1.419     4.47     855.0251     54.95705     98.30975         6     1.228     0.464 -42.65   0
        65    870.6897    923.5179 307.5494909  +6.3213399      706.366     1139.711     362.2639     77.90731     156.1245     311.8463      1.750     6.33     853.2888     54.95705     93.90747         8     1.446     0.779 -17.46   0
        66    981.7725    921.2997 307.5034399  +6.3259645     647.8932     828.9506     961.2515     78.15503     155.6905     311.6913      1.314     3.42     850.5212     54.95705     113.4399         5     0.776     0.437 -12.50   0
        67    843.4772    919.0078 307.5609413  +6.3222930     502.6213     706.5162     289.8926     77.78316      155.442     311.5982      1.240     4.92     853.6589     54.95705     94.31152         6     1.206     0.569 -60.90   0
        68    750.8490    917.9699 307.5994380  +6.3196250      1661.39     2633.246     3132.439     77.78316     156.0006     311.6913      1.573     4.75     855.3553     54.95705     208.1906        16     1.444     0.705 -40.35   0
        69    574.6439    918.3657 307.6725892  +6.3135632     653.5877      867.813     731.1613     77.90731     155.9386     311.6602      1.580     4.95     856.9088     54.95705     85.98169         9     1.189     0.584 -45.84   0
        70    614.8281    914.5436 307.6560321  +6.3164874      928.659      1172.34     745.1882     77.78316     156.0006     311.6913      1.380     5.01     856.7904     54.95705     132.0953        10     1.276     0.592 -41.38   0
        71      1.8676    914.5010 307.9105378  +6.2959153     780.6646      1130.96     1237.459     73.83086     131.7503     243.2059      1.410     4.73     853.5038     54.95705     123.0963         9     1.067     0.596 -52.62  24
        72    982.1433    913.5296 307.5035456  +6.3291851     1314.819     2297.164      2743.81     78.27859     155.9386     311.7533      1.918     5.44     850.3299     54.95705      148.712        17     1.319     0.988 -34.09   0
        73    626.3243    913.8805 307.6512809  +6.3171461     680.1153     999.3516     1056.396     78.40197     156.1863     311.8773      1.600     5.66     856.7332     54.95705     102.2317         8     1.188     0.759 -57.73   0
        74    535.9935    913.5494 307.6887992  +6.3142567      1164.01     1750.949     2005.734     77.65881     155.7526     311.4121      1.795     4.42     856.9089     54.95705     167.9186        12     1.113     0.774 -39.72   0
        75    669.4723    911.2042 307.6334545  +6.3196957     2792.988     4068.885     3450.771     77.78316     155.5042     311.6292      1.576     3.80     856.4949     54.95705     399.0512        21     1.445     0.828 -41.00   0
        76   1021.0309    910.1557 307.4875108  +6.3318755     503.2039     873.4468     797.3004     77.78316     153.7541     272.9767      1.897     5.07      848.746     54.95705      71.8136         6     1.182     0.615 -19.29  16
        77    959.7848    909.5820 307.5129617  +6.3300689     688.9858     1203.081     1165.523     77.90731     155.6284     311.7223      2.082     5.27     851.0525     54.95705       122.63         7     1.396     0.562  38.78   0
