#   1 NUMBER                 Running object number                                     
#   2 X_IMAGE                Object position along x                                    [pixel]
#   3 Y_IMAGE                Object position along y                                    [pixel]
#   4 ALPHA_J2000            Right ascension of barycenter (J2000)                      [deg]
#   5 DELTA_J2000            Declination of barycenter (J2000)                          [deg]
#   6 FLUX_APER              Flux vector within fixed circular aperture(s)              [count]
#   9 FLUXERR_APER           RMS error vector for aperture flux(es)                     [count]
#  12 FLUX_RADIUS            Fraction-of-light radii                                    [pixel]
#  13 FWHM_IMAGE             FWHM assuming a gaussian core                              [pixel]
#  14 BACKGROUND             Background at centroid position                            [count]
#  15 THRESHOLD              Detection threshold above background                       [count]
#  16 FLUX_MAX               Peak flux above background                                 [count]
#  17 ISOAREA_IMAGE          Isophotal area above Analysis threshold                    [pixel**2]
#  18 A_IMAGE                Profile RMS along major axis                               [pixel]
#  19 B_IMAGE                Profile RMS along minor axis                               [pixel]
#  20 THETA_IMAGE            Position angle (CCW/x)                                     [deg]
#  21 FLAGS                  Extraction flags                                          
         1    671.3301     33.7855 307.6742177  +6.6721703     5028.633      17181.4     27253.01     93.92448     188.5251     376.9752      3.435     9.19     1246.114     66.46783     554.3007        99     2.815     2.157  82.35   0
         2    569.4623     29.6237 307.7168370  +6.6704705      1460.38     3330.777     5669.063     94.07488     188.6001     376.9752      3.136    10.42     1248.585     66.46783     174.5725        30     2.443     1.239  81.69   2
         3    474.7908     25.5599 307.7564518  +6.6689684     5915.561     14681.56     21210.84     93.77384      188.375     376.7876      2.980    10.25      1254.52     66.46783     574.8091        68     3.137     1.347  84.55   3
         4    479.1162     25.2078 307.7546599  +6.6692586     5444.911     12471.82     16730.49     94.07487     188.2249     376.9001      2.625     9.67     1254.345     66.46783       622.52        49     2.778     1.091  89.19   3
         5    297.2342     26.5254 307.8304614  +6.6626047     2194.163     8294.884     14977.14     94.37496     188.6001     377.0501      4.204    11.02      1274.14     66.46783     254.5209        91     2.758     2.382 -74.43   0
         6    656.2504     24.1768 307.6808265  +6.6756239     1029.138     2909.195     5336.963     94.07487      188.675     376.9752      3.739     9.17     1245.949     66.46783     124.7179        17     2.775     0.846  60.58   2
         7    217.3866      8.1402 307.8643730  +6.6674928     2610.359     5510.594     7286.024     93.77383     188.5251     375.6227      2.502     7.94      1275.79     66.46783     296.2408        38     2.523     1.057  82.46  19
         8    213.3897      8.1687 307.8660387  +6.6673465     2749.823     7062.252     10442.73     93.92448        188.3     375.9236      2.980    11.16     1275.782     66.46783     271.0685        51     3.098     1.203  79.76  19
         9    960.1029      5.2600 307.5547397  +6.6935825     1557.537      4337.11     5693.653     94.22504     188.6001     348.8491      2.874    10.57     1238.082     66.46783     190.3254        39     2.222     1.544  74.24  24
        10    560.5103      5.2658 307.7213828  +6.6802059     733.4006     2273.471     3656.851     94.52464     188.7499     348.8896      3.456     7.52     1249.669     66.46783     108.1204         9     1.499     1.056  53.34  18
        11    744.7529      1.7108 307.6446670  +6.6878441     1312.315     2121.599     2479.618     87.69724     156.5709     291.1018      1.831     6.79     1243.402     66.46783     175.3605        16     1.707     0.758   0.18  24
        12    582.2288    989.5599 307.6795188  +6.2753902     1684.936     4845.871     6454.779     94.07488        188.3     376.9377      2.921     7.45     1305.678     66.46783     199.1797        28     1.689     1.499 -18.36   3
        13    829.9027   1021.1254 307.5752639  +6.2706726     3055.307     7848.964     8546.366     94.07487     185.2724     328.9506      2.408     6.91     1304.882     66.46783     319.0323        44     1.947     1.485  89.28  24
        14    620.0141   1019.9498 307.6627621  +6.2641347     41658.88     141459.2     220398.5     93.77383     188.6001     345.6327      3.428    15.17     1308.074     66.46783     5549.678       147     3.309     1.934 -73.31  24
        15    580.7787    985.7792 307.6802489  +6.2768993      2227.74     3943.094     5559.866     94.22504     188.5251     377.0501      2.272     5.04     1305.446     66.46783     229.4579        16     1.236     1.158  -4.04   3
        16    579.3616    981.2342 307.6809908  +6.2787245     3199.767     9550.859     12867.43     94.22504      188.375     376.8251      3.100    14.14     1305.149     66.46783     351.2477        61     2.910     1.911  70.53   3
        17    947.9524    981.8322 307.5273764  +6.2908057     4507.705     11184.13      13538.5     94.22504     188.6001     377.0127      2.533     6.94     1301.474     66.46783     508.3702        55     2.367     1.395 -85.72   0
        18    565.4745    978.1874 307.6868790  +6.2795145     1671.224     4749.095     6842.276     93.92448     188.2249     376.8626      3.161     9.00     1304.777     66.46783     198.7391        39     2.090     1.821 -76.38   2
        19    921.5023    977.9886 307.5385261  +6.2915062     6219.616      15604.4     19619.09     94.22504     188.2249     376.8626      2.645     6.55     1301.577     66.46783     724.7437        67     2.491     1.504  88.11   0
        20    519.2538    974.1317 307.7062743  +6.2796362     963.7039     2440.412     2744.331     94.52464     188.5251     377.0127      2.859     9.03     1304.738     66.46783      142.259        14     2.050     1.110 -79.70   2
        21    953.2844    965.5631 307.5256942  +6.2976870     22869.18     55923.96     68900.66     94.52464     188.6001     377.0501      2.607     6.56     1300.434     66.46783     2305.838        94     2.502     1.589  88.93   0
        22     26.7233    966.3234 307.9117641  +6.2663007     1184.017      3017.05     3654.819      94.8233     188.8997     377.2001      2.583     8.35      1302.77     66.46783     169.3257        23     1.909     1.380  86.43   0
        23    260.9385    964.1088 307.8142464  +6.2750944      785.658     2083.532     2753.334     94.52464     188.7499     377.2001      2.569     5.21     1304.696     66.46783     99.30188         8     1.846     0.416 -36.36   0
        24    799.3453    957.4384 307.5901135  +6.2958917     3054.312     7972.099     10723.38     94.52464      188.675     377.0876      2.878     7.74      1301.61     66.46783     304.2097        57     2.442     1.522 -89.43   0
        25    851.3669    960.0887 307.5683470  +6.2965386     1201.091     2703.538     3584.061     94.67409     188.4501     377.0876      2.601     6.36     1300.807     66.46783     160.8525        17     1.337     1.074  18.97   0
        26    987.6674    952.4336 307.5118016  +6.3042444     3716.989     8611.108     10498.19     94.37496      188.675     377.1626      2.504     6.36     1299.457     66.46783     448.9388        49     2.183     1.398  87.65   0
        27     94.3012    955.2002 307.8839787  +6.2731593     957.4304     2950.026     3923.163     93.92448     188.1497     376.5999      3.048     8.63     1302.495     66.46783     147.9493        17     1.516     1.372 -80.09   2
        28    960.6672    945.0075 307.5232997  +6.3064029     901.7233     1978.207      1984.19     93.92448        188.3     376.9001      2.068     5.07     1299.177     66.46783     145.9336         8     1.607     0.453  73.35   0
        29    294.7533    940.4983 307.8009449  +6.2859586     1817.187     5195.155      7070.02     94.52464      188.375     377.3125      2.969     9.31     1304.374     66.46783     215.3669        44     1.985     1.809  60.89   0
        30    682.0459    940.3679 307.6395619  +6.2990010     1965.073     5496.777     7086.543     94.22504     188.6001     376.9752      2.848     8.26     1302.118     66.46783     213.2407        43     1.940     1.657  80.49   0
        31     64.9279    940.0621 307.8967246  +6.2784072     658.6785     1251.348      2411.55     94.67409     188.6001     377.1626      2.075     4.22      1302.12     66.46783      124.125         5     1.137     0.446 -33.34   3
        32     61.6704    939.2215 307.8981101  +6.2786438     580.4454     1262.079     2297.513     94.07488     188.4501     377.0501      2.287     4.04     1302.095     66.46783     96.10486         6     1.396     0.334 -75.89   2
        33    930.2661    919.3423 307.5368206  +6.3159627     3348.433     8822.821     10827.57     94.67409     188.5251     377.1251      2.740     7.20      1297.62     66.46783     351.2261        57     2.323     1.586 -89.29   0
        34    368.1354    915.5316 307.7712002  +6.2987100     3542.087     10235.49     13789.17     94.52464      188.675     377.1251      2.979     7.87     1304.278     66.46783     379.5043        70     2.458     1.846  88.48   0
        35    466.5085    917.3683 307.7301458  +6.3012548     852.9363     2206.064      2971.89     94.67409      188.375     377.1251      2.844     8.00     1302.982     66.46783     101.3793        13     1.642     1.089 -13.85   0
        36    290.0000    914.5084 307.8037938  +6.2965069     2038.359     3573.997     5534.448     93.62296     187.9994      376.675      2.337     9.68      1303.74     66.46783     270.2018        27     2.733     0.992 -85.41   3
        37    286.9924    914.3348 307.8050528  +6.2964774     2259.845     5499.751      7301.68     93.92448        188.3     376.9001      2.733     8.32     1303.694     66.46783     236.0916        37     2.214     1.338  89.61   3
        38    946.8972    904.3375 307.5303877  +6.3227004     685.1347     1694.545     1859.197     94.22504     188.7499     377.1626      2.225     6.69      1296.95     66.46783     99.08081         8     1.606     0.781 -23.49   0
        39    781.4174    898.7091 307.5995366  +6.3194901     685.3865     1674.473     1935.675     94.22504        188.3     376.9752      2.848     4.85     1298.784     66.46783     138.4722         7     1.160     0.662 -74.46   2
        40   1013.1691    894.1846 307.5031061  +6.3290955     764.8938     1774.838     1889.255     94.07487        188.3     377.0127      2.408     4.00     1296.509     66.46783     135.2831         6     1.487     0.308  81.56   0
        41    699.6821    890.7717 307.6338626  +6.3200260     989.8694     2360.959     3734.146     94.37496      188.375     377.0127      2.709     5.13     1299.546     66.46783     133.3754         9     1.164     0.639 -39.43   2
        42     99.1916    887.0208 307.8842229  +6.3014141     1042.364     2827.483     4198.871     94.07487        188.3     376.8251      3.297    10.83     1300.643     66.46783     119.6985        23     2.436     1.343  67.70   2
        43    116.6905    888.0849 307.8768955  +6.3015647     824.6112     1545.531     1948.865     94.22504     188.9745     377.2376      2.366     5.09     1301.017     66.46783     118.9971         8     1.206     0.607  53.50   0
        44    242.3906    886.2327 307.8245777  +6.3065565     984.9517     2321.719     2824.701     93.92448      188.375     376.9001      2.209     6.80     1302.819     66.46783      120.097        11     1.689     0.768  16.13   0
        45    695.5505    880.2342 307.6359349  +6.3242294     2543.064     7736.299     10269.98     94.37496     188.6001     377.0127      2.981     8.86     1299.079     66.46783     280.6151        66     2.614     1.766 -85.44   0
        46    380.7440    873.4847 307.7673494  +6.3164572       4782.9        10691     15532.47     94.52464     188.6001     377.2376      2.821     8.36     1303.052     66.46783     593.5363        49     3.043     1.115 -87.66   3
        47    377.4010    874.1964 307.7687188  +6.3160517     5065.452     11964.52     17230.54     93.77384     188.0746     376.7876      2.869     8.58     1303.115     66.46783     485.9343        47     2.553     1.234  84.31   3
        48    933.3085    876.1484 307.5369864  +6.3338613     1199.507     3070.183     3433.029     94.37495      188.375     377.3125      2.559     8.71      1295.58     66.46783      153.399        21     1.623     1.306  88.20   0
        49    923.3024    858.2156 307.5417517  +6.3409160     1033.413      2345.66     2633.743     94.52464        188.3     376.8626      2.369     8.37     1294.708     66.46783     130.7223        16     1.469     1.332 -84.79   0
        50    857.8611    857.2111 307.5690580  +6.3391437     1299.783     3591.828     4177.629     93.77383     188.4501     376.7501      2.568     9.82     1295.477     66.46783     142.3807        30     1.793     1.501 -56.40   0
        51    126.3986    858.5856 307.8738372  +6.3140453     909.4656     2328.359     3650.073     94.07488     188.2249     376.8251      3.381     7.14     1300.445     66.46783     104.9626        12     1.397     1.022 -11.10   2
        52    893.3945    857.4763 307.5542406  +6.3402217     891.7494     1903.229     1905.561     94.07488     187.9994     376.9001      2.181     5.82     1295.039     66.46783     136.3905         8     1.332     0.717  65.53   0
        53    593.6854    848.6766 307.6794369  +6.3338206     115364.3     357031.8     507808.1     94.67409     188.9745     377.1626      3.136     7.98     1298.989     66.46783      11443.7       199     2.871     2.140  88.21   0
        54    439.5342    851.5016 307.7435834  +6.3274878     2395.419     5434.388      7428.35     94.52464      188.675     377.1251      2.764     8.60       1301.7     66.46783     270.1302        33     2.428     1.223  84.99   3
        55    436.5106    851.0518 307.7448585  +6.3275717     2555.851     5656.169     8216.463     94.52464      188.375     377.2001      2.780    10.04     1301.704     66.46783     293.9413        39     2.943     1.105  76.40   3
        56    383.1586    850.1660 307.7671215  +6.3261458     3736.436     8021.875     12391.86     94.22504     188.6001     376.9001      3.003    10.37     1302.353     66.46783     413.0854        51     3.172     1.653  82.73   3
        57    379.8118    850.2416 307.7685137  +6.3260023     3705.736     8568.953     11046.74     93.77383      188.375     376.7501      2.503     6.15     1302.391     66.46783     411.3326        31     1.797     1.199 -86.05   3
        58    699.5508    846.0457 307.6354054  +6.3384497     1421.887     3885.358     5097.147     94.52464     188.4501     377.1251      2.882     9.46     1297.076     66.46783      171.261        32     1.917     1.686  57.75   0
        59    931.7116    844.4768 307.5387032  +6.3468576     2409.334       6213.6     8422.818     94.52464     188.9745     377.1626      2.867     7.55     1293.699     66.46783     290.5669        46     2.200     1.497 -85.80   0
        60    676.2612    840.5717 307.6452935  +6.3399255     949.6983     1997.201      3235.09     94.07488     188.6001     377.0127      2.558     3.46     1297.433     66.46783     198.4077         5     0.907     0.574  47.21   3
        61    672.8199    840.0190 307.6467460  +6.3400380     1447.807     3234.959     6176.289     94.22504     188.5251     377.0127      4.400    10.19     1297.441     66.46783     165.5171        29     2.206     1.617 -75.24   2
        62    666.1181    835.3026 307.6496960  +6.3417569     972.2488     2774.568      5050.75     94.37495     189.0493     377.1626      3.782     8.12     1297.154     66.46783     107.1978        17     1.592     1.158 -74.03   0
        63    950.6379    832.5294 307.5312120  +6.3524122     1326.675     3394.849     4011.412     94.37496     188.6001     377.1626      2.540     7.52     1292.535     66.46783     197.4734        28     2.008     1.373 -87.11   0
        64    410.8773    828.5876 307.7562903  +6.3359669     910.9037     1880.056     2868.149     94.07487     188.1497     376.9001      2.757     5.52     1301.178     66.46783     135.0137        10     1.225     0.840  78.43   2
        65    406.5668    828.4730 307.7580905  +6.3358695      799.512     1619.131     3127.866     94.37496     188.6001     377.0876      3.121     5.97      1301.21     66.46783     96.21875         9     1.287     0.779  89.65   2
        66    544.3123    818.1123 307.7010313  +6.3447589     1021.918     2981.344     4606.848     94.22504     189.1988     377.2001      3.622     8.71       1297.9     66.46783     126.7474        15     1.984     1.067 -53.17   2
        67    593.8100    814.4912 307.6805236  +6.3479098      1777.14     4595.037     7681.495     94.22504     188.1497     376.7876      3.320     9.81     1296.547     66.46783     202.0118        30     2.559     1.049  85.44   3
        68    590.6902    814.1313 307.6818357  +6.3479535     1839.525     3887.421     7166.508     94.67409     188.7499     377.0501      2.863     9.92     1296.613     66.46783     236.3027        33     2.821     0.973  88.77   3
        69    562.7430    808.4720 307.6936714  +6.3493487     6340.916     20208.35     29350.54     94.67409     188.6001     377.0501      3.223     8.27     1296.853     66.46783     658.8193        97     2.773     2.031 -88.39   0
        70    976.2459    806.1726 307.5214140  +6.3641267     1663.819     4821.555     6028.134     93.92448      188.675     376.9752      2.735    11.14     1289.442     66.46783     204.6355        43     2.394     1.444  87.69   0
        71    353.7119    797.2647 307.7811591  +6.3469530     987.1588     2701.422     4628.939     94.52464     188.8248     377.0876      3.622     9.48     1301.098     66.46783     128.6002        19     2.168     1.156 -57.92   2
        72    820.8516    792.6848 307.5866263  +6.3644932     20738.31     60543.96     82066.87     94.52464     188.5251     377.2001      2.972     7.52     1291.702     66.46783     2312.803       113     2.694     1.929  89.08   0
        73     75.1509    799.5367 307.8971696  +6.3366482     700.9353     1420.896     1840.708     94.37495     188.5251     377.1626      3.044     4.60     1298.198     66.46783      102.968         7     1.234     0.488   5.19   0
        74     56.8498    796.7952 307.9048879  +6.3371613     829.8057     1872.425     2544.131     93.77383      188.375      376.675      2.853     5.23     1297.969     66.46783     119.6661         8     1.317     0.587  87.43   0
        75    277.8350    769.6465 307.8137032  +6.3557825     688966.7      2315750      3541984     94.07487     188.5251     376.9377      3.359     9.82     1300.986     66.46783     63170.49       574     3.308     2.381  85.84   4
        76    744.0040    784.5257 307.6189256  +6.3652849      28306.8     89887.77       155771     94.07487     187.9994     376.9752      3.774    10.26     1292.974     66.46783     3327.825       209     3.667     2.544  43.26   0
        77    945.6484    786.9828 307.5348032  +6.3710120     3492.941     10122.59     14491.57     93.92448      188.675     376.8251      3.162     8.99     1289.604     66.46783     432.6815        68     2.722     1.646  79.54   3
