#   1 NUMBER                 Running object number                                     
#   2 X_IMAGE                Object position along x                                    [pixel]
#   3 Y_IMAGE                Object position along y                                    [pixel]
#   4 ALPHA_J2000            Right ascension of barycenter (J2000)                      [deg]
#   5 DELTA_J2000            Declination of barycenter (J2000)                          [deg]
#   6 FLUX_APER              Flux vector within fixed circular aperture(s)              [count]
#   9 FLUXERR_APER           RMS error vector for aperture flux(es)                     [count]
#  12 FLUX_RADIUS            Fraction-of-light radii                                    [pixel]
#  13 FWHM_IMAGE             FWHM assuming a gaussian core                              [pixel]
#  14 BACKGROUND             Background at centroid position                            [count]
#  15 THRESHOLD              Detection threshold above background                       [count]
#  16 FLUX_MAX               Peak flux above background                                 [count]
#  17 ISOAREA_IMAGE          Isophotal area above Analysis threshold                    [pixel**2]
#  18 A_IMAGE                Profile RMS along major axis                               [pixel]
#  19 B_IMAGE                Profile RMS along minor axis                               [pixel]
#  20 THETA_IMAGE            Position angle (CCW/x)                                     [deg]
#  21 FLAGS                  Extraction flags                                          
         1    160.3270     18.0178 307.8657462  +6.6675947     3001.281     11860.62     16102.03     93.35132     187.3746      374.712      3.124     9.04     1267.088     66.06222     438.3312        72     2.314     2.110 -68.21   0
         2    505.5623     16.6270 307.7219778  +6.6796576     983.9454      2871.64     4719.802      93.5008     187.2255     374.6002      3.470     9.99     1238.603     66.06222      120.481        25     2.175     1.280 -40.39   2
         3    905.7434     14.6451 307.5553321  +6.6937409     1693.136     4901.143     6095.941     93.94782     187.4491     374.8238      2.811     8.74     1227.879     66.06222     186.3992        39     1.869     1.710  74.16   0
         4    706.2508     13.7760 307.6384694  +6.6874944      627.402     2339.374     2336.044      93.5008     187.4491     374.6747      2.736    10.10     1233.127     66.06222      90.8905        13     1.893     1.503  67.26   0
         5    970.3965     11.2249 307.5285122  +6.6972915     1030.721     2749.534     3300.957     93.35132     187.0763     374.6002      2.601     8.67     1222.865     66.06222     129.7831        21     1.837     1.144 -87.27  16
         6    442.3510     11.9821 307.7484670  +6.6794760     519.4802     1321.274     2062.663     93.35132     187.5236     374.5629      3.127     4.56     1246.268     66.06222     91.20825         5     1.010     0.584 -16.27   0
         7    689.9195      8.0717 307.6454648  +6.6893095      2283.79     8264.041      10308.7     94.24465     187.7469       373.48      2.965     8.37     1233.611     66.06222     323.8875        65     2.269     1.995 -39.46  16
         8    609.1402      5.2759 307.6792109  +6.6877853     968.0009     2038.475     3072.343     94.09635     187.4491     346.8008      2.575     6.25     1234.251     66.06222     105.0945        10     1.221     0.899  -9.14  19
         9    609.5040      9.2071 307.6789270  +6.6861734      1429.26     3280.522     4389.918     93.65004     187.0016     374.5629      2.786     6.46     1234.355     66.06222     146.4277        16     1.497     0.783  17.19  18
        10    411.1082      4.9749 307.7617185  +6.6813320      1959.22     5476.936     6432.095     94.09635     187.1509     342.5057      2.660     8.76     1250.488     66.06222     247.6731        44     2.284     1.556 -21.39  18
        11    410.3966      1.0000 307.7621490  +6.6829503     1218.063     2202.387     3241.568     75.29934      142.106     275.0728      2.316     5.51       1250.9     66.06222     214.6322        11     2.128     0.403  -6.43  27
        12     11.7614      4.1653 307.9281011  +6.6683603     2911.594     9646.904     11664.16     93.65004     185.9531     331.0607      2.860     8.67     1269.675     66.06222     414.1008        58     2.246     1.777 -41.90  24
        13    306.5134      1.6126 307.8054039  +6.6792412     3264.304     5479.396     5563.806     85.70794     153.9916     287.5339      1.715     6.08     1262.865     66.06222     495.7217        20     1.846     0.691  -1.12  24
        14     81.2478      1.6365 307.8992416  +6.6717242     723.0137     1400.997     1678.124      86.0332     154.6251     287.8737      2.292     3.16     1267.901     66.06222     141.5541         5     0.773     0.606 -82.54  26
        15    621.0870    986.0246 307.6412499  +6.2830288     868.0273     1645.522     1745.108     93.94781     187.2255     374.6375      1.866     6.85     1298.316     66.06222     122.4902         9     1.461     0.902  76.46   0
        16    732.1662   1019.6183 307.5938838  +6.2728316     676.8463     1978.006     2661.348     93.35132     187.2255     347.9266      2.495     9.25     1297.342     66.06222     114.2566        13     2.202     1.084  87.83  24
        17    699.2257   1022.8708 307.6074862  +6.2703969     4347.638     7123.029     7432.155     91.23286     162.2927     297.0891      1.729     5.16      1298.43     66.06222     500.6998        24     1.624     0.900  -5.90  24
        18    691.4413   1022.1172 307.6107519  +6.2704503     739.5166     1405.075     2143.526     93.94781     173.2796     310.6021      2.328     7.47     1298.605     66.06222     102.0737        11     1.772     0.881  -8.83  25
        19    566.1508   1023.7511 307.6628493  +6.2656220     2986.902     4639.374      5722.95     80.49838     147.5067     280.4526      1.584     4.48      1299.96     66.06222     728.3024        16     1.704     0.504   2.09  25
        20    555.7103   1022.3790 307.6672413  +6.2658425     2618.791     5141.466     6098.031     93.79905     169.7786     306.2552      2.208     7.13     1299.833     66.06222     280.1238        35     2.010     1.297   0.02  24
        21    414.2939   1023.0249 307.7260833  +6.2608810     2243.802     3765.081     4062.822     90.15496     159.9524     294.0177      1.816     5.66     1300.509     66.06222     304.2867        20     1.681     0.808   1.45  24
        22    580.0341    987.7613 307.6582803  +6.2809501     773.1137     1476.069     991.9827     93.65004     187.2255     374.5256      1.605     4.98     1298.735     66.06222     152.5911         7     1.670     0.420   2.58   0
        23    464.2628    983.4862 307.7066149  +6.2788741     1183.954     2883.013     2778.458     94.09635     187.6725     374.8238      2.333     9.36     1299.265     66.06222     139.5404        24     1.689     1.447 -25.96   0
        24    898.5323    975.4160 307.5261135  +6.2965969     32156.06     64135.36      69454.9     93.35132     187.3746     374.6747      2.077     4.62     1295.048     66.06222     3741.009        72     1.840     1.490 -36.55   0
        25    207.0332    973.7393 307.8140154  +6.2743484     896.3965     1794.359     2502.837     93.65004     187.5236      374.712      1.927     5.66     1299.341     66.06222     124.7727        10     1.318     0.686  28.38   0
        26    796.6675    969.0862 307.5687297  +6.2958422     1653.915     3538.157     4170.634     94.09635     187.7469     374.8238      2.266     5.33     1295.602     66.06222     218.4722        22     1.380     1.250  13.07   0
        27    744.6033    967.1912 307.5904664  +6.2949016     4180.052     9551.651     11253.83      93.2016     187.0763     374.6375      2.377     5.43     1294.899     66.06222     535.3923        47     1.884     1.481 -44.52   0
        28     39.9404    964.8348 307.8838670  +6.2724597     1605.508     3778.178     5007.423     93.79905     187.4491     374.7493      2.766     6.72     1298.346     66.06222     175.2339        27     1.555     1.376  89.33   0
        29    932.8552    962.1810 307.5122690  +6.3031990     5157.496     10294.42      10905.6     93.35132     187.4491     374.5629      2.066     4.69     1293.589     66.06222     683.8951        40     1.757     1.320 -42.31   0
        30    214.7200    965.8154 307.8110832  +6.2778776     915.2631     1793.725      2162.85      93.5008     187.1509     374.5629      2.605     6.76     1299.333     66.06222     123.1914        12     1.766     0.726 -11.45   0
        31    906.3648    953.7415 307.5235793  +6.3058099     1430.464     2780.801      2843.06     93.79905     187.4491     374.7865      1.957     7.11      1292.93     66.06222     145.9856        18     1.323     1.071 -35.69   0
        32    239.8284    950.6870 307.8011422  +6.2849628     2298.417     6010.758     7173.431     94.09635     187.1509     374.6375      2.526     7.63     1299.255     66.06222     292.1302        41     1.948     1.567 -33.61   0
        33    627.5291    949.8470 307.6397840  +6.2981876     2735.385     6246.023     6363.068     93.94781     187.4491     374.7865      2.271     5.82     1296.432     66.06222      322.092        36     1.768     1.384 -23.80   0
        34    766.6255    949.6893 307.5818864  +6.3028609     878.5613     1385.446     2139.407     94.09635     187.2255     374.6002      1.937     4.70     1294.145     66.06222     107.8618         8     1.008     0.622 -22.69   0
        35      8.6374    948.1701 307.8974599  +6.2782998     1353.936     2984.905     2475.376      93.5008     187.1509     374.6375      2.138     6.27     1297.442     66.06222     184.6737        22     1.476     1.314   0.49  16
        36    858.3799    947.7129 307.5437568  +6.3067136     674.0615      1421.24     1619.823     93.65005     187.1509     374.6747      2.496     4.65     1292.692     66.06222     123.9763         6     1.107     0.734  44.41   2
        37    983.6742    941.6448 307.4918015  +6.3133620     781.0087      1531.11     1733.163     93.79905     187.5236     374.8238      2.039     4.61     1291.327     66.06222     121.6899         9     1.137     0.832 -28.31   0
        38    552.9502    941.3336 307.6711155  +6.2992312     921.2039     1671.612     1876.324     93.79905     187.3001     374.7493      2.016     4.96      1297.31     66.06222     141.7992         9     1.247     0.559  15.22   0
        39    591.4178    938.4207 307.6552003  +6.3017105     825.2065     1768.479     2361.787     93.65005     187.3001     374.6747      2.617     5.35     1296.785     66.06222     106.7325         7     1.177     0.687 -33.68   0
        40    875.5872    928.9877 307.5372213  +6.3150183     4643.792     9958.402     10500.92     93.79905     187.0763      374.712      2.196     5.30     1290.622     66.06222     549.0457        42     1.769     1.405 -26.89   0
        41    313.3712    925.2346 307.7713875  +6.2979237     4535.923     12807.25     15246.22     93.35132     187.1509     374.5256      2.618     6.32     1298.548     66.06222     548.1831        59     2.004     1.770 -32.04   0
        42    233.7932    926.4167 307.8044732  +6.2947879     1950.465     3222.239     4182.716      93.5008     187.1509     374.6002      1.757     6.74     1298.512     66.06222     266.9834        14     1.690     0.753  -3.36   3
        43    233.9691    923.0660 307.8045130  +6.2961779      3388.84     7146.834     8410.574     93.65004     187.4491      374.712      2.240     7.15     1298.427     66.06222     439.4432        34     2.044     1.191  -6.40   3
        44    412.1874    925.4481 307.7302460  +6.3011202     1062.419     2422.399     3251.617      93.2016     187.3001      374.451      2.562     6.65     1297.852     66.06222     157.2926        15     1.554     0.798  13.66   0
        45    561.4219    917.0485 307.6684056  +6.3095446     766.4101     1347.007     1238.188      93.5008     187.4491     374.6747      1.930     4.61     1296.529     66.06222      112.828         6     0.938     0.642 -19.20   0
        46    891.2259    913.2236 307.5312394  +6.3220478     772.3062     1579.146     1910.531     93.35132     187.3001     374.6747      2.296     5.66     1289.845     66.06222     108.7686         8     0.991     0.911 -21.22   0
        47    728.5978    906.7367 307.5991586  +6.3193459     914.9955       1784.1     1902.291      93.2016     187.1509     374.5256      2.074     7.22     1292.333     66.06222     123.1566        13     1.277     1.144  11.49   0
        48    958.9425    902.6578 307.5034030  +6.3286510     879.8131     1540.731     2362.364     93.94781     187.4491     374.8238      2.728     6.79     1288.588     66.06222     120.9502        10     1.246     1.038 -32.94   0
        49    646.8536    900.4990 307.6333977  +6.3192143     1290.674     3000.841     3623.038     93.79905     187.4491     375.0845      2.372     6.95     1293.256     66.06222     181.0557        22     1.543     1.227   0.80   0
        50     43.2236    897.2188 307.8847859  +6.3005007     1568.605      3668.17      3926.47     93.65004     187.3746      374.712      2.394     6.74      1296.03     66.06222     206.7051        24     1.543     1.295 -77.18   0
        51     61.9782    897.0593 307.8769845  +6.3011919     899.3323     2231.906     2023.306      93.5008     187.3746     374.6375      2.239     4.81     1296.171     66.06222     160.1416         8     1.288     0.509 -62.83   2
        52    186.3802    895.7324 307.8252451  +6.3058851     1146.657     2714.645     3454.671      93.5008     187.4491      374.712      2.757     7.93     1297.247     66.06222     170.1569        20     1.672     1.050   9.10   0
        53    924.6255    894.9561 307.5179473  +6.3306986     611.2269     1102.859     895.6514      93.5008     187.5236     374.6375      1.729     4.37      1288.76     66.06222     109.0559         5     0.837     0.649   5.67   0
        54    640.8887    889.9031 307.6362369  +6.3233938     3484.403     9172.516     10512.53     93.94781     187.9699     374.8238      2.500     6.44     1292.928     66.06222     446.6641        48     1.975     1.568 -36.52   0
        55    878.0833    886.0320 307.5376223  +6.3328465     1841.467     4194.148     4571.414     93.94781     187.2255     374.6375      2.230     6.85     1288.832     66.06222     209.5452        30     1.763     1.264 -44.15   0
        56    324.0638    883.4603 307.7683447  +6.3155363     7379.301      21270.1     25926.99     93.94781     187.3746     374.8238      2.703     6.51     1297.682     66.06222      845.396        72     2.114     1.856 -35.36   0
        57     58.7572    883.9726 307.8787676  +6.3064905      736.387     1698.617      1527.55      93.5008     187.4491     374.6375      2.017     6.35      1296.01     66.06222     127.7704        10     1.607     0.704  64.71   0
        58     87.9748    873.6057 307.8669556  +6.3117471     895.0638     2064.942     2455.806     93.35132     187.2255     374.6002      2.395     7.51     1296.111     66.06222     113.9908        14     1.348     1.172  -5.90   0
        59    869.2106    867.7281 307.5419297  +6.3401146     1124.861      2621.09     2355.544     93.35132     187.0016     374.6002      2.223     7.67     1288.194     66.06222     152.9675        17     1.572     1.215 -32.20   0
        60    839.9553    866.0995 307.5541637  +6.3398197     1105.573     2474.782     2981.344     93.94781     187.3746     375.0473      2.644     7.15     1288.801     66.06222     145.3888        15     1.767     0.810 -19.04   2
        61     72.5339    867.0094 307.8736060  +6.3139572      1056.11     2477.173     3587.265     93.35132     187.2255     374.6747      2.791     5.48     1295.927     66.06222     161.5215        10     1.161     0.861  32.46   2
        62    803.2130    866.5353 307.5694453  +6.3384239     1677.505     3977.082     4725.006     93.35132     187.2255     374.6747      2.490     6.91     1289.795     66.06222     188.4604        27     1.637     1.230  -6.98   0
        63    539.0195    858.4430 307.6797027  +6.3330116     146723.3     428975.3     510986.4     93.35132     187.3001     374.5629      2.680     6.63     1295.686     66.06222      16575.3       180     2.289     2.001 -40.16   0
        64    384.0465    863.4725 307.7440482  +6.3257874      1879.53     3000.865     4297.436     93.79905     187.5236     374.7865      1.603     5.27     1297.135     66.06222     265.7754        14     1.597     0.639 -28.86   3
        65    383.8171    860.1160 307.7442568  +6.3271663     3466.149     7878.302     9229.388      93.5008     187.0763      374.712      2.384     7.24     1296.934     66.06222     391.6233        44     2.267     1.387 -22.20   3
        66    326.5269    859.7038 307.7681202  +6.3254320     5098.892     16107.71      19257.7     93.65005     187.5981     374.7493      2.763     7.15     1297.074     66.06222     622.3225        66     2.192     1.864 -41.43   0
        67    645.0145    855.5680 307.6356731  +6.3377147     1863.559     4994.032      5785.77      93.5008     187.1509      374.712      2.596     7.10     1291.117     66.06222     214.9604        38     1.882     1.470 -34.58   0
        68    877.0494    854.2982 307.5391165  +6.3459220     3026.299     7407.953      8697.27     93.94781     187.3746     374.9728      2.506     6.51       1287.3     66.06222     362.2633        41     1.834     1.521 -39.57   0
        69   1010.4235    848.2900 307.4837914  +6.3528119     3219.401     6646.499     7092.689     93.94782     187.2255     374.6375      2.228     5.08      1283.32     66.06222     408.6154        39     1.843     1.350 -53.38   0
        70    619.3281    848.1654 307.6466154  +6.3399212     1577.013     3914.849     5129.546     93.79905     187.3746     374.7865      2.944     9.05     1291.089     66.06222     190.2874        30     2.088     1.659 -38.46   2
        71    808.4600    848.1713 307.5678770  +6.3461839     842.1706     1690.751     2028.347      93.5008     187.5236     374.7493      2.523     5.41     1288.408     66.06222     107.4496         9     1.356     0.608 -36.02   0
        72    611.4696    846.7888 307.6499332  +6.3402293     976.4261     2407.757     4038.801     93.35132     187.2255     374.6002      3.666     6.71     1291.148     66.06222      123.746        15     1.556     0.811  18.23   3
        73    613.4831    843.0383 307.6492211  +6.3418455     1038.657     2339.708     2992.111     93.94781     187.3746     374.7493      2.472     6.58     1290.884     66.06222     127.4475        12     1.415     0.859  39.93   3
        74    896.0447    841.8561 307.5316255  +6.3516900      1966.62     3946.104     4224.904     93.94781     187.4491     374.7865      2.139     5.79     1286.223     66.06222     239.8716        25     1.651     1.157 -24.72   0
        75    353.5660    838.2764 307.7575862  +6.3351827     1154.655     3212.628       4730.9     93.79905     187.4491     374.7493      3.136     6.94      1295.58     66.06222     156.0117        19     1.744     1.139 -82.51   2
        76    491.0776    827.7130 307.7006952  +6.3441151     1265.007     3916.621     4843.151     93.94781     187.8213     374.8983      2.844     9.16     1294.127     66.06222     186.5856        31     1.988     1.644  12.63   0
        77    537.7768    824.3162 307.6813681  +6.3470684     2445.673      7624.26     10285.59     93.79905     187.1509      374.712      3.080     8.35     1292.973     66.06222      296.365        56     2.342     1.747 -18.52   0
