#   1 NUMBER                 Running object number                                     
#   2 X_IMAGE                Object position along x                                    [pixel]
#   3 Y_IMAGE                Object position along y                                    [pixel]
#   4 ALPHA_J2000            Right ascension of barycenter (J2000)                      [deg]
#   5 DELTA_J2000            Declination of barycenter (J2000)                          [deg]
#   6 FLUX_APER              Flux vector within fixed circular aperture(s)              [count]
#   9 FLUXERR_APER           RMS error vector for aperture flux(es)                     [count]
#  12 FLUX_RADIUS            Fraction-of-light radii                                    [pixel]
#  13 FWHM_IMAGE             FWHM assuming a gaussian core                              [pixel]
#  14 BACKGROUND             Background at centroid position                            [count]
#  15 THRESHOLD              Detection threshold above background                       [count]
#  16 FLUX_MAX               Peak flux above background                                 [count]
#  17 ISOAREA_IMAGE          Isophotal area above Analysis threshold                    [pixel**2]
#  18 A_IMAGE                Profile RMS along major axis                               [pixel]
#  19 B_IMAGE                Profile RMS along minor axis                               [pixel]
#  20 THETA_IMAGE            Position angle (CCW/x)                                     [deg]
#  21 FLAGS                  Extraction flags                                          
         1    761.6556     32.4554 307.6196494  +6.9227764     31456.85     152040.1       212055     96.90488     192.7402     385.3656      3.279     9.70     1290.518     67.92695     4669.513       149     2.546     2.435 -51.67   0
         2    358.8484     30.0206 307.7881768  +6.9105191     7501.531     42686.55     69282.11     95.98634     192.8168     385.1356      3.610    11.30     1315.707     67.92695     1369.318       127     2.756     2.582 -45.31   0
         3    412.9504     32.0000 307.7654869  +6.9114872     3412.993     7273.719     10661.57     95.67819     192.1264     384.7904      2.970    12.66     1307.508     67.92695     420.0469        41     3.202     1.393  40.45   3
         4    415.8076     28.8100 307.7643984  +6.9128973     3578.802     8126.403     12791.59     95.98633     192.5103     385.2506      3.228    13.77     1307.328     67.92695      431.421        54     3.405     1.548  43.11   3
         5    360.5557     13.6603 307.7880086  +6.9173238     1207.317     2537.339     3024.361      96.4467     192.7402     385.5188      2.261     8.40     1316.045     67.92695     140.0385        18     1.765     1.117 -10.08   3
         6    365.7402     16.2861 307.7857530  +6.9164118     1572.977     3068.382     3754.768     96.59967     192.8934     385.4805      2.409     6.14     1315.287     67.92695      187.064        14     1.405     0.810 -71.73   3
         7    798.8005     18.0110 307.6045953  +6.9299546     1752.872     5570.529     8721.612     96.14003     192.3568     385.1356      3.325    10.98     1288.048     67.92695     213.0643        49     2.515     1.839 -44.12   2
         8    741.6382      7.3351 307.6288551  +6.9324809     2065.653      3986.25     4850.305      96.4467     192.6636     379.0299      2.017     7.90     1290.814     67.92695     233.5918        21     1.611     1.198  -4.33  19
         9    742.1688     11.6148 307.6284911  +6.9307329     2581.189      4950.04     5349.365     96.14003     192.4336     385.2889      2.061     7.15     1290.939     67.92695       304.58        25     1.754     1.027  38.04   3
        10    746.5044      9.9716 307.6267325  +6.9315532     2141.258     3510.959     4404.547      96.7524     192.4336     385.3272      1.824     7.91     1290.601     67.92695     283.0613        21     1.998     0.878 -88.92  19
        11    579.0111      7.2126 307.6968691  +6.9271830     14988.05      82180.7     125694.3     96.29349     192.4336     378.0157      3.478    11.19     1293.942     67.92695     2463.067       137     2.674     2.544 -46.75  24
        12    386.0645      4.3304 307.7776526  +6.9220139     8636.673     43055.34     60191.82     96.59967     192.2033     343.0842      3.311    11.89     1313.323     67.92695     1464.732        97     2.737     2.161 -14.86  24
        13    459.4942      5.6090 307.7469030  +6.9239077     1678.027     3718.848     5426.509     96.14004     192.2801     360.8296      2.854     9.97     1305.047     67.92695     211.8712        27     2.314     1.197  58.45  19
        14    463.5920      3.0770 307.7452737  +6.9250872     1741.807     3625.289     4501.066     96.14003     180.4762      322.452      2.442     8.98     1304.767     67.92695     207.9283        23     1.632     1.380  70.02  27
        15    821.9242      4.5412 307.5953722  +6.9362701     791.8342     1467.358     1938.192      96.7524     192.8168     346.0836      2.249     6.32     1286.951     67.92695     121.3718         8     1.285     0.873  42.08  26
        16    625.2133      2.3920 307.6777081  +6.9306919     3536.257     6165.545      6417.89     95.98634     170.8953     310.3184      1.865     5.48     1292.637     67.92695     406.2704        28     1.718     1.015  23.79  27
        17    629.3239      1.3353 307.6760242  +6.9312630     1854.957     2245.213     2304.347     84.18559     153.3164     289.9518      1.183     3.79     1292.611     67.92695     310.4249         8     0.850     0.755 -37.71  27
        18     85.7902    979.4852 307.8706221  +6.5098518     2024.131     6509.985     7755.101     96.14004     192.3568      385.174      2.774     8.05     1356.989     67.92695      240.446        48     1.890     1.859 -47.02   0
        19    298.8838    979.4897 307.7815850  +6.5168870     724.8237     1529.855     1906.929     96.29349     193.0464     385.4805      1.773     4.29     1358.536     67.92695     95.73413         6     1.054     0.497  -3.47   0
        20   1017.3675    976.2568 307.4814680  +6.5418324     712.8151     1587.398     2635.696      96.4467     192.8168     381.3214      2.738     4.97     1349.389     67.92695     121.5862         6     1.450     0.482 -88.98  16
        21    107.9234    974.9800 307.8615248  +6.5124418     1074.344     3025.232     3829.268     96.14003     192.3568     385.2889      2.710     8.76     1357.273     67.92695     156.9768        19     1.642     1.305  30.25   0
        22    331.5607    968.7525 307.7682890  +6.5223939     866.2607     2170.405     2967.325      96.4467     192.7402     385.1356      2.827     7.09     1358.294     67.92695     154.0712        11     1.979     0.711   4.54   2
        23    385.0422    963.3456 307.7461220  +6.5263874     2825.751     9306.996     11644.41      96.4467     192.7402     385.3656      2.835     7.35     1357.869     67.92695     353.7635        61     2.133     1.903 -44.20   0
        24    725.6058    960.3363 307.6039145  +6.5388330     5457.532     16312.82     19964.76     95.83238     192.4336     385.0973      2.726     6.74     1355.574     67.92695     660.8402        62     2.059     1.792 -29.24   2
        25    969.3190    955.2258 307.5022422  +6.5489346     2426.381     5409.292     5870.424      96.4467     192.5103     385.4039      2.284     5.53     1349.246     67.92695     293.6141        31     1.566     1.367 -38.54   0
        26    432.7866    946.2421 307.7267412  +6.5350158     1161.628     3385.263     4275.532     95.83238     192.5103     385.0589      2.720    10.10     1357.212     67.92695     164.3215        26     1.991     1.429 -22.99   0
        27    405.6305    947.1441 307.7380586  +6.5337490     1008.096     3045.407     4024.688      96.4467     192.8168     385.2889      2.644     8.89     1357.507     67.92695     140.2848        21     1.610     1.371  82.75   0
        28    790.9124    943.2227 307.5771922  +6.5480366     15740.86     43353.11     51453.84     96.59967     192.5103     385.2506      2.616     6.15     1352.326     67.92695     1854.254        84     2.163     1.836 -48.93   0
        29    563.1234    935.3149 307.6726417  +6.5438140      1112.32      3264.77     4198.183      96.7524     193.1229     385.4805      2.883     8.54     1355.442     67.92695     186.9567        23     1.943     1.395  39.25   0
        30    647.4005    929.3268 307.6376236  +6.5490554      29869.9     97785.16     119021.3     95.67819     191.9727      385.174      2.792     7.05     1354.563     67.92695     3773.497       108     2.257     2.014 -42.50   0
        31    805.3651    929.6664 307.5716022  +6.5541031     692.8423     1533.842     2081.665      96.4467     192.8168     385.4422      2.449     3.16     1351.125     67.92695     160.6827         5     0.954     0.464  -5.73   0
        32    508.0203    925.9797 307.6959780  +6.5458515     746.2079     1784.937     2520.582     96.29349     192.6636     385.2889      3.142     8.58     1355.728     67.92695     109.7372         9     1.862     1.104 -80.25   2
        33    511.9679    925.0000 307.6943609  +6.5463856     917.0576      2021.47     3283.597     95.67819     192.4336     385.0206      3.526     7.52     1355.671     67.92695     132.0526        11     1.642     0.963  89.96   2
        34     48.2126    925.0259 307.8881426  +6.5310733     2805.734     7199.645     8864.836     96.14003     192.5103     385.2889      2.717     7.55     1355.482     67.92695     325.3645        44     1.978     1.781  82.89   2
        35     45.3136    926.6714 307.8892989  +6.5302986     1616.519     2544.038     3092.034      96.7524     193.0464     385.4039      1.692     3.91     1355.572     67.92695     199.6548         7     0.918     0.602  46.64   3
        36    493.1837    922.4017 307.7022967  +6.5468391      2352.42     8677.017     10565.68     96.14003     192.2033     385.0973      2.889     8.14     1355.789     67.92695     294.2776        57     2.133     1.909  -5.04   0
        37    356.1816    917.6576 307.7597032  +6.5442825     8488.425     31095.21     39616.81     96.14003     192.6636     385.0589      2.970     7.62     1357.239     67.92695     1090.712        84     2.245     2.108 -35.12   0
        38    222.5196    919.2671 307.8155013  +6.5392087     1277.968     3263.426     3815.455      96.7524     193.0464     385.3656      2.501     7.55     1356.815     67.92695     162.6805        20     1.974     1.028  17.10   0
        39    445.0765    908.0344 307.7228773  +6.5511815     2847.445     10629.24     13784.56      96.4467     192.7402     385.3272      3.040     7.86     1356.239     67.92695     407.2162        64     2.241     1.990 -23.06   0
        40    714.1359    906.5544 307.6104921  +6.5606421     1263.641     3880.471      4637.57     96.59967     192.6636     385.4039      2.692     9.33     1352.557     67.92695      158.109        30     1.764     1.547  -1.47   0
        41    335.1460    892.3349 307.7693369  +6.5540345     2326.387     9012.266     11557.92     96.59967     192.6636     385.3272      2.987     8.12     1356.991     67.92695     311.8743        61     2.172     1.985 -18.39   0
        42    702.8216    887.8460 307.6158412  +6.5679879     19733.09     65525.66     79597.84     96.14003     192.7402      385.174      2.808     6.98     1351.372     67.92695     2414.643       102     2.240     2.018 -37.28   0
        43    193.2443    892.1596 307.8286385  +6.5494238     976.3619     1954.787     3345.012     96.29349     192.7402     385.2506      2.413     5.50     1355.639     67.92695     116.5502         9     1.181     0.723  74.25   0
        44    374.6460    887.0316 307.7530075  +6.5575245     940.5979     2711.371      3208.76     96.29349     192.7402     385.2506      2.764     7.73     1356.739     67.92695     136.4584        15     1.728     0.966  -1.37   0
        45    877.2776    883.4861 307.5430810  +6.5755120     1052.866     2523.069     2741.224     96.59967     193.1229     385.4805      2.391     5.74     1347.889     67.92695     171.2974        12     1.601     0.579 -54.43   2
        46    937.7891    883.5758 307.5177902  +6.5774585     761.8502      1734.77      1915.35     96.14004     192.5103     385.2506      2.291     6.00     1346.392     67.92695     129.4226         8     1.567     0.646  10.80   0
        47    138.5742    873.8795 307.8520932  +6.5551582     944.1478      2680.64     3828.186     96.29349      192.587     385.3656      2.715     6.51     1354.699     67.92695     138.8003        10     1.572     0.757  29.11   2
        48    701.3755    872.4792 307.6169555  +6.5742793     2117.344     7533.558     8686.707     96.14004     192.5103     385.3656      2.766     8.79     1350.288     67.92695     303.9948        50     2.083     1.753 -29.64   0
        49    718.0843    869.9459 307.6100570  +6.5758732     1204.201     3136.516     3848.175     96.59967     192.7402     385.5571      2.687     7.45     1349.926     67.92695     177.7306        19     1.943     1.079  14.30   0
        50    955.8231    861.0601 307.5109990  +6.5873376     2859.658     7686.761     8715.304     96.14003     192.6636     385.2506      2.506     6.27      1344.53     67.92695     405.5842        46     1.937     1.564 -36.53   0
        51    306.3784    864.0816 307.7822996  +6.5647402     827.6526     1740.832      2488.55     96.29349     192.3568     385.2889      2.395     6.16     1356.464     67.92695     106.3795         9     1.830     0.583   1.27   0
        52    196.7686    857.2103 307.8283320  +6.5639567     1626.064     6629.864      8452.62     95.98633     192.4336      385.174      3.063     9.12      1354.71     67.92695     237.6091        54     2.182     2.068 -20.02   0
        53    102.0792    842.5654 307.8683890  +6.5668689     701.0251      1257.58     2214.867      96.4467     192.8168     385.3656      1.964     5.99     1353.134     67.92695     109.1957         8     1.819     0.555  36.12   0
        54    673.5792    836.7173 307.6297590  +6.5881183     1588.972     5609.991     6864.076     96.29349     192.3568     385.2889      2.739     7.97     1348.882     67.92695     227.1949        45     2.032     1.828 -32.76   0
        55    853.2871    837.1800 307.5546413  +6.5938273     970.5963     2143.008     2778.238     96.29349     192.4336     385.2506      2.605     7.51     1345.106     67.92695     130.4386        12     1.470     1.074 -35.64   0
        56    614.2844    834.8676 307.6546001  +6.5869322     957.8667     2115.565     3190.528     96.90488     193.0464     385.4039      2.703     5.97      1349.06     67.92695     138.8719        10     1.548     0.647 -27.24   2
        57    512.3750    837.9763 307.6970850  +6.5822970     757.0504     1247.804     2170.058     95.98633     192.5103     385.2889      1.565     4.27     1352.562     67.92695     131.9714         5     1.160     0.449  80.21   0
        58    698.6288    827.7954 307.6195866  +6.5926217     3190.317     3107.417     3189.824     95.98634     192.5103     385.1356      0.893     2.42     1348.157     67.92695     1089.846         6     0.839     0.358  64.72   0
        59    175.0716    821.9563 307.8385753  +6.5777822     877.4944     1966.767     3202.468      96.4467     192.7402     385.4039      3.271     6.05     1353.182     67.92695     112.0756        10     1.091     0.943 -82.78   0
        60    407.3772    811.9009 307.7418315  +6.5895950     6214.728     25609.97     35871.74      96.7524     192.4336     385.0973      3.244     8.84     1352.863     67.92695     863.0897       101     2.631     2.193 -43.91   0
        61    731.6794    810.2543 307.6063565  +6.6009433     5038.883     11386.47     15419.04      96.7524     192.7402     385.4039      2.665     8.39     1346.942     67.92695     564.7361        55     2.448     1.667  88.95   3
        62    735.3220    810.3383 307.6048314  +6.6010283     4077.863     6455.862     7834.612     96.90488     192.8168     385.3656      1.791     4.88     1346.906     67.92695     451.8922        19     1.387     0.916 -79.38   3
        63     97.5581    804.6975 307.8715432  +6.5823397     816.1091     1505.146     2615.758     96.59967      192.587     385.6337      1.928     3.48      1351.62     67.92695     130.4707         5     0.727     0.481  76.94   0
        64    528.5353    797.9773 307.6916618  +6.5993288     1174.179     2525.882      4150.07     96.14003     192.7402     385.2123      3.405    11.86     1349.476     67.92695     181.0701        21     2.439     1.606  41.70   2
        65    530.9274    795.3763 307.6907486  +6.6004805     1305.714     2995.152     4344.684     96.14003     192.5103     385.2889      2.627     8.85     1349.217     67.92695     185.5192        20     2.607     0.840  30.00   2
        66    870.8082    800.4393 307.5485365  +6.6095580      697.566     1672.242     2778.986     95.83238     192.4336     385.0589      2.690     5.08     1341.964     67.92695     91.92346         7     1.478     0.493  -2.37   0
        67    496.5601    797.8831 307.7050279  +6.5983150      773.282     1596.974     2756.407     96.59967     192.7402     385.3272      3.242     4.61      1350.05     67.92695     122.6792         5     0.855     0.707 -42.36   0
        68    891.4709    794.2081 307.5401073  +6.6128061     1308.873     3550.338     4183.729     95.98634     192.2801     385.2123      2.693     7.35     1341.391     67.92695     206.3756        25     1.923     1.431 -11.30   0
        69    838.0721    793.9216 307.5624339  +6.6111730     4343.192     13845.84      16181.9     96.90488     193.0464     385.3272      2.733     6.98      1342.58     67.92695     519.8961        64     2.130     1.830 -51.79   0
        70    924.7410    791.6532 307.5262872  +6.6149506     4370.944     12851.87     14841.27     96.59967     192.6636     385.3656      2.633     6.60     1340.778     67.92695      531.816        56     2.015     1.734 -40.56   0
        71    636.3961    792.2624 307.6467748  +6.6052343     731.6118     3138.083     4685.093     95.83238     192.4336     385.0589      3.219    11.77     1346.902     67.92695     121.7307        23     2.016     1.913  17.86   0
        72    446.3411    786.0667 307.7264083  +6.6015355     803.0068     1913.614     2921.749      96.7524     192.6636     385.3656      2.124     4.29     1350.113     67.92695     93.92737         7     1.203     0.436  32.84   0
        73    688.3043    780.0810 307.6254856  +6.6119653     11738.51     46074.34     59239.32     96.29349     193.1229     385.4805      3.022     8.35      1345.24     67.92695     1521.936       102     2.384     2.150 -47.33   0
        74    293.5825    780.3892 307.7904368  +6.5988413     2254.215     5028.041     6332.856     96.29349     192.3568     385.2123      2.511     8.80     1353.763     67.92695     275.6825        36     2.485     1.130 -56.63   3
        75    289.9877    778.5920 307.7919990  +6.5994640     1951.532     4918.188     7217.165     96.14003     192.5103     385.2506      2.648    10.00     1353.742     67.92695     232.9893        35     2.619     1.065 -65.56   3
        76    777.3714    781.9464 307.5881998  +6.6141210      712.619     1743.843     2284.079     96.29349     192.8168     385.2506      2.530     7.30     1343.412     67.92695     105.4095        10     1.860     0.803  10.82   0
        77    831.1877    781.9713 307.5657073  +6.6158768     741.1443     1468.153     1658.823     95.98634     192.5103     385.2506      2.242     4.33     1342.024     67.92695     98.56104         5     1.078     0.496 -53.34   0
