#   1 NUMBER                 Running object number                                     
#   2 X_IMAGE                Object position along x                                    [pixel]
#   3 Y_IMAGE                Object position along y                                    [pixel]
#   4 ALPHA_J2000            Right ascension of barycenter (J2000)                      [deg]
#   5 DELTA_J2000            Declination of barycenter (J2000)                          [deg]
#   6 FLUX_APER              Flux vector within fixed circular aperture(s)              [count]
#   9 FLUXERR_APER           RMS error vector for aperture flux(es)                     [count]
#  12 FLUX_RADIUS            Fraction-of-light radii                                    [pixel]
#  13 FWHM_IMAGE             FWHM assuming a gaussian core                              [pixel]
#  14 BACKGROUND             Background at centroid position                            [count]
#  15 THRESHOLD              Detection threshold above background                       [count]
#  16 FLUX_MAX               Peak flux above background                                 [count]
#  17 ISOAREA_IMAGE          Isophotal area above Analysis threshold                    [pixel**2]
#  18 A_IMAGE                Profile RMS along major axis                               [pixel]
#  19 B_IMAGE                Profile RMS along minor axis                               [pixel]
#  20 THETA_IMAGE            Position angle (CCW/x)                                     [deg]
#  21 FLAGS                  Extraction flags                                          
         1    274.3517     23.6435 307.8196590  +6.6177592     9713.825     30617.38     47703.42     92.33065     184.1493     368.2619      3.354     8.76     1208.399     64.92506     986.3448       119     3.089     2.086 -16.42   0
         2     19.6788     22.7651 307.9256649  +6.6096903     1586.631      4768.07      6761.67     92.18445     184.2957     368.3351      3.058    11.87     1214.165     64.92506     190.9447        49     2.738     1.435 -32.90   0
         3    705.9490     20.0675 307.6401711  +6.6334777     2753.227     8070.029     11962.46     92.18444      184.076     368.2619      3.206     8.94     1180.269     64.92506      262.722        75     2.699     1.923  -8.16   0
         4    117.0353     17.7666 307.8853219  +6.6149842     1529.467     4782.624      7913.14     91.89133     183.9294     368.0421      3.481    11.71     1211.266     64.92506     177.7128        50     2.500     1.829 -28.82   0
         5    387.9034     13.1618 307.7727595  +6.6258478     1283.137     3988.873     6096.141     92.33065      184.076     368.5182      3.395    10.99     1194.478     64.92506     149.6925        38     1.956     1.720 -16.44   0
         6    352.3746     13.2572 307.7875414  +6.6246347      1124.08     3124.234     4245.755     91.89133     184.2225     368.1886      3.084     9.68     1197.468     64.92506     134.4015        26     2.223     1.176 -28.88  18
         7    350.4892     10.0000 307.7884360  +6.6259199      632.082     1172.877     2171.198     91.44989     183.6358     367.9321      2.312     3.80     1197.817     64.92506     102.4894         5     1.083     0.382  -4.35   3
         8    203.8233      2.5107 307.8497227  +6.6241684     1717.034     3872.627     4790.707     92.33065     165.0681      298.644      2.600     9.09     1208.122     64.92506     220.0845        35     2.496     1.076  -7.96  24
         9    665.0498      1.5961 307.6578134  +6.6397726     1494.514     2907.454     3514.119      83.5896     150.8051     281.9153      2.216     7.31     1180.174     64.92506     221.2523        20     2.353     0.636  -6.57  24
        10    470.7694    994.2937 307.7052145  +6.2226982     1471.682      3374.11     4155.396     92.47663     184.0027     368.2985      2.545     9.30     1243.562     64.92506     202.5323        24     1.984     1.297 -17.21   0
        11    670.1588   1023.0315 307.6213376  +6.2173774     993.0081     1538.643     1806.657     88.14519     156.9415     288.9566      1.720     6.26     1241.881     64.92506     166.3625        14     1.567     0.702 -17.50  24
        12    542.4163   1019.9037 307.6745604  +6.2144652     2782.667     6517.658     8700.628     92.18444     184.0027     338.3287      2.659     7.66     1244.509     64.92506     312.2262        44     2.468     1.215 -13.04  24
        13    203.8291    996.6531 307.8161321  +6.2129090     4749.622     11975.55     16757.57       92.038     184.3689     368.2253      2.864     7.56     1243.687     64.92506     520.5645        70     2.561     1.608 -14.82   0
        14    220.5579    989.3914 307.8094213  +6.2164660     27141.09      68672.8     92072.94     91.59727     184.0027     368.0421      2.780     7.47     1243.618     64.92506     2800.335       118     2.835     1.667 -14.50   0
        15    778.3207    990.9979 307.5774367  +6.2341870     1286.063     2765.694     2971.326     91.59727     183.6358     368.0787      2.402     8.56     1240.529     64.92506     168.9222        22     1.964     1.047 -15.82   0
        16     15.9247    990.3388 307.8944760  +6.2093035     2578.891     6674.265      9108.31     92.62238     184.2225     368.3351      2.939     8.29     1240.787     64.92506     266.3624        55     2.488     1.495 -16.74  16
        17    106.9486    983.2621 307.8568676  +6.2152443     1445.442     3609.785     4813.707     92.33065     184.1493     368.3351      2.870     7.86     1243.125     64.92506      190.968        29     1.899     1.405   7.78   0
        18    627.0991    981.3944 307.6406424  +6.2331851     750.6569     1556.515     1686.641       92.038     183.7827     367.9321      1.913     4.45     1241.872     64.92506     121.3402         8     1.454     0.387  13.12   2
        19    630.8463    980.0689 307.6391287  +6.2338568     650.3887     1219.939     1458.161     92.33065     184.1493     368.3351      1.800     3.20     1241.752     64.92506     127.4984         5     0.782     0.509  34.92   2
        20   1004.3066    973.2415 307.4840575  +6.2489530     2010.203     4173.797     5169.844     92.47663     184.1493      368.445      2.299     7.74     1234.927     64.92506     261.4524        33     2.332     0.950 -19.96   0
        21    147.4116    971.7932 307.8404304  +6.2213274      2234.19      5428.41     7551.885     91.89133     184.0027     368.2253      2.813     8.84     1243.055     64.92506     230.2476        39     2.208     1.262 -13.89   0
        22    665.2497    973.2674 307.6250512  +6.2378030     631.8129     1332.426     2737.148     92.18445      184.076     368.3718      3.931     5.48     1240.892     64.92506     78.07324         7     1.023     0.828  14.54   2
        23    668.6234    970.9424 307.6237264  +6.2388758     519.5036     1303.703     1756.864     91.89133     184.2225     368.1154      2.612     5.29     1240.778     64.92506      106.991         5     1.661     0.476 -84.89   2
        24    213.6305    970.5903 307.8129364  +6.2240147     1137.061     2914.819     3695.268     91.74442     184.0027     368.1154      3.002     8.30     1243.462     64.92506     159.0452        21     1.716     1.494  61.21   2
        25     14.5235    970.3662 307.8957341  +6.2175192     767.1749     1601.093     1752.645     92.18445     184.2225     368.2985      2.460     6.07     1240.894     64.92506     108.7054        10     1.187     0.874  33.45   0
        26    936.5591    968.5159 307.5123885  +6.2486852     812.0024     1384.702     1540.907     92.33066     184.1493     368.2619      2.430     4.95      1236.67     64.92506     109.6964         7     1.054     0.657  15.30   0
        27    883.3887    969.0189 307.5344825  +6.2467316     949.5579     1941.907     2189.563     91.89133      183.856     368.2253      2.413     6.37     1237.278     64.92506     122.3192        12     1.645     0.693 -19.65   0
        28    964.5278    963.2084 307.5009356  +6.2517988     2058.817     4615.423     5620.688     91.74442     183.7092     368.2253      2.678     9.24     1235.505     64.92506     284.3444        39     2.754     1.048 -17.52   0
        29    280.6891    956.9198 307.7855135  +6.2318859     955.0973     2533.592     3470.704       92.038     184.5152      368.445      2.875     9.77     1243.459     64.92506     132.9417        19     1.973     1.349 -12.72   0
        30    598.0220    950.3576 307.6537773  +6.2450674     968.0457     2050.482     2608.566     91.89133      184.076      368.152      2.891     7.63     1240.959     64.92506     134.2466        15     2.207     0.738  -9.88   0
        31    153.8736    948.1915 307.8385406  +6.2313047     7374.314     19549.31      26763.8     91.89133     183.7092      368.152      2.862     7.57     1242.521     64.92506     728.2639        88     2.727     1.688 -13.48   0
        32    468.2845    946.5486 307.7078554  +6.2423679     1892.686     4571.015     5802.184     92.33065     184.1493      368.445      2.601     8.17     1242.269     64.92506     231.1758        38     2.312     1.308 -14.50   0
        33    827.0121    945.7693 307.5587065  +6.2544980      1498.69     3657.591     4787.331     91.74442     183.9294     368.2253      2.713     9.65     1237.318     64.92506     180.7754        32     2.429     1.070 -19.78   0
        34    747.8647    944.3638 307.5916672  +6.2524780     856.0621     1879.405     2064.302     92.18444     184.2225     368.4084      2.617     5.14     1239.236     64.92506     130.8853         8     0.981     0.762  29.05   0
        35    811.0233    943.6556 307.5654264  +6.2548471     577.1592     1356.258     1632.313     91.89133     184.2225     368.1154      2.703     3.47     1237.765     64.92506      125.123         5     0.843     0.412 -18.78   0
        36    571.0112    941.2114 307.6653171  +6.2479615     1383.679     3382.462       4473.5       92.038     184.0027     368.3351      2.747     9.06     1240.905     64.92506     161.4382        27     2.116     1.101 -30.54   2
        37    700.2957    929.3128 307.6119544  +6.2571399     2109.024     4942.535     6139.842     92.33065     184.6613     368.4084      2.586     9.74     1239.545     64.92506     237.1097        38     2.432     1.183 -19.13   0
        38      3.0763    928.6643 307.9019046  +6.2343910     5357.195     11164.34     12236.54     92.62238     172.6567     308.4644      2.173     5.72     1241.172     64.92506      597.193        43     1.695     1.558 -19.14  24
        39    609.5867    927.3001 307.6497435  +6.2549870     750.7461     1755.498     1636.247       92.038     183.9294     368.0421      2.381     6.45     1239.814     64.92506     116.5281        10     1.975     0.592 -15.28   0
        40     66.3115    919.2056 307.8759302  +6.2403980     3612.944      9273.41     12775.18     91.74442      183.856     368.0421      2.816     7.68     1240.797     64.92506     360.3773        65     2.629     1.520 -13.28   0
        41    795.2397    918.3345 307.5728399  +6.2648037     7300.944     17075.89     21999.77     92.33065     184.1493     368.4816      2.640     7.64     1236.872     64.92506     792.1881        70     2.703     1.350 -16.25   0
        42    212.9051    912.3534 307.8152040  +6.2480823     1778.558         4327      5962.31     92.18444     184.1493     368.4816      2.811    10.86     1242.679     64.92506      210.306        36     2.445     1.363 -22.64   0
        43    578.8409    909.2552 307.6631361  +6.2614394     71291.48     183080.6       250574     92.18444     184.2225     368.3718      2.880     7.42     1239.767     64.92506     7469.061       145     2.936     1.755 -16.93   3
        44    580.6161    901.8966 307.6626454  +6.2645421     33018.34     84715.76     112748.9     92.18444     184.0027      368.152      2.828     7.68     1239.571     64.92506     3214.518       142     3.501     1.829   3.77   3
        45    789.6962    906.1206 307.5755552  +6.2696743     3474.521     8016.324     10672.38       92.038     184.5152     368.4084      2.642     7.76     1236.272     64.92506     422.9669        49     2.498     1.222 -18.20   0
        46    887.8080    902.4438 307.5348771  +6.2744187     879.6652     1672.098     1739.037     91.74442     184.0027     368.0421      2.157     6.86     1233.853     64.92506     109.3905        13     1.547     0.853  -1.22   0
        47    210.1618    901.5279 307.8167103  +6.2524699     1046.918     2488.534     2982.892     92.18445     184.1493     368.4084      2.555     7.55     1242.393     64.92506     148.1459        15     1.706     0.934  -7.06   0
        48    712.9256    898.5189 307.6077366  +6.2702947     3645.205     8677.448      12523.9     92.62238     184.5152     368.4084      2.957     8.01     1237.294     64.92506     408.4075        66     2.760     1.524  -7.57   0
        49    428.4534    898.6730 307.7260314  +6.2608598     1638.947     4511.624     6048.228     92.18445     184.1493     368.2985      2.825     9.68     1241.191     64.92506     204.7485        40     2.202     1.447 -21.73   0
        50    746.3893    893.4215 307.5939914  +6.2735041     599.4677     1260.447     1851.317     91.89133     183.9294      368.152      1.654     3.40     1236.216     64.92506     93.53882         5     1.094     0.306 -68.83   0
        51    952.7626    888.0408 307.5083471  +6.2825096     3555.716     7848.292     9874.874       92.038     184.2225     368.1886      2.554     7.48     1232.121     64.92506     449.9019        44     2.421     1.097 -17.44   0
        52    712.4796    886.4142 307.6083287  +6.2752877     1358.599     3552.082     4879.432     91.89133     183.9294     368.0787      3.169    10.57     1236.406     64.92506     165.4274        35     2.662     1.169 -24.15   0
        53    361.2110    882.8256 307.7545283  +6.2651967     824.7842     1724.025     2464.836     91.89133     184.0027     368.1886      2.012     3.98     1241.624     64.92506        132.9         6     0.808     0.561 -61.97   3
        54    358.0198    883.6846 307.7558264  +6.2647360     682.3362     1511.647     2118.028     91.89133      183.856     368.2619      2.890     4.68      1241.68     64.92506     98.42041         5     0.851     0.782 -76.65   2
        55    746.2310    873.0836 307.5947403  +6.2819126     3785.113     9005.548     12085.73     92.33065     184.0027     368.1886      2.674     8.07     1234.741     64.92506     401.5319        63     2.798     1.393 -15.24   0
        56    541.8369    873.7158 307.6797203  +6.2749227     1890.167     4706.533     6990.369     92.33065     184.2225     368.2985      2.908     8.38     1239.073     64.92506     200.4703        39     2.317     1.267 -16.12   3
        57    539.0781    866.1617 307.6811218  +6.2779569     3463.529     9414.979     13136.91     92.18444     184.2957     368.3351      3.001     8.19     1238.834     64.92506     347.5205        71     2.708     1.662 -13.18   3
        58    292.0849    872.9248 307.7836084  +6.2670098     6166.279     16958.83     24485.71     92.47663     184.5882     368.4084      3.041     8.14     1241.795     64.92506     589.6216        92     2.931     1.720 -17.55   0
        59    907.4898    866.5278 307.5278962  +6.2899235     4786.088     10969.25     14460.23     92.33066     184.5152     368.3351      2.676     7.41     1232.568     64.92506     582.1353        62     2.600     1.336 -16.19   0
        60    881.1578    862.7922 307.5389725  +6.2906042     6480.306     15323.59     20227.39     91.74442     184.0027     368.0054      2.706     7.41     1232.336     64.92506     716.7007        74     2.786     1.412 -15.21   0
        61   1002.8828    862.0415 307.4883741  +6.2949099     2716.128     6337.188     7716.892     92.33065     184.2225     368.2619      2.538     7.68      1228.16     64.92506     312.4402        41     2.512     1.064 -15.44   0
        62    525.6165    861.7249 307.6868694  +6.2793487     1816.057     4924.796     7159.502     91.74442     183.9294     368.2253      3.062     8.08     1238.639     64.92506     247.8324        46     2.340     1.441  -5.40   0
        63    479.0157    858.2518 307.7063660  +6.2792493     993.7609     2580.261     3761.015     91.59727     184.2957     368.0054      3.060     9.81     1238.552     64.92506     112.7507        21     2.325     1.154 -18.22   0
        64    912.8938    850.2946 307.5261931  +6.2968166     23339.11     54191.18      70393.2     92.33065     184.8803     368.2985      2.638     7.25     1231.085     64.92506     2725.469        91     2.745     1.436 -16.17   0
        65    810.1951    844.0721 307.5691129  +6.2960174     1039.739     2754.718     3623.896     91.89133     183.7092     368.2253      2.911     9.27     1232.141     64.92506      139.135        21     2.339     1.026  -7.02   0
        66    758.9193    842.0964 307.5905041  +6.2951492     3043.694      8015.51     11019.89       92.038     184.5882     368.4084      2.840     7.86     1232.478     64.92506      322.858        66     2.672     1.564 -17.03   0
        67    228.1644    841.5343 307.8112494  +6.2778833     615.9111     1492.567     2651.415     92.18445     184.2225     368.4084      2.859     5.82     1240.559     64.92506     88.89258         7     1.205     0.790  23.72   0
        68     53.7258    839.9229 307.8838446  +6.2727787     1239.694     3129.216     4614.375     92.62238     184.5152     368.3718      3.156     8.55     1237.689     64.92506     142.3516        27     1.953     1.294  -4.81   2
        69    947.2589    836.9592 307.5123480  +6.3034614     3639.143     8319.367     10823.26     92.33065     184.2225     368.4084      2.598     7.84     1229.189     64.92506     392.4688        48     2.522     1.195 -16.27   0
        70    920.4590    829.0343 307.5237596  +6.3058603     1067.662     2268.092     3113.764     92.18444     184.2225     368.2619      2.468     8.17     1229.104     64.92506     138.4196        16     1.698     1.098   0.58   0
        71    252.4474    825.3184 307.8016984  +6.2853942     1451.738     3248.079     4640.819     92.33065     184.2225     368.3718      3.003     8.49     1239.799     64.92506     205.2203        21     1.916     1.051  51.10   3
        72    256.1715    824.5477 307.8001757  +6.2858361     1620.287     3393.552     4545.552       92.038     184.3689     368.2253      2.448     6.22     1239.799     64.92506     199.5563        18     1.431     1.146  40.17   3
        73    641.6778    824.6498 307.6398493  +6.2985094      2029.34     5213.654     7285.119     92.33065     184.2957     368.2985      3.010     8.59     1233.447     64.92506     238.9418        49     2.514     1.436 -19.67   0
        74    781.1506    825.4020 307.5818189  +6.3027865      631.882     1170.052     2024.182     91.59727     183.7827     367.8588      2.885     5.19     1231.252     64.92506     98.89221         7     1.262     0.604 -34.24   0
        75     22.3810    823.5488 307.8974331  +6.2785143     818.1068     2130.151     3030.095     91.74442     184.2957     368.0787      2.878     7.83     1237.068     64.92506     110.8451        14     1.832     0.935 -22.32   0
        76    286.4819    811.1896 307.7880213  +6.2923637     686.1852     1666.414     2487.575     91.89133      183.856      368.152      2.318     3.72     1239.172     64.92506     96.61572         5     1.043     0.380  -5.58   0
        77    889.7430    804.0400 307.5373725  +6.3151920     3341.284      8339.58     11271.41     92.33065     184.2957     368.3718      2.775     7.80     1226.806     64.92506     394.5358        57     2.552     1.408 -17.91   0
