#   1 NUMBER                 Running object number                                     
#   2 X_IMAGE                Object position along x                                    [pixel]
#   3 Y_IMAGE                Object position along y                                    [pixel]
#   4 ALPHA_J2000            Right ascension of barycenter (J2000)                      [deg]
#   5 DELTA_J2000            Declination of barycenter (J2000)                          [deg]
#   6 FLUX_APER              Flux vector within fixed circular aperture(s)              [count]
#   9 FLUXERR_APER           RMS error vector for aperture flux(es)                     [count]
#  12 FLUX_RADIUS            Fraction-of-light radii                                    [pixel]
#  13 FWHM_IMAGE             FWHM assuming a gaussian core                              [pixel]
#  14 BACKGROUND             Background at centroid position                            [count]
#  15 THRESHOLD              Detection threshold above background                       [count]
#  16 FLUX_MAX               Peak flux above background                                 [count]
#  17 ISOAREA_IMAGE          Isophotal area above Analysis threshold                    [pixel**2]
#  18 A_IMAGE                Profile RMS along major axis                               [pixel]
#  19 B_IMAGE                Profile RMS along minor axis                               [pixel]
#  20 THETA_IMAGE            Position angle (CCW/x)                                     [deg]
#  21 FLAGS                  Extraction flags                                          
         1    638.5398     29.3399 307.6729588  +6.6960714     3824.504     11058.18     15179.51     92.05785     183.6782     367.2834      3.043     7.50     1174.144     64.73323     409.6134        70     2.408     1.862 -37.23   3
         2    647.8123     25.7936 307.6692213  +6.6978431     1434.343     4109.374     5682.958     91.61982      183.459     367.1373      3.014     9.23     1174.049     64.73323     163.4471        38     1.994     1.660 -58.65   3
         3    408.3727     29.6536 307.7686929  +6.6883023     3151.014     9325.826     12328.25     91.76606     183.8241     367.1373      2.893     7.47     1185.421     64.73323     345.9182        62     2.215     1.835 -43.83   0
         4    670.4064     27.0281 307.6597808  +6.6980822     7358.776     21192.13     31758.98     91.47334      183.459     367.0277      3.184     8.43     1174.058     64.73323     715.6243       104     3.109     1.785 -37.50   0
         5     55.0538     22.9824 307.9158859  +6.6792937     1256.639     3866.101     5337.334     91.47334     183.7512     366.9546      3.007     9.70     1203.175     64.73323     165.2992        35     2.204     1.580 -53.85   0
         6    145.8171     20.3068 307.8782235  +6.6834244     2198.385     5939.802     8129.192     91.76606      183.459     367.1008      2.922     7.15     1201.786     64.73323     248.2371        48     2.104     1.640 -45.74   0
         7    879.9164     16.4750 307.5729816  +6.7093753     1038.255     2537.832     3327.479     92.20339     184.0428     367.3199      2.739     8.36     1167.052     64.73323     113.9519        18     1.746     1.118 -37.03   0
         8    788.1470      7.3080 307.6114668  +6.7101246     1276.117     3450.792     4054.472     91.91207     183.5321     361.1348      2.595    10.08     1169.406     64.73323     161.6277        32     1.842     1.536 -51.59  16
         9    613.6148      3.0008 307.6842170  +6.7061208     5265.629     12179.53     14053.96     91.61982     171.0526     306.1546      2.356     6.87     1173.408     64.73323     560.5828        49     2.165     1.373 -14.95  24
        10    193.3312   1007.5875 307.8249963  +6.2773453     520.3073     954.2397     1240.861     91.47335     183.5321     367.1008      2.290     5.58     1234.619     64.73323     105.6831         6     1.219     0.721 -35.79   0
        11    945.7422   1004.3608 307.5123614  +6.3036192     5505.536     9988.388      10590.7     92.05785     183.7512     367.2834      1.957     4.39      1230.64     64.73323     754.3833        39     1.725     1.188 -43.11   0
        12    919.4143    996.0633 307.5235842  +6.3061760       1660.1     3106.273      2731.82     91.47334     183.5321     367.0642      1.975     5.67      1230.22     64.73323     178.1836        19     1.529     0.852 -40.17   0
        13    640.2446    992.2889 307.6397539  +6.2984996     3245.347     6490.823      7934.27     92.05785     183.5321     367.2834      2.237     5.33     1231.567     64.73323     336.2336        35     1.848     1.162 -43.54   0
        14    252.5221    992.4824 307.8009058  +6.2855514     2744.076     5899.433     6325.821     92.20339       183.97     367.3929      2.339     6.03     1234.904     64.73323     305.0327        36     1.876     1.292 -42.74   0
        15    779.0836    992.4654 307.5820371  +6.3030228     845.8458     1550.518     1659.317     92.20339       183.97     367.3199      1.851     5.41     1230.976     64.73323     117.9767         9     1.352     0.611 -71.17   0
        16     21.0595    990.0137 307.8971933  +6.2788651      1254.84     2854.812     3035.349     91.32664     183.6052     366.9181      2.254     7.85      1231.76     64.73323     177.3921        24     1.950     1.105 -46.62   0
        17    871.5049    988.9770 307.5437373  +6.3075192     672.4222     827.8917     866.2546     92.05785      183.459     367.1008      1.564     4.69      1229.86     64.73323     105.5977         8     1.047     0.597 -43.53   0
        18    565.5395    984.4652 307.6710701  +6.2992547      1104.29     2145.531     2436.228     92.05785     183.6052     367.2834      2.172     7.18     1232.732     64.73323      141.693        14     1.252     1.154  54.02   0
        19    996.3181    984.6281 307.4920013  +6.3134375      691.958     1504.152     2219.563     91.91207      183.459     367.1738      2.288     5.51      1228.45     64.73323     83.64526         6     0.954     0.899 -65.19   0
        20    604.1618    980.4343 307.6551522  +6.3021993      907.713      1822.96     2449.105     91.76606      183.459     366.9912      2.247     6.35     1231.583     64.73323     101.5277        10     1.367     0.829 -65.02   0
        21    284.4632    978.4013 307.7881062  +6.2924277     908.8959     1893.949     1817.134     91.32664      183.459     366.9912      2.155     6.72     1235.052     64.73323     112.4636        11     1.395     0.908  -7.30   0
        22    888.4555    971.2496 307.5372877  +6.3153996     5463.533      10013.4     11317.22     92.05785     183.6782     367.2834      2.022     5.07     1228.938     64.73323      656.469        42     2.038     1.118 -35.03   0
        23    424.3555    968.7269 307.7302864  +6.3010698      1347.92     2750.758     2526.303     91.91207     183.7512     367.2834      2.083     6.50     1233.719     64.73323     158.0238        21     1.342     1.320  85.72   0
        24    326.1334    967.3306 307.7711605  +6.2983840     5548.086     12313.28     13787.66     92.05785     183.7512     367.2469      2.333     5.30     1234.781     64.73323     576.7505        54     2.110     1.399 -40.07   0
        25    246.3739    966.2180 307.8043503  +6.2961920     4190.999     9403.021     10854.17     91.61982      183.459     367.1373      2.402     5.48     1234.742     64.73323     484.1324        50     1.978     1.474 -41.38   0
        26    574.5104    960.4490 307.6681516  +6.3094690     927.6075     1616.245     1844.101     92.05785      183.459     367.4294      2.095     5.83     1231.828     64.73323     135.0167        10     1.199     0.798 -88.58   0
        27    903.6122    956.7330 307.5314756  +6.3218949      786.856     1374.331      1374.63     91.47335      183.459     367.1373      2.297     5.37     1227.999     64.73323     119.3009         8     1.364     0.597 -59.81   0
        28    861.2159    955.2941 307.5491476  +6.3210880     690.4601     1016.046     1136.589     91.76606      183.459     367.0642      1.618     4.97     1228.545     64.73323     109.7869         6     0.922     0.758  68.62   0
        29    740.4057    949.9303 307.5995472  +6.3193072     1131.223     1997.512     2301.241     91.47334     183.2396     367.0642      1.913     5.49     1229.951     64.73323     166.5227        14     1.295     1.107 -46.66   0
        30    972.1238    945.1729 307.5033845  +6.3289313     875.5629      1763.71     2579.543     91.91207     183.6052     367.2103      1.889     4.56     1225.418     64.73323      146.894         8     1.657     0.356 -23.67   0
        31    659.1499    942.5700 307.6335719  +6.3196563     1665.126     3363.883     3916.998     91.61982     183.8241     367.1373      2.173     6.17     1230.056     64.73323     198.8097        23     1.804     0.880 -36.93   0
        32   1010.6601    941.5085 307.4874883  +6.3317166     718.9434     1065.819     923.9182     91.91207     183.6782     367.3199      1.660     4.31     1223.845     64.73323     98.83679         6     1.165     0.837 -29.50   0
        33     55.8226    939.6146 307.8844541  +6.3008339     1877.295     4278.878     5134.938     91.76606      183.459     367.1373      2.394     6.06     1230.985     64.73323     242.5073        32     1.690     1.336 -51.24   0
        34    199.6304    938.5264 307.8247171  +6.3060715     1244.253     2843.245     2588.192     91.91207     183.6782     367.2469      2.233     8.76     1234.593     64.73323     161.3054        24     1.531     1.401 -76.42   0
        35    653.7502    932.1038 307.6361694  +6.3237993     4374.417     9437.024     11555.45     91.91207     183.6052     367.4294      2.325     5.51     1229.839     64.73323     511.5168        46     2.002     1.332 -42.91   0
        36     14.3924    931.2502 307.9019581  +6.3029070     678.0508     1521.889     1897.631     91.47335      183.459      366.845      2.299     6.23     1230.581     64.73323     100.1016        10     1.264     0.864  76.65   0
        37    891.3326    928.1514 307.5375415  +6.3332915     2013.267     3707.329     3642.045     91.91207     183.6052     367.2834      2.031     4.98      1226.71     64.73323     275.3958        22     1.601     0.926 -42.56   0
        38    336.8911    925.4252 307.7681063  +6.3160452     9419.637     21300.12     25552.59     92.20339     183.3859     367.0642      2.430     5.44     1233.893     64.73323     1003.413        69     2.147     1.572 -36.59   0
        39     73.4686    938.4791 307.8771581  +6.3018907     1229.953     2888.556     3502.261     92.20339     183.8971     367.2103      2.535     8.75     1230.992     64.73323      139.759        23     1.900     1.126 -34.03   0
        40     70.3679    927.3159 307.8788255  +6.3063968     643.4948     1490.829     1828.873     92.05785      183.459     367.1373      2.309     4.64     1230.524     64.73323     96.31433         5     1.063     0.574 -48.54   2
        41    100.7374    916.3979 307.8665725  +6.3119166     942.4941     2060.198     1903.717     91.32664      183.459     366.9546      2.245     6.84     1230.626     64.73323     113.3182        13     1.353     0.971 -35.15   0
        42    881.3909    909.9017 307.5422882  +6.3404990     1480.993     2584.867     2351.005     91.76606     183.2396     367.0277      1.857     4.89     1225.957     64.73323     242.8196        15     1.427     0.770 -41.50   0
        43    852.7319    909.3525 307.5542203  +6.3397785     1379.491     2895.424     2943.878     92.05785     183.6052     367.2469      2.276     7.92     1226.435     64.73323     166.5764        23     1.913     1.047 -41.47   0
        44    815.8598    908.9029 307.5695632  +6.3387450     2068.429     4179.021     4466.887     91.76606     183.6782     367.3564      2.129     5.43     1226.696     64.73323     251.5941        28     1.684     1.148 -38.09   0
        45     83.9504    909.7332 307.8737761  +6.3141095     1359.411      3184.51         3469     91.91207     183.5321     367.2469      2.399     6.99     1230.342     64.73323     181.7406        24     1.594     1.267 -49.47   0
        46    551.8343    900.5196 307.6796002  +6.3334639     195380.1     438568.2     515468.1     91.91207     183.7512     367.2834      2.402     5.52     1230.261     64.73323     20314.75       183     2.355     1.722 -41.52   0
        47    396.2408    903.2773 307.7441851  +6.3271621     4146.003     9819.563     11299.35     91.91207     183.6782     367.3199      2.456     6.10     1232.674     64.73323     467.4686        52     2.110     1.466 -37.70   0
        48    339.3881    901.5327 307.7678765  +6.3259939     6854.753     16322.37     19728.87     91.47335     183.5321     367.1373      2.534     6.07     1233.398     64.73323     643.7509        66     2.176     1.587 -41.65   0
        49    639.9656    902.9261 307.6428834  +6.3353911     722.0001     1462.771     544.9474     91.91207     183.6052     367.2103      1.671     5.77     1228.963     64.73323     83.97217         7     1.287     0.728  81.75   0
        50    657.7128    897.7464 307.6356807  +6.3381178     2050.194     4565.456     5157.775     92.05785     183.5321     367.4294      2.497     5.72      1228.07     64.73323     254.7137        28     1.735     1.128 -25.68   0
        51    889.7520    896.5423 307.5392619  +6.3462919       3838.6     7641.718     9033.763     92.05785     183.6782     367.3929      2.225     4.87     1224.959     64.73323     461.2006        41     1.854     1.295 -23.56   0
        52    632.7283    891.7595 307.6462686  +6.3397624     2030.919     4629.801     5287.037     91.91207     183.6782     367.3199      2.267     6.52     1228.757     64.73323      240.968        33     1.945     1.216 -43.04   0
        53    820.9072    891.1259 307.5680635  +6.3462527      1130.81     2625.201     2559.434     92.05785     183.8241     367.2103      2.150     6.75     1225.666     64.73323     200.5017        19     1.812     0.941 -45.30   0
        54   1022.9236    890.5953 307.4841009  +6.3531454     3343.625     5004.797      5311.25     88.94638     158.0976     289.8661      1.631     4.39     1220.221     64.73323     492.2495        20     1.476     0.847 -62.31  24
        55    624.5848    887.3707 307.6498018  +6.3413048     1385.131     3442.401     5240.241     91.61982     183.3859     367.1738      3.012     9.47     1228.884     64.73323     168.0522        28     2.171     1.153 -49.71   0
        56    947.5234    889.7383 307.5154745  +6.3510101     685.1407     1280.617     1172.964     92.34871     183.6782     367.2469      2.223     5.72     1222.758     64.73323     94.78003         7     1.593     0.578 -35.12   0
        57    908.8608    884.3561 307.5317281  +6.3519554     2343.499     4498.767      5112.93     91.91207     183.6782     367.3929      2.101     4.93     1223.649     64.73323     308.9316        28     1.684     1.052 -38.39   0
        58    367.3506    880.5063 307.7569641  +6.3356052     1549.166     3523.604     4934.452     91.91207     183.5321     367.3929      2.842     6.60     1232.537     64.73323     186.9778        26     1.633     1.254 -29.28   0
        59    503.2581    870.4045 307.7008098  +6.3442882      1716.09     4349.065      5064.08     91.32664     183.5321     366.9912      2.560     7.99     1230.122     64.73323      207.646        35     2.063     1.309 -26.04   0
        60    847.3660    869.4573 307.5577936  +6.3560753     703.2976      1387.85     1311.883     91.91207     183.6782     367.2469      2.351     5.90     1224.254     64.73323     103.7345         8     1.269     0.771 -53.05   0
        61    550.4515    866.4243 307.6813259  +6.3474970     3563.349     8125.155     10838.29     91.61982     183.6782     367.1373      2.840     6.01     1229.269     64.73323     369.9225        51     2.094     1.503 -35.82   0
        62    886.0306    863.4966 307.5419207  +6.3598147     829.3613     1818.151     2136.238     92.20339     183.3859     367.3199      2.156     3.54      1223.14     64.73323     119.7633         5     0.815     0.444 -19.77   3
        63    108.7330    865.2906 307.8649817  +6.3332859     590.3758     1365.706       2143.2     92.20339     183.8241     367.2834      3.355     5.26     1229.961     64.73323     99.92639         6     1.083     0.722  -4.27   0
        64    885.3990    866.3148 307.5420884  +6.3586301     759.2465     1513.565     2207.073      91.1797     183.1664     366.8815      2.403     4.05     1223.335     64.73323     121.7312         6     0.942     0.584 -22.28   2
        65    520.9304    860.2305 307.6938070  +6.3490755     11089.44     25913.33     30819.01     91.91207     183.6782     367.1738      2.472     5.70      1229.22     64.73323     1155.765        75     2.246     1.585 -40.84   0
        66    934.3895    858.2501 307.5219934  +6.3635790     2734.028     5394.948     6195.229     91.32664     183.5321     366.8815      2.092     5.79     1221.517     64.73323      323.907        35     1.928     1.196 -33.31   0
        67    313.7020    849.2371 307.7803231  +6.3467343     1720.633      4070.95     4478.499     92.05785     183.5321     367.4659      2.435     6.52      1232.46     64.73323     203.7229        32     1.761     1.409 -30.95   0
        68     32.3336    850.6130 307.8972367  +6.3368010      786.735     1418.574     1097.789     91.47335      183.459     367.1373      1.764     3.79     1228.929     64.73323     119.9365         5     0.952     0.433 -15.22   0
        69    778.9872    844.6632 307.5870548  +6.3640523     33913.53     73045.95      84774.3     91.47334      183.459     366.9912      2.308     5.32     1223.365     64.73323     3871.927       102     2.242     1.539 -39.81   0
        70     13.8189    847.1435 307.9050505  +6.3376165     1164.656     2860.933     3969.306     91.47334     183.6052     367.0277      2.752     8.43     1228.552     64.73323     144.6543        18     1.570     1.265 -69.47   0
        71    236.5253    842.7379 307.8126248  +6.3468518      2755.31     6999.462     10228.23     92.34871     183.6782     367.2469      3.203     7.12     1232.467     64.73323     280.3334        52     2.150     1.695 -28.95   2
        72    904.2726    839.8723 307.5351319  +6.3701729     5733.273     11288.38     12390.33     92.34871     183.8241     367.2834      2.111     5.06     1221.569     64.73323     642.5591        46     1.976     1.216 -40.03   0
        73    707.3656    839.0716 307.6170177  +6.3639909      12649.8     28568.71     34450.25     91.91207     183.6052     367.2469      2.432     5.82     1223.816     64.73323     1301.094        66     2.260     1.436 -39.36   3
        74    700.9838    835.8230 307.6197802  +6.3651210     50897.88     115263.1     137270.8     91.76606      183.459     367.1373      2.435     5.64     1223.668     64.73323     5405.877       111     2.327     1.613 -40.07   3
        75    346.0226    836.8760 307.7673057  +6.3529126     10820.21     26605.61     32604.86     91.61982      183.459     367.1373      2.575     5.98     1230.991     64.73323     1094.205        81     2.244     1.711 -42.51   0
        76    407.8513    834.7100 307.7416766  +6.3558608     11181.22     27769.65     33432.57     92.05785      183.459     367.3929      2.557     6.07     1229.968     64.73323     1078.922        72     2.196     1.652 -42.05   0
        77    395.2661    836.3213 307.7468539  +6.3547775     807.7075     1785.786     2580.977     92.20339     183.8241     367.2103      2.524     5.04     1230.173     64.73323     89.35449         9     1.249     0.576 -40.55   0
