#   1 NUMBER                 Running object number                                     
#   2 X_IMAGE                Object position along x                                    [pixel]
#   3 Y_IMAGE                Object position along y                                    [pixel]
#   4 ALPHA_J2000            Right ascension of barycenter (J2000)                      [deg]
#   5 DELTA_J2000            Declination of barycenter (J2000)                          [deg]
#   6 FLUX_APER              Flux vector within fixed circular aperture(s)              [count]
#   9 FLUXERR_APER           RMS error vector for aperture flux(es)                     [count]
#  12 FLUX_RADIUS            Fraction-of-light radii                                    [pixel]
#  13 FWHM_IMAGE             FWHM assuming a gaussian core                              [pixel]
#  14 BACKGROUND             Background at centroid position                            [count]
#  15 THRESHOLD              Detection threshold above background                       [count]
#  16 FLUX_MAX               Peak flux above background                                 [count]
#  17 ISOAREA_IMAGE          Isophotal area above Analysis threshold                    [pixel**2]
#  18 A_IMAGE                Profile RMS along major axis                               [pixel]
#  19 B_IMAGE                Profile RMS along minor axis                               [pixel]
#  20 THETA_IMAGE            Position angle (CCW/x)                                     [deg]
#  21 FLAGS                  Extraction flags                                          
         1    176.8207     24.4464 307.8649217  +6.6680430     10382.63     16564.33     16841.16     77.78447     155.9413     311.6345      1.706     4.12     825.8137     54.95797     1337.929        38     1.598     1.009  53.60   0
         2    521.1292     22.5837 307.7219266  +6.6803761     2873.735      4646.72     4678.164     77.66011     155.8793     311.6655      1.701     4.25     811.3983     54.95797     395.7365        26     1.571     0.903  52.56   0
         3    987.2423     18.5415 307.5283842  +6.6976343     2050.303      3497.71     4103.558     78.03259     155.9413     311.8515      1.881     4.75     805.1057     54.95797     281.8722        21     1.684     0.834  56.35   0
         4    706.6021     14.9860 307.6451165  +6.6897252     7341.698     11335.61     12103.95     77.78446      155.631     311.6035      1.644     4.54     811.2343     54.95797     1071.652        33     1.614     0.893  56.82   0
         5    626.8624     14.1464 307.6782778  +6.6874025     3561.089     5690.276     5704.397     78.15634     155.8793     311.7585      1.690     4.30     811.5208     54.95797     558.7347        25     1.503     0.879  55.38   0
         6    328.8284     13.4578 307.8021358  +6.6776903     908.3272     1462.206     1510.693     77.78447     156.0032     311.6965      1.700     3.68     823.4524     54.95797     140.5056         9     1.021     0.689  46.36   0
         7    382.2674     12.1704 307.7799755  +6.6800165     759.2202     1092.328     1030.664     77.90862     155.9413     311.7585      1.706     4.48     819.5855     54.95797     111.7769         9     1.026     0.633  57.49   0
         8     27.9632     10.0033 307.9272578  +6.6689937     8090.651     13124.21     13941.27     77.28584     155.8172     311.5724      1.686     4.17     826.6268     54.95797     1047.432        36     1.635     0.988  54.90  16
         9    426.9895     10.3914 307.7614534  +6.6822522     6015.794     9534.882     9967.097     77.66011     155.7552     311.7275      1.690     4.16     815.6765     54.95797     747.7294        30     1.595     0.925  52.04  16
        10    673.5629      9.1254 307.6590422  +6.6910392     799.6035     1043.804     827.2438     78.03259     156.0032     311.7895      1.502     4.69     811.4869     54.95797     117.8535         9     1.102     0.604  56.57   0
        11    502.3364      7.4924 307.7302441  +6.6859767     813.4612     1449.916     1917.161     78.15635     156.1271     307.7018      2.058     6.20     810.6598     54.95797     137.9288        13     1.629     0.664  47.64  16
        12    323.5476      5.3093 307.8046053  +6.6808771     12811.72     20313.31     21752.94     78.03259     155.7552     288.9431      1.733     4.12     823.7158     54.95797     1631.789        42     1.620     1.054  54.61  24
        13     97.2057      5.6847 307.8986354  +6.6731091      2532.06     4126.181       4521.8     77.66011      155.631     292.4012      1.710     4.40     825.8148     54.95797     301.1429        23     1.587     0.865  53.90  16
        14    418.6346      5.7201 307.7650826  +6.6839004     701.0195     1133.883     1433.521     78.03259     156.0032     293.0945      1.579     5.70     816.4131     54.95797      98.0036        11     1.434     0.638  49.88  16
        15     88.3517      4.3846 307.9023581  +6.6733477     1511.016     2508.067     2837.878     77.53555     155.6931     278.0678      1.749     4.78     825.7927     54.95797     203.8408        15     1.347     0.726  61.75  16
        16    389.6850      3.3217 307.7771923  +6.6839189     2342.693     3556.097     3405.879     78.15635     148.9026     264.6031      1.630     4.43     818.9042     54.95797     314.7004        22     1.535     0.860  52.84  24
        17    791.6716      3.4114 307.6101577  +6.6973495     749.0214     1181.004     1107.013     77.66011     149.2268     265.7694      1.750     3.90     809.3107     54.95797     100.2842         6     0.841     0.533  41.86  16
        18    457.8186      2.8447 307.7488985  +6.6864025     541.3143     835.7683     603.2881     77.78446     143.7506     257.6445      1.498     3.70     812.5806     54.95797      92.6264         5     0.972     0.404  44.37  16
        19    651.2964      1.2662 307.6685590  +6.6935387     2006.077     2402.185     2435.859     66.96759     122.8701     233.6018      0.987     2.26     811.2612     54.95797     555.7238        10     1.072     0.441  -1.72  24
        20   1004.6842    995.0947 307.4883863  +6.2950022     4125.945     7457.403     8145.834     78.03259     156.3127     311.9135      1.943     4.57     837.1238     54.95797      488.307        38     1.767     1.202  45.23   0
        21    954.6741   1020.8029 307.5082888  +6.2827196     5841.789     10441.39     11104.23     77.66011     154.5717     275.9394      1.902     4.53      841.606     54.95797     705.0303        41     1.731     1.144  52.28  24
        22    595.8458    995.9791 307.6581045  +6.2809788     1283.659     2200.013     2163.281     77.78446     155.9413     311.6345      1.787     5.55     846.4411     54.95797     177.5768        15     1.383     0.758  52.39   0
        23    526.9244    994.5106 307.6867689  +6.2792772     3798.385     6618.019     7363.229     78.15634     156.2508     311.8825      1.909     4.56     848.5807     54.95797     467.6336        26     1.595     0.959  54.51   2
        24    636.5405    994.0601 307.6412731  +6.2831331      1486.85     2279.703     2688.808     78.15634     155.9413     311.8205      1.773     3.58     845.8916     54.95797     208.8516        15     1.233     0.776  55.71   0
        25     61.6774    993.1354 307.8799712  +6.2642252     893.0442     1394.118     1554.256     78.40328     155.9413     311.7895      1.545     4.60     845.5277     54.95797     136.5313        10     1.057     0.700  36.88   0
        26    480.2831    990.9394 307.7062539  +6.2791890     1871.182     3051.337     3009.396     78.27991     156.0032     311.8205      1.758     4.93     848.4311     54.95797     237.0994        21     1.518     0.996  53.52   0
        27    914.6813    983.1451 307.5261565  +6.2969341     38327.52     67355.88     72586.37     78.15635     155.9413     311.8205      1.875     4.53     842.0884     54.95797     4654.499        76     1.869     1.241  53.79   0
        28    319.5559    984.3043 307.7732078  +6.2765379     501.1214     978.8583     710.1336     78.15635     155.8793     311.9135      1.678     3.48     847.9088     54.95797     85.51392         5     1.045     0.335  68.25   0
        29    221.9137    981.3108 307.8138471  +6.2744949     1615.084     2546.378     1977.603     77.90862     156.3745     311.9135      1.661     4.91     847.1502     54.95797     213.1591        21     1.601     0.873  55.95   0
        30    620.5582    979.2357 307.6484074  +6.2887191     912.7728     1140.463     685.2551     77.90862     155.9413     311.6345      1.506     5.25     845.7702     54.95797     143.3245        11     1.311     0.627  43.77   0
        31    109.4513    980.0365 307.8605805  +6.2712406     509.2916      805.446     1136.159     78.03259     155.9413     311.7585      1.501     4.76     845.6219     54.95797     71.34784         7     1.011     0.635  32.66   0
        32    812.7144    976.8132 307.5687060  +6.2961441      2103.13     3361.681     3478.229     77.78446     155.8172     311.6655      1.676     4.82     843.2922     54.95797     267.7155        18     1.377     0.831  49.28   0
        33    760.7205    974.8268 307.5903607  +6.2952271     6008.596     10298.86     11574.84     78.03259     155.8172     311.7895      1.854     4.55     843.6815     54.95797     750.7531        39     1.638     1.216  57.30   0
        34    547.4943    974.0162 307.6789186  +6.2884280     923.5577       1362.5     1314.138     77.90862     155.7552     311.6345      1.668     5.62     847.6645     54.95797     153.7421        12     1.319     0.675  48.06   0
        35    230.1534    973.8943 307.8106767  +6.2778338     1299.031     2089.332      1405.24     78.03259     155.8793     311.9135      1.728     6.21     847.0689     54.95797     202.0967        15     1.504     0.721  56.77   0
        36    194.4844    973.2009 307.8255088  +6.2769216     690.6128     1168.701     822.2211      77.4108     155.5068     311.5104      1.577     4.57     846.7084     54.95797     108.3926         8     1.285     0.461  46.55   0
        37     55.0930    971.8039 307.8834262  +6.2728108     2528.442      4325.72     4636.053     77.78446      155.631     311.5104      1.772     4.35     845.0502     54.95797     354.6205        26     1.576     0.981  54.86   0
        38    949.0135    969.9186 307.5123451  +6.3035408     5858.781     10512.29     10680.31     77.78446     155.6931     311.6035      1.891     4.70     840.2003     54.95797     700.6178        37     1.747     1.078  55.40   0
        39    630.9103    964.3311 307.6446106  +6.2952195     751.5311     1175.475     1586.911     78.27991     156.1271     311.7895      1.899     5.97     845.5287     54.95797     123.6289        12     1.465     0.781  57.75   0
        40    922.8372    961.6518 307.5234910  +6.3060808     808.9371     2039.584     2576.125     78.03259     155.9413     311.7895      2.505     4.84     840.9737     54.95797     232.8202        23     1.776     0.871  40.58   0
        41    992.5424    956.1710 307.4947322  +6.3106689     553.0748     1067.985     1392.817     77.78447     156.0032     311.6965      2.611     4.99     837.8497     54.95797     81.09631         6     1.016     0.695  68.49   2
        42    255.7278    957.6242 307.8006082  +6.2854105     4059.832      6929.57     7792.969     77.78447     155.8172     311.7585      1.880     4.64     847.0347     54.95797     554.0265        33     1.715     1.003  53.55   0
        43    782.6702    957.8624 307.5818169  +6.3029651     1228.909     2127.044     2336.021     78.15635     155.9413     311.8515      1.762     6.04     843.4637     54.95797     159.4575        16     1.691     0.651  36.67   0
        44    643.5283    957.3584 307.6396062  +6.2985206     4242.695     6911.693      6550.17     78.03259     155.9413     311.8515      1.712     4.35     845.2396     54.95797     574.0714        28     1.594     0.922  50.58   0
        45    465.5226    955.8555 307.7135641  +6.2931799     1086.022     1586.948     1715.338     78.15635     155.9413     311.7895      1.683     5.57     847.2749     54.95797     133.7081        14     1.346     0.761  66.38   0
        46     24.3211    954.9096 307.8967731  +6.2787503     2032.457      3292.71     3564.673     77.90862      156.189     311.8515      1.777     4.42     844.3066     54.95797     279.2549        20     1.470     0.852  55.64   0
        47    875.4492    954.3565 307.5434119  +6.3075113     882.3369     1155.251     1104.515     78.15635     155.8793     311.7585      1.573     5.68     842.1952     54.95797     141.8524        11     1.459     0.720  78.14   0
        48    946.8173    951.1228 307.5138872  +6.3112282     636.6786     1178.704     1400.786     77.66011     155.6931     311.6965      2.288     5.61     839.5438     54.95797     105.1755         7     1.175     0.755  40.09   0
        49    568.3798    950.1620 307.6710500  +6.2989765     1544.358     2626.596     2898.263     77.78446     155.6931     311.5104      1.760     5.31     846.3925     54.95797     215.0664        21     1.651     0.841  45.15   0
        50    291.4340    950.7401 307.7860160  +6.2894518     819.2638     1355.317     1799.814     78.03259     156.0032     311.7275      1.679     4.99     847.3444     54.95797     112.2216         9     1.121     0.628  46.22   0
        51    999.4151    949.2079 307.4921119  +6.3137731     716.8475     1406.559     1239.528     77.78447     155.6931     311.6345      1.842     5.38      837.611     54.95797     100.0942         8     1.218     0.781  34.16   0
        52    607.4335    946.3883 307.6549618  +6.3018421     1160.671      1999.34     2450.989     77.66011     155.6931     311.6345      1.913     4.29     845.7911     54.95797     175.4171        12     1.204     0.749  50.96   0
        53     56.8987    946.7751 307.8835232  +6.2832053     851.3901     1536.831     1724.965     78.27991     155.6931     311.6345      2.136     4.87     844.5128     54.95797     128.7555        10     1.154     0.722  33.46   0
        54    287.2423    943.9450 307.7879857  +6.2921166      1264.34     2497.218     3407.168     78.03259     155.9413     311.8205      2.233     5.84     847.1956     54.95797     164.1458        16     1.607     0.839  54.01   0
        55    554.7262    941.9552 307.6769952  +6.3019078     616.9719     930.8031     1227.596     78.03259     156.0032     311.8205      1.730     4.95     846.3082     54.95797     100.3369         8     1.580     0.439  43.87   0
        56    754.1728    940.0269 307.5942485  +6.3093769     763.7897     1506.134     1678.624     77.66011     155.7552     311.6345      2.026     6.52     843.5188     54.95797     102.6642        14     1.744     0.684  57.71   0
        57    891.7052    936.7681 307.5372522  +6.3153162     6488.536     10917.22     11624.15     78.27991     155.7552     311.8515      1.816     4.48     841.2188     54.95797     788.4877        37     1.671     1.063  53.44   0
        58    101.5823    936.4236 307.8653220  +6.2889825     366.9739     660.8914     522.8693     77.78447     155.7552     311.6655      1.515     5.34     845.0145     54.95797     88.77924         7     1.966     0.410  49.25   0
        59    427.6519    933.9957 307.7300245  +6.3009359     1981.071      3210.84     3385.288     77.53555     155.7552     311.4173      1.800     5.49     846.7034     54.95797     267.9586        18     1.479     0.794  60.76   0
        60    329.2231    932.2697 307.7709497  +6.2983465     8912.502     14646.76     15859.27     77.78447     155.8172     311.7585      1.770     4.46     847.0193     54.95797     1230.549        40     1.677     1.026  54.50   0
        61    249.2733    931.1713 307.8041811  +6.2961155     6612.265     10859.67     11270.24     78.03259     155.9413     311.7585      1.751     4.64     846.3687     54.95797     848.0148        35     1.658     0.990  55.57   0
        62    577.3685    925.8209 307.6681371  +6.3093277     958.7592     1613.859     1591.919     77.66011     155.7552     311.6655      1.785     5.10     845.7453     54.95797      169.375        13     1.462     0.661  43.66   0
        63    762.1920    924.8243 307.5914295  +6.3159219     613.3704     1247.895     1358.047     77.78446     155.7552     311.6345      2.258     5.38     843.3385     54.95797     98.08765         8     1.421     0.575  54.48   0
        64    907.7046    922.0942 307.5311012  +6.3219090     942.0266     1781.568     2077.383     78.15635     156.5598     311.7275      1.950     6.77     840.0229     54.95797     117.3382        16     1.579     0.814  57.65   0
        65    864.1570    921.1350 307.5492154  +6.3208513      705.782     1158.606     1242.992     78.15634     155.8793     311.7895      1.699     4.69     842.2469     54.95797     119.5242         6     1.071     0.583  69.92   0
        66    405.7193    919.7103 307.7396124  +6.3060986     602.5222     869.2969       406.11     77.90862     156.1271     311.8825      1.475     4.94     846.5426     54.95797     88.57697         6     0.900     0.767 -17.18   0
        67    974.8476    917.9075 307.5033621  +6.3258777     670.1577      968.077     1168.311     78.03259     155.8793     311.9135      1.436     4.94     837.6531     54.95797     117.2847         8     1.473     0.469  57.32   0
        68    743.7227    914.8433 307.5994336  +6.3194257     1594.465     2591.301     3439.284     78.03259     155.9413     311.8205      1.741     5.32     843.3212     54.95797     232.3095        19     1.613     0.801  56.49   0
        69    836.5146    915.2399 307.5608910  +6.3223623     599.7699     665.7714     453.0105     78.15635     155.8793     311.7585      1.484     3.43     842.3604     54.95797     102.7372         5     1.084     0.314  67.97   0
        70    567.6168    915.2130 307.6725431  +6.3133811     741.0654     1080.897     530.3353     77.90862      155.631     311.7275      1.405     4.16     845.6157     54.95797     121.8983         8     1.046     0.595  29.57   0
        71    975.1766    910.2930 307.5034807  +6.3290327     1350.669     2369.384     2957.324     78.15635     155.7552     311.6345      2.004     5.20     837.3215     54.95797     159.1799        19     1.498     0.850  49.19   0
        72    619.3581    911.1868 307.6511950  +6.3167756     572.6843     692.2705     408.8807     77.53555     155.7552     311.5414      1.340     4.96     844.9041     54.95797     88.03125         7     1.242     0.560  51.50   0
        73    607.9141    911.4780 307.6559369  +6.3162723      814.336     1298.294     1123.443     78.15634     156.2508     311.8825      1.779     4.93     845.1509     54.95797     144.7973         9     1.278     0.538  47.85   0
        74    528.6722    910.3361 307.6888775  +6.3140903     966.8971     1828.519     1849.073     78.15635     155.9413     311.8205      1.992     5.64     845.8872     54.95797     123.0383        14     1.420     0.819  55.18   0
        75    662.4443    908.2723 307.6334029  +6.3194207     2519.141     4350.635     5128.371     78.03259     156.0032     311.8205      1.912     6.62     843.8275     54.95797      436.355        23     1.649     0.798  54.20   0
        76     59.0089    904.4391 307.8840793  +6.3007556     2776.139     4771.171     5070.263     77.53555     155.7552     311.5104      1.854     4.83     843.8358     54.95797     355.6278        28     1.701     0.992  63.48   0
        77    823.2337    904.3083 307.5667726  +6.3264324     769.8542     1067.877     1054.966     78.27991     155.8172     311.8205      1.458     4.50     842.1666     54.95797     141.2047         8     1.178     0.489  44.29   0
