#   1 NUMBER                 Running object number                                     
#   2 X_IMAGE                Object position along x                                    [pixel]
#   3 Y_IMAGE                Object position along y                                    [pixel]
#   4 ALPHA_J2000            Right ascension of barycenter (J2000)                      [deg]
#   5 DELTA_J2000            Declination of barycenter (J2000)                          [deg]
#   6 FLUX_APER              Flux vector within fixed circular aperture(s)              [count]
#   9 FLUXERR_APER           RMS error vector for aperture flux(es)                     [count]
#  12 FLUX_RADIUS            Fraction-of-light radii                                    [pixel]
#  13 FWHM_IMAGE             FWHM assuming a gaussian core                              [pixel]
#  14 BACKGROUND             Background at centroid position                            [count]
#  15 THRESHOLD              Detection threshold above background                       [count]
#  16 FLUX_MAX               Peak flux above background                                 [count]
#  17 ISOAREA_IMAGE          Isophotal area above Analysis threshold                    [pixel**2]
#  18 A_IMAGE                Profile RMS along major axis                               [pixel]
#  19 B_IMAGE                Profile RMS along minor axis                               [pixel]
#  20 THETA_IMAGE            Position angle (CCW/x)                                     [deg]
#  21 FLAGS                  Extraction flags                                          
         1    440.5012     22.3426 307.7615522  +6.6823706     6790.169     9764.266     10039.39     80.72169     161.5719       323.24      1.562     3.67     906.1998     56.94235     947.3818        31     1.393     1.012  58.14   0
         2     41.5205     21.8717 307.9273522  +6.6691449     9160.031     13215.95     13394.85     81.23421     161.8285     323.0153      1.560     3.64     919.8049     56.94235      1178.88        31     1.415     0.956  57.78   0
         3    337.1011     17.2565 307.8046897  +6.6809979     13798.95     20178.81     21288.93     80.72169     161.5719       323.24      1.563     3.64     914.2596     56.94235     1891.828        39     1.448     1.029  56.71   0
         4    110.7391     17.6153 307.8987354  +6.6732344     2724.646     4031.276     4699.502      80.4642     161.5076     322.8225      1.613     3.69     916.7295     56.94235     400.8934        21     1.307     0.929  56.89   0
         5    101.9660     16.4513 307.9024201  +6.6734195     1640.666     2518.492      2908.81     80.85013     161.5076      322.951      1.677     3.71     916.6686     56.94235      229.517        16     1.253     0.840  71.91   0
         6    805.8956     16.1295 307.6099237  +6.6971778     985.2144     1330.605     951.6293     80.85012     161.6361     323.0474      1.438     4.19     896.3621     56.94235     151.9118        10     1.136     0.608  57.92   0
         7    403.4322     15.1688 307.7771975  +6.6840880      2446.56     3397.403     2822.386      80.4642     161.3148     322.7582      1.542     4.11     909.3882     56.94235     359.5693        18     1.274     0.813  63.50   0
         8     64.8899     14.4876 307.9178920  +6.6729811     424.2339     390.9126     253.8414     80.72169     162.0208     323.1758      1.324     3.91     918.1879     56.94235     81.73114         5     1.320     0.333  49.41   0
         9    664.0894     10.7958 307.6690309  +6.6946345     11931.76     16863.72     17383.75      80.4642     161.2505      322.726      1.487     3.67     900.9225     56.94235     1686.188        30     1.368     0.939  60.89   0
        10    998.4776     12.3270 307.5300220  +6.7051812     765.9868     849.8558     47.73007     81.23421     161.8285     323.0795      1.324     4.26     890.3436     56.94235     148.0861         7     0.992     0.522  32.94   0
        11    828.7449     10.3336 307.6006232  +6.7003348     1869.438     2922.442     2882.272     80.97836     161.5076     323.0474      1.683     3.70     895.4437     56.94235     316.6988        16     1.370     0.743  62.02   0
        12     82.0970     11.4135 307.9108462  +6.6748301     829.7958     1410.147     1300.701     80.85012     161.3148     322.8225      1.698     3.64     917.2312     56.94235     144.2894         7     0.906     0.561  82.32   0
        13    541.7228     10.4286 307.7198923  +6.6906856     1481.036     2031.803     1949.383     80.85013     161.6361     323.0474      1.477     3.82     901.0984     56.94235     220.3456        14     1.210     0.799  38.04   0
        14    264.4755      7.5438 307.8351954  +6.6825666     6781.579     10420.82     11030.82     80.97836     161.5076     318.9423      1.754     3.62     916.8317     56.94235     894.1702        40     1.625     1.334  -2.89  16
        15    899.1296      8.0500 307.5714508  +6.7036299     1619.002     2342.771     2771.658     80.97836     161.5076     321.7923      1.529     3.85     894.2319     56.94235     258.9209        13     1.240     0.655  62.12  16
        16    655.7451      6.1562 307.6726545  +6.6962707     9855.009     13635.36     13931.79     80.97836     161.5719     307.9523      1.471     3.57     900.8857     56.94235     1357.088        31     1.352     0.929  58.03  16
        17    425.6322      6.2156 307.7682745  +6.6885299     8689.483     12642.45      12586.5     80.59305     161.3148      308.491      1.568     3.55     907.7136     56.94235     1147.073        31     1.384     0.980  61.73  16
        18    685.5414      5.4169 307.6602975  +6.6975737     9014.668     12147.42     12290.82     80.59305     161.5076     300.3103      1.472     3.46     899.9608     56.94235     1352.206        27     1.315     0.910  56.94  19
        19    688.9240      2.8884 307.6589768  +6.6987310     14663.04     20309.16     20906.73     80.97836     149.5667     267.8398      1.470     3.74     899.7169     56.94235     2064.252        31     1.355     0.910  52.88  27
        20    741.2579      5.0807 307.6371555  +6.6995775     2171.199     2771.677      2940.49     80.97836     161.5719     296.7303      1.413     3.65     896.5057     56.94235     335.0327        15     1.194     0.743  54.69  16
        21    204.1605      2.7038 307.8604213  +6.6825360     1271.496     2263.132     2677.737     80.97836     147.2596     265.1142      2.047     4.43     916.4771     56.94235     204.0941        15     1.203     1.010  58.49  24
        22    665.3057      2.3282 307.6688103  +6.6981714     3324.328     4114.841     4879.917     80.07642     142.8243     259.2172      1.349     4.30     900.8181     56.94235     485.8954        15     1.119     0.761  50.60  24
        23     72.5146      1.1971 307.9151735  +6.6787252     798.6783     863.9267     1040.523     68.17881     125.9958     240.5314      0.864     1.96     917.2288     56.94235     253.2781         6     0.800     0.397   1.93  24
        24      1.6126    994.8849 307.9110168  +6.2660709     2456.505      3397.06     3188.122     73.87598     132.7331      247.798      1.385     4.68     936.6756     56.94235     398.6072        16     1.436     0.666  81.39  24
        25    235.5581    993.4856 307.8139325  +6.2745191     1931.567     2933.348     2986.544     80.97836     161.4434     323.0474      1.591     4.43     937.4302     56.94235     269.1623        21     1.488     0.904  57.94   0
        26    123.8027    992.8203 307.8603551  +6.2710363     693.5988     1075.991     1282.839     80.59305     161.1861     322.7903      1.976     4.32      936.691     56.94235     111.7413         6     1.135     0.467  66.05   0
        27    826.0603    988.8780 307.5689017  +6.2962081     2380.753      3696.82     4010.887     81.10638     161.6361     323.0153      1.625     4.47     929.6626     56.94235     303.9265        23     1.574     0.948  67.86   0
        28    670.4620    991.3411 307.6334277  +6.2899884     518.2076     657.2043     591.3929     80.97836     161.5076     323.0795      1.491     3.66     933.2151     56.94235     102.0713         5     0.927     0.498  87.83   0
        29    634.2577    991.2148 307.6484649  +6.2888288     915.4083     1425.725     1221.026     80.33515     161.5076     322.7582      1.650     4.76     934.0707     56.94235     141.0717        10     1.189     0.667  51.48   0
        30    774.3485    986.6899 307.5904474  +6.2953834     6953.197     10476.32     12010.51     80.97836     161.3791     323.1758      1.669     3.84     930.9542     56.94235     894.9323        31     1.443     1.044  70.99   0
        31    243.9276    985.8373 307.8107155  +6.2779582     1526.159     2466.262     2911.027     80.85012     161.5719     323.1116      1.724     4.32     937.4725     56.94235     238.7303        17     1.399     0.824  54.24   0
        32    560.9493    985.7377 307.6790881  +6.2886355     1043.378     1408.416     1113.574     80.97836     161.5076     323.1116      1.447     4.58     935.3663     56.94235     136.1177        11     1.096     0.777  55.66   0
        33    208.0682    985.2982 307.8256224  +6.2769757     970.3537     1418.201     1383.017     80.97836     161.7002     323.0795      1.691     5.35     937.2916     56.94235      104.403        11     1.030     0.784  80.35   0
        34     68.7759    983.7054 307.8835094  +6.2729480     2807.112     4022.334     4353.016     81.10638     161.3148     322.9189      1.573     3.75     936.6756     56.94235     365.2189        20     1.351     0.859  56.80   0
        35    962.5809    981.7885 307.5124509  +6.3036936     6716.617     10570.76     10459.74     80.59305     161.3148      322.951      1.686     3.74        926.6     56.94235      933.884        32     1.489     1.038  60.65   0
        36    218.8428    977.9117 307.8213980  +6.2803875     773.0834     1164.614     1152.577     80.97836     161.5076     323.0795      1.582     6.43     937.4535     56.94235      113.992        10     1.501     0.773  65.08   0
        37    645.0865    976.7531 307.6444543  +6.2951625     686.9608     1299.089     933.4026     80.97836     161.4434     323.0474      1.455     3.81     933.5219     56.94235     137.5062         5     0.814     0.511  49.06   0
        38    936.3516    973.3634 307.5236246  +6.3062971     2031.393     3102.042     3321.323     80.85013     161.5076     322.9189      1.650     4.13     927.1381     56.94235      270.918        17     1.347     0.773  58.21   0
        39    795.7927    969.8023 307.5821095  +6.3030730     1303.902     1889.945     2164.679     80.33515     161.2505     322.8546      1.448     4.18     929.9384     56.94235     190.4221        13     1.211     0.718  67.08   0
        40    657.0045    969.4080 307.6397523  +6.2985941     4930.186     7262.802     7498.571     80.33515     161.2505     322.8867      1.543     3.96     933.0976     56.94235     661.3375        25     1.368     0.903  58.41   0
        41    269.2186    969.4139 307.8007683  +6.2855889     4738.117     6977.062      7199.69     80.59305     161.1861     322.9189      1.604     4.16     937.5833     56.94235     615.5487        26     1.398     0.949  61.08   0
        42   1006.5528    968.9109 307.4946231  +6.3104777     773.0566     918.1605     1026.191     80.97836     161.4434     323.2079      1.341     4.89     924.9946     56.94235     127.6562         9     1.061     0.637  38.86   0
        43    479.3203    967.7072 307.7135886  +6.2933446     1133.906     1508.083     1099.151     80.72169     161.7644     323.1116      1.390     4.16     936.0366     56.94235     157.9452        12     1.165     0.678  48.63   0
        44     37.9700    966.8983 307.8968676  +6.2788502      2279.84     3073.087     2832.624     80.97836     161.3148     323.0795      1.449     3.46     936.6756     56.94235      303.914        17     1.186     0.824  55.16   0
        45    888.7347    965.7109 307.5436535  +6.3078672     934.9919     1241.166     1100.021     80.97836     161.7644     323.0474      1.370     4.04     927.8676     56.94235     152.6836         9     1.038     0.606  56.52   0
        46    981.4130    964.2016 307.5052200  +6.3115836     621.2396     958.0349     92.41266     80.59305     161.2505     322.8225      1.313     5.05     925.6105     56.94235     92.38647         8     1.037     0.696  47.70   0
        47    305.0880    962.7544 307.7860995  +6.2895433     962.9005     1063.869     1138.736     80.97836     161.4434     323.0795      1.578     5.07     937.5366     56.94235     159.2329        10     1.307     0.555  61.48   0
        48   1012.9203    962.1156 307.4922064  +6.3134959      759.922     1326.419     1604.307     80.85013     161.8926     323.1437      2.063     5.70     924.6792     56.94235     115.8201         9     1.099     0.909  51.31   0
        49    960.2831    962.4800 307.5140517  +6.3115895     816.9126     1237.769     1074.699     80.97836     161.8285     323.1116      1.588     5.30     926.1395     56.94235     110.0039         8     1.285     0.618  89.99   0
        50    581.6774    961.8536 307.6712842  +6.2991913     1710.665     2474.713     2453.231     81.10638     161.5719     323.0795      1.534     4.44     934.4564     56.94235     252.6223        15     1.343     0.689  57.82   0
        51    620.8283    958.2239 307.6551495  +6.3020010     1338.432     1928.864     1376.155      80.4642     161.4434     322.8867      1.530     4.24     933.6268     56.94235     184.9116        15     1.307     0.767  63.55   0
        52     71.0967    958.8560 307.8833853  +6.2832858     782.6844     1221.179     1197.524     80.85012     161.5076     323.2721      1.828     4.76     936.6756     56.94235     111.6877         6     1.031     0.663  19.74   0
        53     65.8335    958.3429 307.8855879  +6.2833205     547.3229      788.131     1040.898     80.85013     161.5719     323.0474      1.589     2.24     936.6756     56.94235      119.765         5     0.718     0.436 -19.16   0
        54    300.6645    955.9811 307.7881645  +6.2921913      1440.91     2275.448     2159.673     80.59305     161.5719     322.8867      1.630     3.88     937.5992     56.94235     206.0024        14     1.245     0.800  52.16   0
        55    568.5234    954.1721 307.6770043  +6.3019224     662.7145     846.7567      947.931     80.85013     161.5719     323.0153      1.411     4.14     934.5108     56.94235     99.57202         7     1.024     0.478  80.85   0
        56    767.8688    952.1024 307.5942984  +6.3094479     935.0918     1238.067     1234.396     80.85012     161.7002     323.0474      1.413     5.04     930.1734     56.94235     133.1464         9     1.118     0.642  50.26   0
        57    905.3337    948.6382 307.5373329  +6.3154708     7106.134     10723.91     11112.32     80.85013     161.5076     323.1437      1.633     3.93     927.1737     56.94235     953.2408        32     1.444     1.020  61.11   0
        58    143.9438    949.7485 307.8534467  +6.2894973     586.2668     1320.601      1064.06     80.97836     161.5719     323.0153      2.048     6.32     936.9706     56.94235      104.084         8     1.665     0.674   1.68   0
        59    441.2790    945.6005 307.7301282  +6.3011966     2307.263     2924.422     2522.902     80.20589     160.9284     322.8225      1.414     3.43     935.9645     56.94235     311.6708        17     1.224     0.840  56.17   0
        60    411.8313    946.0390 307.7423409  +6.3000278     473.2135     623.7933     705.9562     80.59305     161.3791     322.8867      1.758     4.81     936.1277     56.94235       71.552         5     0.979     0.670  57.68   0
        61    342.8166    944.0974 307.7710627  +6.2985133     10516.08     15199.27     15542.35     80.97836     161.3791     322.8546      1.538     3.67     937.3549     56.94235     1318.982        33     1.398     0.993  59.44   0
        62    262.8632    943.0366 307.8042966  +6.2962661     7550.672     10711.95     11003.89     80.97836     161.6361     323.0474      1.511     3.81      937.745     56.94235     958.8961        29     1.380     0.948  61.24   0
        63    775.1432    937.2474 307.5917761  +6.3158247     808.8438     1175.345     1051.924     80.97836     161.5719     323.1437      1.403     4.54     929.5735     56.94235     157.8563         8     1.259     0.465  55.82   0
        64    590.7745    937.3757 307.6683295  +6.3096028     1132.661     1695.754     2141.493      80.4642     161.3791     322.9831      1.634     5.58     933.7123     56.94235     156.1472        12     1.214     0.722  57.23   0
        65    920.9364    933.5509 307.5313594  +6.3222212     1038.069     1631.164     1791.949     80.85012     161.5076     323.1116      1.766     3.63     926.3478     56.94235     158.1564        10     1.041     0.633  63.09   0
        66    225.2813    932.8485 307.8202448  +6.2992098     554.8411     811.5478     596.0421     80.97836     161.5719     323.0795      2.003     4.96     937.7774     56.94235     98.86493         7     1.588     0.439 -86.36   0
        67    153.5847    933.4984 307.8499923  +6.2965309     676.7134     1035.844     948.3351     80.97836     161.3148     322.7903      1.384     5.09     937.1619     56.94235     95.35364         8     1.194     0.613  58.94   0
        68    877.6899    932.3357 307.5493584  +6.3212790     780.0337     1320.845     1013.426     80.85013     161.7644     323.0795      1.449     4.58     927.6036     56.94235     150.0665         8     1.363     0.438  65.73   0
        69    419.1772    931.7710 307.7397710  +6.3061653     709.2234     1092.112     1257.314      80.4642     161.3791     322.8867      1.950     5.70     935.8303     56.94235     96.44702         8     1.146     0.798  15.37   0
        70    850.5521    926.9434 307.5608082  +6.3225991     627.1099     969.2975     922.4813     80.97836     161.5719     323.1437      1.784     5.16      928.048     56.94235     87.11719         9     1.306     0.576  60.95   0
        71    757.3911    926.6102 307.5995046  +6.3196232     1814.168     2573.663     3339.634      80.4642     161.3791      322.951      1.643     3.52     929.8577     56.94235      234.087        16     1.117     0.894  65.43   0
        72    580.8027    927.0983 307.6728157  +6.3135123     787.3978     1132.718     1056.493     80.72169     161.3148      322.726      1.430     5.10     933.6805     56.94235     127.1882         9     1.287     0.572  35.97   0
        73    621.4250    923.6211 307.6560644  +6.3163083     902.0356     1254.983      1473.66     80.59305     161.3791     322.9831      1.482     5.00      932.863     56.94235     132.7247        12     1.212     0.766  57.53   0
        74      8.0260    924.0377 307.9107489  +6.2955379     1045.878     1673.039     1390.718     80.59305     161.3791     321.5665      1.646     5.10     936.4901     56.94235     155.1196        10     1.142     0.653  68.40   0
        75    542.2831    922.6082 307.6889615  +6.3140758     1245.024     1839.386     2019.378     80.59305     161.2505     322.8867      1.487     4.08     934.3499     56.94235     238.3531        16     1.458     0.796  55.64   0
        76    988.6038    922.3669 307.5036346  +6.3290971     1292.817     1840.249      2561.97     80.20589     161.4434     322.8225      1.572     5.36     924.1683     56.94235     185.4359        12     1.108     0.774  51.82   0
        77    633.0173    922.9915 307.6512719  +6.3169564     841.1504     1206.365     1285.036     80.72169     161.3148     322.8867      1.523     2.77     932.6128     56.94235     144.0568         7     0.842     0.541  44.17   0
