#   1 NUMBER                 Running object number                                     
#   2 X_IMAGE                Object position along x                                    [pixel]
#   3 Y_IMAGE                Object position along y                                    [pixel]
#   4 ALPHA_J2000            Right ascension of barycenter (J2000)                      [deg]
#   5 DELTA_J2000            Declination of barycenter (J2000)                          [deg]
#   6 FLUX_APER              Flux vector within fixed circular aperture(s)              [count]
#   9 FLUXERR_APER           RMS error vector for aperture flux(es)                     [count]
#  12 FLUX_RADIUS            Fraction-of-light radii                                    [pixel]
#  13 FWHM_IMAGE             FWHM assuming a gaussian core                              [pixel]
#  14 BACKGROUND             Background at centroid position                            [count]
#  15 THRESHOLD              Detection threshold above background                       [count]
#  16 FLUX_MAX               Peak flux above background                                 [count]
#  17 ISOAREA_IMAGE          Isophotal area above Analysis threshold                    [pixel**2]
#  18 A_IMAGE                Profile RMS along major axis                               [pixel]
#  19 B_IMAGE                Profile RMS along minor axis                               [pixel]
#  20 THETA_IMAGE            Position angle (CCW/x)                                     [deg]
#  21 FLAGS                  Extraction flags                                          
         1    197.8016     24.5561 307.8649048  +6.6682227     9073.227     15822.71      16600.4     82.33625     165.2671      330.699      1.861     4.26     969.3051     58.36075     1184.964        46     1.722     1.218 -34.91   0
         2   1007.9741     18.5706 307.5284114  +6.6978191     1782.971     2897.492     2665.318     82.46852      165.399     330.9297      1.740     4.65     932.3439     58.36075     335.6245        19     1.447     0.942 -43.74   0
         3    727.5821     14.9414 307.6450647  +6.6899557     6523.034     11100.74     11945.05     82.60057     165.4648     330.8308      1.834     4.43     942.4503     58.36075     963.7598        36     1.698     1.063 -31.79   0
         4    647.8737     14.1532 307.6782176  +6.6876147     3234.017     5348.545     5848.537     82.86405     165.6623     331.0943      1.763     4.45     944.8332     58.36075     489.4327        28     1.695     1.011 -30.32   0
         5    349.6556     14.0875 307.8021539  +6.6776463     825.1929     1335.021     1609.307     82.99548     165.4648     331.2589      1.863     5.76     961.3196     58.36075     118.0482        11     1.434     0.651 -40.45   0
         6     48.9741     10.1339 307.9272399  +6.6691692     7287.572     12887.92     13520.97     82.60058     165.5307     330.9626      1.862     4.14     971.6534     58.36075     1028.139        45     1.796     1.167 -38.86  16
         7    447.9821     10.4487 307.7614148  +6.6824477     5219.982     9281.959     10171.79     82.46852     165.6623     330.8967      1.911     4.52     950.8047     58.36075     702.8098        36     1.719     1.133 -31.82  16
         8    694.4108      9.6810 307.6590279  +6.6910182     815.8503     1345.408     1575.768     82.60058      165.333     330.9297      1.765     3.55      943.447     58.36075     169.8807         9     1.185     0.478 -39.96   0
         9    522.5267      7.6717 307.7305291  +6.6860932     680.7341     1235.043       1360.9     83.25771     165.7281     327.8857      1.885     4.74     946.7811     58.36075     103.9662         6     0.949     0.672 -68.05   0
        10    344.5480      5.4077 307.8045702  +6.6810584      10943.7     19443.02     20704.94     82.46852      165.399     307.6138      1.913     4.29      961.756     58.36075     1504.208        49     1.795     1.219 -36.39  16
        11    439.0259      6.7869 307.7652606  +6.6836592     644.9908     1006.585     1449.659     82.73242      165.399     321.3384      1.621     4.38     951.6475     58.36075     95.26538         6     0.838     0.651 -12.36  16
        12    118.2198      5.7276 307.8986140  +6.6733193     2154.488     4009.432     4795.194     82.60058     165.4648     311.2418      2.132     4.91     969.0297     58.36075     303.3286        26     1.678     0.996 -35.03  16
        13    109.4615      4.5342 307.9022940  +6.6735173     1331.856     2498.752     2596.209     82.99548     165.5307     297.4178      1.949     4.96     969.0665     58.36075     190.8262        16     1.447     0.901 -33.86  16
        14    812.3577      4.4747 307.6101847  +6.6971105     759.3895     1367.888     1550.746     82.86406     165.6623     296.7207      1.944     3.72     938.7243     58.36075     117.1866         6     0.888     0.475 -85.33  16
        15    410.5687      3.4419 307.7772000  +6.6840856     2011.223     3490.291     3339.192     82.46852     158.8785      282.495      1.829     4.59     954.4417     58.36075     300.4606        23     1.485     1.082 -41.14  24
        16    670.2673      1.2428 307.6693464  +6.6936943     1777.255     2127.823     2532.954     70.96053     130.3106     247.7137      1.037     2.35      943.952     58.36075      528.611        10     1.172     0.426   2.53  24
        17    285.9096   1002.7601 307.7952011  +6.2673146     910.8656     1639.341     1633.588     82.99548     165.5307     331.1272      1.701     6.01     991.8472     58.36075     185.3383        12     1.550     0.686 -39.66   0
        18    975.6821   1020.7250 307.5081627  +6.2829668     6478.636     11238.03     11564.08     83.25771     165.2671     294.1382      1.835     4.72     975.1349     58.36075     902.9333        38     1.716     1.084 -38.19  24
        19    930.2641    999.2802 307.5277437  +6.2903069     8662.696     14098.73     15363.67     83.25771     165.6623     331.0614      1.787     4.27     978.0175     58.36075     1268.053        37     1.668     1.076 -33.95   0
        20    561.5168    998.6229 307.6808948  +6.2782592     8228.892     12811.51     13743.91     82.86406     165.2671     331.0285      1.691     3.98     988.1929     58.36075      1470.91        34     1.617     0.971 -37.37   0
        21    903.8346    995.4359 307.5388484  +6.2910127     11677.51     19515.46     20654.43     82.73242      165.333     330.8308      1.810     4.38      977.921     58.36075     1989.107        41     1.736     1.063 -32.05   0
        22     12.8912    997.6522 307.9087399  +6.2602493     600.1951     884.5288     766.5734     82.86405      165.399     331.2917      1.139     3.26     995.2187     58.36075     124.5458         7     0.838     0.599 -30.54   0
        23   1023.8682    995.4580 307.4890003  +6.2950050     1785.873     1975.863     2105.396      69.4076     128.2875     245.5927      0.907     2.68     971.3137     58.36075     560.6293         8     1.100     0.331  86.05  24
        24    616.0283    996.2329 307.6583388  +6.2810699     1330.241     2086.481     2849.886     82.46852      165.333     330.8638      1.749     3.42     985.7371     58.36075     234.0082        10     1.136     0.551 -52.57   0
        25    548.1375    994.4355 307.6865919  +6.2795403     3955.139      6760.16     7399.856     82.86405     165.5965     331.0614      1.905     4.55     988.7515     58.36075     690.3031        32     1.674     1.197 -23.12   0
        26    656.9869    994.0968 307.6414021  +6.2833217      1420.46      2202.82     1665.622     82.86405      165.333     330.8308      1.450     3.97     985.0676     58.36075     231.1853        13     1.218     0.660 -69.40   0
        27     82.2387    993.3439 307.8800910  +6.2643606     887.2906     1208.364     926.3805     82.99548     165.6623     331.0614      1.446     4.48      993.989     58.36075     159.8791         7     0.901     0.633 -66.04   0
        28    812.2396    992.5207 307.5769835  +6.2891597     620.7041     739.5205     1038.487     82.86405     165.6623     331.0614      1.309     3.14     981.3124     58.36075     106.7776         5     0.730     0.466 -18.64   0
        29    501.0657    990.9858 307.7062551  +6.2793886     1990.161     3156.256     2727.251     82.46852     165.4648     331.0284      1.592     4.46     989.1859     58.36075     301.5184        18     1.548     0.795 -35.77   0
        30    935.6063    982.9795 307.5260727  +6.2972154     41267.96     68673.12     73389.77     82.60057      165.333     330.8967      1.786     4.36     976.9893     58.36075     6597.763        70     1.755     1.202 -36.98   0
        31      8.4571    982.7290 307.9110868  +6.2662613     2838.328     4511.022     4330.317      83.1267     165.5965     331.0614      1.757     4.46     994.9849     58.36075     438.0101        24     1.564     0.898 -39.25  16
        32    242.9593    981.3571 307.8137595  +6.2747096      1686.36     2844.938     2810.127     82.73242     165.5965     330.9626      1.776     4.49      991.958     58.36075     312.2841        19     1.598     0.788 -35.18   0
        33    131.1867    980.9260 307.8601866  +6.2711330     653.2566     1089.992     1259.439     82.46852     165.2671     330.9297      1.807     6.21     993.3255     58.36075     93.77771         9     1.456     0.745  -8.85   0
        34    781.6566    974.7831 307.5902804  +6.2954621     6487.564     10579.23      11408.5     82.46852     165.5307     330.8308      1.754     4.08      982.105     58.36075     1184.592        38     1.775     1.152 -51.57   0
        35    641.6068    979.5531 307.6482789  +6.2888122     849.8131     1327.114     1009.749     82.46852      165.399      330.732      1.572     4.46      985.272     58.36075     157.6097         9     1.101     0.669 -46.08   0
        36    833.5220    976.8006 307.5686739  +6.2963608     2266.816      3596.73     3916.544     82.20377      164.937     330.8308      1.667     4.29     979.6075     58.36075     396.3194        23     1.596     0.948 -42.73   0
        37    568.1505    974.1483 307.6789650  +6.2885863      776.386     1351.339       1122.6      83.1267     165.4648     331.0614      1.727     5.41     987.4256     58.36075     144.5093        10     1.460     0.595 -43.51   0
        38    250.9893    973.7967 307.8106807  +6.2781006     1267.698     1738.885     1803.007     82.60058     165.2671     330.9955      1.506     4.64     991.9536     58.36075     224.3237        12     1.443     0.639 -55.18   0
        39    214.3743    973.8942 307.8258817  +6.2768310     640.8777     1084.433     1640.189      83.1267      165.333     330.9297      1.665     4.41     992.1725     58.36075     114.1559         8     1.489     0.371 -54.51   0
        40    969.9649    969.6645 307.5122512  +6.3038585     6502.156     10740.09      11268.8     82.86405     165.5965     331.1272      1.772     4.39     974.5391     58.36075     1106.385        38     1.731     1.079 -39.59   0
        41     76.1764    971.8434 307.8833365  +6.2730335     2580.312     4468.124     4465.723     82.46852     165.4648     330.8967      1.795     4.43     993.6417     58.36075     408.4598        23     1.621     0.957 -33.89   0
        42    652.1091    963.9058 307.6444446  +6.2956239     700.4348     1011.926     1033.638     82.99548     166.1222     331.0943      1.506     4.56     985.0371     58.36075     110.9123         7     1.234     0.480 -55.37   0
        43    943.5103    961.4771 307.5235124  +6.3063571      2112.82     2891.825     2884.481     82.99548     165.8596     331.1601      1.523     3.91     975.7377     58.36075     368.3932        18     1.356     0.836 -51.91   0
        44      1.6513    959.4197 307.9147029  +6.2756558     813.1864     1247.951      1231.72     76.14681     136.6788     254.4422      1.453     4.56     994.5787     58.36075      180.931        10     1.359     0.559 -67.45  24
        45    276.6557    957.5483 307.8005720  +6.2856706     4220.737     6834.667     7251.511     82.99548     165.5965     331.0614      1.790     4.06     991.9398     58.36075     668.6947        29     1.658     0.970 -37.43   0
        46    803.3372    957.8076 307.5818478  +6.3031950     1303.297      1906.21     2027.226     82.33625      165.333     330.8967      1.509     5.90     980.7651     58.36075     239.6413        13     1.645     0.688 -42.14   0
        47    664.4939    957.3498 307.6395223  +6.2987449     4407.297      6709.32     7072.453     82.86406     165.4648     331.2917      1.647     4.29     984.7769     58.36075     717.0696        25     1.548     0.903 -39.78   0
        48   1013.1043    957.6970 307.4947375  +6.3102375     737.7126     1195.049     837.5587     82.99548     166.1878     330.9297      1.667     3.80     972.0448     58.36075      144.299         6     1.119     0.403 -34.38   0
        49    486.3510    955.9877 307.7135462  +6.2933457     1132.904     1748.243      1506.46     82.33625     165.5307      330.765      1.597     4.94     988.9785     58.36075     176.8905        12     1.206     0.856 -47.54   0
        50     45.2309    955.0471 307.8967552  +6.2789273     2072.867     3064.751      3519.94     82.60057     165.5965     330.9955      1.599     4.43     993.7897     58.36075     302.2258        18     1.464     0.834 -38.18   0
        51    896.0301    953.9855 307.5434821  +6.3078667     889.0364     1373.607     1277.818     82.60058      165.333     331.0284      1.548     5.28     977.0222     58.36075     142.8781         9     1.410     0.558 -48.57   0
        52    988.1260    951.9234 307.5053047  +6.3117890     786.3441     1331.344     1229.649     83.25771     165.8596     331.1272      1.692     4.08     973.2695     58.36075     105.0199         8     0.844     0.664  43.02   0
        53    312.9557    951.0051 307.7857194  +6.2895903     760.2921     1464.993     1712.223     82.33625     165.2011      330.732      2.231     5.96     991.7512     58.36075     152.1475        10     1.620     0.617 -32.47   0
        54    967.0225    951.2943 307.5140899  +6.3113453     694.6667     759.0989       750.97     82.99548      165.399     330.9297      1.192     1.97     974.2802     58.36075     155.8373         5     0.734     0.446  60.73   0
        55    588.9507    949.9635 307.6711425  +6.2992677     1470.945     2342.631     3054.326     82.73242     165.5307     330.9955      1.672     5.38     986.3994     58.36075     249.0525        13     1.544     0.774 -29.32   0
        56   1020.7507    949.4999 307.4918371  +6.3138768      914.752     1873.268     1633.726     82.99548      164.937     293.9529      1.984     7.86     971.6541     58.36075     111.7367        15     1.462     1.180 -12.36  24
        57    628.1047    946.2086 307.6550092  +6.3021279     1058.197      1589.35     1338.498     82.73242     165.2011     330.8638      1.581     4.90     985.4611     58.36075     166.8241        11     1.381     0.776 -45.21   0
        58     77.3755    947.1408 307.8836753  +6.2832727     698.1908     1218.008     1657.855     82.60057     165.5965     330.9297      1.737     3.38     993.0955     58.36075     122.6642         5     0.752     0.440  70.67   0
        59    308.2657    943.8761 307.7879078  +6.2923763     1356.277         2265     2486.768      83.1267     165.5965     331.0614      1.809     5.38     991.7799     58.36075     204.1757        16     1.675     0.753 -49.63   0
        60    774.6074    940.6093 307.5943574  +6.3093365      857.863     961.5253     1109.494     82.33625      165.399     330.9626      1.456     4.01     981.1115     58.36075     123.9268         7     1.012     0.455 -78.76   0
        61    912.6494    936.6000 307.5371643  +6.3155993     6768.826     10802.16     10825.16     82.20377     165.0691     330.6002      1.717     4.26     976.0894     58.36075      1160.09        30     1.630     0.940 -40.14   0
        62    448.3173    933.8345 307.7300880  +6.3012181     2009.094     3077.281     3071.419     82.99548     165.5965     331.0285      1.650     4.05     989.4897     58.36075     340.2836        18     1.471     0.874 -41.27   0
        63    350.2299    932.1782 307.7708768  +6.2986137     9016.727     14617.28     15404.03     82.46852      165.399     330.9626      1.722     4.25     991.3009     58.36075     1424.208        38     1.704     0.998 -36.54   0
        64    270.2900    931.1627 307.8041075  +6.2963508     6574.114     10671.14     11321.13      83.1267     165.5307     331.1272      1.721     4.55     991.9908     58.36075     945.3131        34     1.684     1.005 -40.43   0
        65    783.1071    924.9279 307.5913551  +6.3160950       677.83     1193.936     1249.275     82.86405     165.7281     331.1601      1.775     5.22     980.2806     58.36075     166.3253         8     1.724     0.447 -40.00   0
        66    598.2568    925.5091 307.6681020  +6.3096759     1246.465     1954.786     1718.034     82.86405     165.4648     331.1931      1.628     5.26     985.9395     58.36075     202.3831        13     1.350     0.643 -39.74   0
        67    928.0866    921.7445 307.5312523  +6.3222479     1059.686     1688.889     1671.714     82.99548     165.5307     331.2589      1.778     5.34     975.0157     58.36075     156.1553        11     1.216     0.805 -64.54   0
        68    884.1392    921.4706 307.5495129  +6.3208950      698.353     1241.639     971.4597      83.1267     165.5965     331.1272      1.860     3.43     976.6277     58.36075     126.0895         8     0.894     0.662 -57.30   0
        69    996.0002    917.2589 307.5031982  +6.3263641     742.9615     1209.125     1231.761     82.20377     165.2011      330.732      1.716     5.68     972.4214     58.36075     114.9568         9     1.481     0.614 -31.56   0
        70    764.6416    914.6782 307.5993685  +6.3197102     1603.794     2472.515      2522.59     82.86405     165.5965     331.1272      1.601     4.49      980.476     58.36075      286.176        16     1.424     0.800 -42.62   0
        71    995.7220    910.9438 307.5035257  +6.3289622     1353.787     2172.559      2080.92     82.99548     165.5965     331.0943      1.609     5.26     972.2977     58.36075     220.1443        15     1.583     0.688 -59.03   0
        72    628.4413    911.8152 307.6560281  +6.3163396      875.408     1387.669     940.2362     82.46852      165.399     330.8638      1.448     3.13     984.7189     58.36075     195.9769         7     0.921     0.644 -90.00   0
        73     15.1222    912.0297 307.9107155  +6.2956746     899.6282     1391.764     1509.196     82.86405     165.6623     331.0943      1.611     5.31     993.2612     58.36075     141.0187        10     1.351     0.597 -23.16   0
        74    549.8468    910.7051 307.6887050  +6.3141680     1038.925     1785.914     1391.559     82.86405     165.5307      331.226      1.683     5.84     986.5667     58.36075     178.9209        13     1.568     0.677 -29.40   0
        75    683.2737    908.1632 307.6333796  +6.3196810     2406.916     3620.795     3596.362     82.86405     165.6623     331.1272      1.660     4.38     983.0886     58.36075      364.678        23     1.511     0.899 -34.57   0
        76    973.2177    906.1884 307.5130316  +6.3301756     650.8486     918.9131     783.6697     82.60057     165.2671     330.9955      1.403     2.91     972.9482     58.36075     130.5724         6     0.731     0.630 -32.78   0
        77     79.9255    904.3332 307.8840664  +6.3010321     2732.684     4547.135     4624.592      83.1267     165.7281     331.0614      1.788     4.01      992.338     58.36075     502.8367        26     1.553     0.986 -33.88   0
