#   1 NUMBER                 Running object number                                     
#   2 X_IMAGE                Object position along x                                    [pixel]
#   3 Y_IMAGE                Object position along y                                    [pixel]
#   4 ALPHA_J2000            Right ascension of barycenter (J2000)                      [deg]
#   5 DELTA_J2000            Declination of barycenter (J2000)                          [deg]
#   6 FLUX_APER              Flux vector within fixed circular aperture(s)              [count]
#   9 FLUXERR_APER           RMS error vector for aperture flux(es)                     [count]
#  12 FLUX_RADIUS            Fraction-of-light radii                                    [pixel]
#  13 FWHM_IMAGE             FWHM assuming a gaussian core                              [pixel]
#  14 BACKGROUND             Background at centroid position                            [count]
#  15 THRESHOLD              Detection threshold above background                       [count]
#  16 FLUX_MAX               Peak flux above background                                 [count]
#  17 ISOAREA_IMAGE          Isophotal area above Analysis threshold                    [pixel**2]
#  18 A_IMAGE                Profile RMS along major axis                               [pixel]
#  19 B_IMAGE                Profile RMS along minor axis                               [pixel]
#  20 THETA_IMAGE            Position angle (CCW/x)                                     [deg]
#  21 FLAGS                  Extraction flags                                          
         1    710.0508     17.7960 307.6452709  +6.6898608     7662.246     11322.69     11370.14     77.71014     156.0437     312.0874      1.534     3.80     828.1129     55.08172     1099.731        32     1.464     0.978 -39.78   0
         2    630.2049     17.1147 307.6784646  +6.6874736     3703.248     5455.069     5628.394     77.83498     155.9815     312.1807      1.527     3.84     828.6183     55.08172     520.6827        23     1.486     0.841 -40.10   0
         3    430.4604     13.2303 307.7615748  +6.6823921     6495.843     9764.448      10076.4     78.08405     156.2924     312.4605      1.609     3.53     832.2552     55.08172     896.7583        31     1.421     1.000 -49.12   0
         4     31.3207     12.8057 307.9273954  +6.6691674     8635.567     13169.25     13617.19     77.95961     155.7946      312.274      1.611     3.53     842.7153     55.08172     1171.072        35     1.499     1.014 -40.57   0
         5    677.5160     12.4671 307.6589662  +6.6909737     847.0477     1192.652     1249.918     78.57983     156.5407     312.5226      1.306     4.36     828.2837     55.08172     148.3937         8     1.239     0.438 -53.12   0
         6    506.1765     10.4824 307.7302130  +6.6860622     859.6599     1284.657     1429.486     78.20829     156.0437     312.4294      1.780     4.24     829.2393     55.08172     117.6479         9     1.090     0.582 -63.05   0
         7    326.9876      8.1749 307.8047300  +6.6810106     13210.05        20154     21461.31     77.95961     156.1059     311.6204      1.602     3.67     839.7643     55.08172     1818.116        41     1.558     1.009 -43.53  16
         8    422.3611      8.6754 307.7650930  +6.6840011     692.9743     1136.137      1752.49     78.20829     156.2924     312.5226      1.628     3.40     832.6566     55.08172     117.6124         5     0.761     0.440 -71.83   0
         9    100.7443      8.3875 307.8987064  +6.6733260     2547.639     3928.949     4543.301     77.71014     156.2303     312.0563      1.677     3.89     839.6119     55.08172     418.0237        20     1.265     0.949 -36.36  16
        10    392.9989      6.2437 307.7773727  +6.6840210     2237.043     3434.375     3481.514     77.71014     155.9815     298.4759      1.590     4.34     835.0447     55.08172     310.3986        22     1.549     0.836 -40.85  16
        11     91.8488      7.2221 307.9024411  +6.6735080      1543.08     2400.636     2587.193     77.95961     156.3545      306.595      1.532     4.06     839.7339     55.08172     227.8911        13     1.312     0.670 -51.06  16
        12    795.7109      6.9230 307.6100494  +6.6972097      1017.74     1438.832     1995.964     78.33233     156.5407     304.4659      1.781     4.93     826.9441     55.08172     141.1091        11     1.022     0.832 -48.57  16
        13    818.4225      1.7232 307.6007885  +6.7001142     1303.092     2030.644     2200.605     72.40681     129.7499      241.356      1.627     4.19     826.8043     55.08172     258.7393        14     1.280     0.964  -4.52  24
        14    653.8304      2.0823 307.6691552  +6.6944691     10714.41     13993.67     14398.23      75.9409     134.9581     247.0414      1.393     3.87     827.9971     55.08172     1718.515        28     1.372     0.846 -23.53  24
        15    988.6011      3.0201 307.5300441  +6.7052522     643.7611     903.3483      1187.96     77.95961     145.6826      260.657      1.456     4.22      822.156     55.08172     100.1053         6     0.950     0.638 -64.51  16
        16    531.5671      1.6500 307.7199624  +6.6905583     1229.331      1514.47     1366.095     72.13814     128.9995     240.2271      1.221     3.19     828.6907     55.08172     201.8337         9     0.967     0.620 -16.43  24
        17     72.2338      2.0532 307.9107639  +6.6749822     668.1838     1032.139     1181.916      75.9409       134.67     246.5693      1.565     4.30     840.3158     55.08172     107.3347         5     0.753     0.699 -79.47  24
        18    252.9622      1.0000 307.8357235  +6.6814887     419.5086     569.7197     774.8541      62.7835     118.8132     229.4364      1.419     3.63      841.069     55.08172     142.9246         5     1.313     0.289   0.00  24
        19     65.1748    996.0992 307.8801022  +6.2643895     964.8333     1745.931     2032.677     78.45618     156.0437     312.3673      1.944     5.25     861.6149     55.08172     137.9354        10     1.235     0.631 -35.14   0
        20    958.3901   1023.0108 307.5084278  +6.2831543     5280.588     7631.091     7717.135     74.91114     133.4388     245.4643      1.529     4.00      858.303     55.08172     683.7329        25     1.448     0.944 -10.21  24
        21    718.0825   1021.6797 307.6082262  +6.2756922     2670.856     4130.344     4814.927     78.45618     149.1729     265.1989      1.727     3.51        862.1     55.08172     369.4851        24     1.408     1.023 -24.76  26
        22    441.3195   1022.3104 307.7230883  +6.2661813     881.8597     1150.515     742.7852     78.08405     142.4478     256.2999      1.350     4.95     865.5684     55.08172     134.3017        11     1.162     0.720 -42.18  24
        23    242.9041   1023.2842 307.8054142  +6.2591321      1103.79     1466.046     1176.343     72.40681     130.0489      241.356      1.375     3.72     865.6689     55.08172     176.2864        11     1.132     0.652 -14.42  24
        24    483.6051    993.9156 307.7064909  +6.2793185     2368.609     3170.809     2902.341     77.83498     155.9192     312.2118      1.489     3.47     864.9056     55.08172     298.8182        21     1.282     0.929 -39.36   0
        25    918.1078    985.9731 307.5263897  +6.2971033     40366.23     68594.64     73483.67     78.45618     156.0437     312.3362      1.829     3.78     858.1833     55.08172     5034.038        76     1.733     1.341 -35.46   0
        26    323.3289    987.1801 307.7732477  +6.2767327     571.1237     921.8555     812.9073     77.95961     156.1681     312.4294      1.576     3.96     864.8013     55.08172      76.5683         6     1.108     0.404 -76.58   0
        27    225.3744    984.1815 307.8140087  +6.2746867     1711.479     2596.637     2784.392     77.95961     156.1059     312.4294      1.646     4.03     864.3574     55.08172     245.7473        15     1.228     0.809 -42.52   0
        28    624.7145    982.4146 307.6483020  +6.2887842     936.5782     1368.901     1128.007     77.95962     156.0437     312.3673      1.502     4.30     862.7861     55.08172     135.8834        10     1.161     0.655 -75.73   0
        29    113.3024    983.1968 307.8605612  +6.2713322     630.2432      1093.18     911.2729     78.08405     155.9815     312.1807      1.507     5.06     862.2742     55.08172     98.27417         7     1.333     0.543 -27.00   0
        30    816.0721    979.7864 307.5689543  +6.2962565     2257.721     3662.642     4115.802     77.83498     156.0437     312.3673      1.764     4.51     860.3873     55.08172     313.9537        19     1.446     0.846 -30.65   0
        31    764.2508    977.7395 307.5905351  +6.2953730      6416.05     10550.78     11932.36     78.33233     156.2303     312.4916      1.814     3.96     860.9667     55.08172     798.4684        38     1.700     1.102 -52.45   0
        32    551.1514    976.6410 307.6790328  +6.2887091     997.8448     1515.911     1523.183     78.33233     156.2303     312.4294      1.492     4.09      864.255     55.08172     179.5143        10     1.156     0.608 -51.16   0
        33    233.5383    976.5538 307.8108771  +6.2781094     1450.334     2345.232     2374.169     78.20829     156.1681     312.5226      1.683     4.27     864.1776     55.08172     211.0137        16     1.415     0.786 -36.11   0
        34     58.5729    974.7201 307.8835644  +6.2729934     2712.441     4475.918     4209.053     78.20829     156.1059     312.5226      1.718     4.36     861.3235     55.08172     423.6277        26     1.539     1.038 -35.49   0
        35    197.6621    976.2116 307.8257805  +6.2770472     784.4747     1069.084     1007.284     77.83498     156.1059     312.3051      1.557     4.58     863.6512     55.08172     122.4786         8     1.137     0.524 -36.98   0
        36    952.4461    972.6860 307.5125798  +6.3037325     6397.638     10643.73     10800.21     78.33233     156.1681     312.4916      1.806     3.81     856.9847     55.08172     709.5708        37     1.567     1.162 -29.84   0
        37    208.8099    968.9408 307.8213984  +6.2804228     746.1757     1237.861     1310.082     77.71014     156.1681     312.2118      1.677     4.34     863.5906     55.08172     109.3182         7     1.165     0.460 -33.04   0
        38    634.9963    966.8655 307.6445560  +6.2955469     733.5369     1260.365      1172.73     77.58511     156.0437      312.274      1.962     4.53     862.4342     55.08172     98.44305         8     1.377     0.424 -28.89   0
        39    926.1682    964.4705 307.5237636  +6.3062490     1989.494     3328.109     2357.592     78.20829     156.2924     312.4916      1.789     4.51     857.4913     55.08172     237.1792        24     1.482     1.054 -37.89   0
        40    995.6512    960.7431 307.4950436  +6.3101016     675.5778     1141.071     1104.968     78.33233     156.2924     312.4916      1.730     6.20     855.2969     55.08172     84.62646        12     1.687     0.640 -66.80   0
        41    646.8584    960.3101 307.6398519  +6.2986495     4595.699     7114.998     7785.582     78.20829     156.2924     312.6158      1.675     3.82     862.2237     55.08172     625.2482        31     1.615     0.987 -42.17   0
        42    785.7417    960.8104 307.5821814  +6.3030789     1341.129      2109.74     2165.119     77.71014     156.1681     312.2118      1.686     4.67     860.4827     55.08172     181.1396        16     1.434     0.786 -52.05   0
        43    259.0472    960.4719 307.8008306  +6.2856038      4523.41     6916.996     7210.246     78.33233     156.3545     312.4916      1.634     3.54     863.9509     55.08172     593.8385        29     1.444     1.035 -43.30   0
        44    879.5914    957.0724 307.5433469  +6.3077513     949.1638     1522.465     1184.013     77.83498     155.8569     312.3362      1.733     6.94     858.4197     55.08172      113.923        14     1.351     1.000  46.45   0
        45    469.1551    958.5863 307.7136774  +6.2934200     1186.826     1466.614     1538.377     77.71014     156.1059     312.2429      1.447     3.68     864.0275     55.08172     176.2307        11     1.039     0.738 -51.79   0
        46     27.8994    957.8579 307.8968660  +6.2789237     2216.994     3380.187     3445.106     78.08405     156.2924     312.6779      1.601     3.57      860.877     55.08172     357.6958        19     1.309     0.868 -51.37   0
        47    949.6108    953.9708 307.5143833  +6.3113645     646.0139     1092.776      1194.32     77.83498     156.1059     312.3362      1.639     4.68     856.5151     55.08172     100.9416         5     1.042     0.596  14.23   0
        48    295.2495    953.8173 307.7860273  +6.2895646     843.4122      957.637     994.6258     77.83498     156.3545     312.2429      1.171     2.78      864.268     55.08172     166.9234         6     0.754     0.535 -44.38   0
        49   1003.2211    952.2090 307.4921867  +6.3138768     864.5169     1622.116     1891.128     77.95961     156.1059     312.3051      2.009     6.35     854.7108     55.08172     106.1741        13     1.410     0.803 -68.31   0
        50    571.7151    952.5816 307.6713050  +6.2993291     1648.333     2562.583     2894.174     77.95962     156.0437     312.4294      1.605     4.04     863.1016     55.08172     223.0707        15     1.363     0.690 -34.43   0
        51    610.7633    949.4236 307.6552014  +6.3019379     1287.663     2087.097     1984.273     77.95962     156.0437      312.274      1.687     5.04     862.1713     55.08172     165.2912        15     1.408     0.726 -40.21   0
        52     60.5620    949.4392 307.8835926  +6.2834966     845.1927      1441.21     1885.546     78.08405     156.2303     312.3673      1.923     5.70     861.1075     55.08172     139.7624        11     1.364     0.671 -27.47   0
        53    290.9380    946.6853 307.7880574  +6.2923644     1618.638     2757.824     2953.358     78.45618     156.4166     312.4916      1.831     4.33     864.1548     55.08172     250.5829        21     1.446     0.975 -28.61   0
        54    559.1479    944.8369 307.6767821  +6.3021062     571.2258     751.3594      206.679     78.20829     156.2924     312.5226      1.285     4.02     863.1827     55.08172     111.1405         6     1.075     0.462 -27.21   0
        55    757.5447    942.9954 307.5944842  +6.3094929     913.5041     1341.044     987.0338     77.71014     156.1059     312.2118      1.660     4.10     860.6675     55.08172     166.4584        12     1.287     0.818 -51.12   0
        56    895.1062    939.5845 307.5374920  +6.3154880     6850.947     11349.41     11960.71     78.08405     156.1059     312.3362      1.764     3.78       857.66     55.08172     853.5085        39     1.577     1.153 -39.44   0
        57    133.2210    940.5986 307.8537309  +6.2895863     483.1812     476.7815     646.5078     77.95962     155.9815     312.2118      1.211     3.39     861.8552     55.08172     78.53424         5     0.744     0.447 -19.74   0
        58    431.0798    936.7080 307.7302190  +6.3011777     2368.642      3514.06     3701.528     78.08405     156.5407     312.5537      1.576     3.96     863.6227     55.08172     314.5594        21     1.359     0.883 -46.87   0
        59    332.6354    935.1133 307.7711383  +6.2985390     9930.972     14877.59     15527.79     78.33233     156.1681     312.4916      1.597     3.60     863.9609     55.08172     1548.084        35     1.513     0.993 -39.53   0
        60    252.7750    934.0144 307.8043261  +6.2963157     7280.339     11164.68     11137.12     78.08405     156.1059     312.4294      1.588     3.66     863.1505     55.08172     1051.584        32     1.506     0.987 -38.20   0
        61    580.7680    928.6340 307.6683516  +6.3095181     1290.452     1822.254     1500.893     77.83498     156.0437     312.2429      1.498     3.89      862.335     55.08172     203.0234        14     1.137     0.913 -32.17   0
        62    765.2655    927.7748 307.5917896  +6.3160342     604.1357     898.1232     1097.238     77.95962     156.2924     312.3673      1.812     3.85     860.3479     55.08172     99.96283         5     0.988     0.430 -44.26   0
        63    911.2692    924.2684 307.5312951  +6.3223497     1077.014     1675.988     1755.013     78.33233     156.4166     312.4605      1.630     4.08     856.9789     55.08172     187.3768        14     1.350     0.748 -38.18   0
        64    867.1406    923.5618 307.5496384  +6.3211708      715.231     1301.144     1203.752     78.33233     156.3545     312.5226      2.109     5.16      857.915     55.08172     90.70459         9     1.277     0.590  28.10   0
        65    214.6359    924.8257 307.8204677  +6.2988299     450.8903     623.3555     417.1833     77.95961     156.1059      312.274      1.680     3.68      862.284     55.08172     73.79395         5     1.040     0.374  -3.87   0
        66    409.1470    923.1143 307.7397812  +6.3060553     714.7831     1044.091     925.6312     78.33233     156.2303     312.6469      1.603     4.56     863.4497     55.08172     108.0439         8     0.923     0.641 -41.60   0
        67    747.2560    917.7288 307.5996030  +6.3195806     1699.026     2671.718     3143.784     78.33233     156.2303     312.4605      1.751     3.78     860.4283     55.08172     230.8496        17     1.310     0.808 -37.13   0
        68    570.9221    918.3122 307.6727858  +6.3134501     778.8644     1221.799     1049.581     78.33233     156.6027     312.6158      1.696     5.43     862.1935     55.08172     112.6761         8     1.048     0.795 -55.42   0
        69    978.4956    913.4414 307.5037487  +6.3290586      1291.62     1880.286     2706.172     78.33233     156.2303     312.6158      1.716     3.99     854.4164     55.08172     160.3433        14     1.123     0.876 -38.08   0
        70    611.3544    913.9597 307.6561473  +6.3165984     792.3847     1277.662     1297.842     78.20829     156.2924     312.3362      1.631     4.66     861.2859     55.08172     145.9528        10     1.120     0.748 -30.23   0
        71    532.4877    913.2419 307.6889115  +6.3142582     1016.132     1696.688     1607.891     78.33233     156.2924     312.5226      1.801     5.46     862.6658     55.08172     174.5061        13     1.533     0.671 -25.39   0
        72    665.4630    910.9636 307.6337855  +6.3196429     2493.753     4106.505     4586.346     78.33233     156.3545     312.4916      1.700     7.28     860.6738     55.08172     390.5598        21     1.412     1.052 -21.36   0
        73   1017.0980    909.9703 307.4878390  +6.3317767     632.9637     1304.041     1625.497     78.45618     156.0437     310.5906      2.267     5.37     852.6768     55.08172     104.8281         6     1.199     0.679 -21.92  16
        74    956.3818    908.7684 307.5130857  +6.3302514     594.8634     871.7104     696.2755     77.95962     156.1059     312.3673      1.659     5.04     855.2891     55.08172     89.94391         5     1.029     0.699  10.45   0
        75    826.8892    907.4918 307.5668871  +6.3264633     808.2378     1233.195     1494.595     78.33233     156.7886     312.5848      1.647     5.67     858.5256     55.08172     112.7015        10     1.377     0.657 -34.36   0
        76    944.3229    906.6441 307.5181630  +6.3307268      576.908     1009.873     413.2137     78.20829     156.2924     312.5226      1.625     4.20     855.7837     55.08172     85.03687         6     1.097     0.459  84.93   0
        77    375.4973    907.6568 307.7542703  +6.3113097     2466.709     2361.127     2314.395     78.20829     156.2303      312.709      0.758     0.77      863.332     55.08172     825.2138         5     0.535     0.489  61.15   0
