#   1 NUMBER                 Running object number                                     
#   2 X_IMAGE                Object position along x                                    [pixel]
#   3 Y_IMAGE                Object position along y                                    [pixel]
#   4 ALPHA_J2000            Right ascension of barycenter (J2000)                      [deg]
#   5 DELTA_J2000            Declination of barycenter (J2000)                          [deg]
#   6 FLUX_APER              Flux vector within fixed circular aperture(s)              [count]
#   9 FLUXERR_APER           RMS error vector for aperture flux(es)                     [count]
#  12 FLUX_RADIUS            Fraction-of-light radii                                    [pixel]
#  13 FWHM_IMAGE             FWHM assuming a gaussian core                              [pixel]
#  14 BACKGROUND             Background at centroid position                            [count]
#  15 THRESHOLD              Detection threshold above background                       [count]
#  16 FLUX_MAX               Peak flux above background                                 [count]
#  17 ISOAREA_IMAGE          Isophotal area above Analysis threshold                    [pixel**2]
#  18 A_IMAGE                Profile RMS along major axis                               [pixel]
#  19 B_IMAGE                Profile RMS along minor axis                               [pixel]
#  20 THETA_IMAGE            Position angle (CCW/x)                                     [deg]
#  21 FLAGS                  Extraction flags                                          
         1    338.3212     25.4451 307.8047756  +6.6810016      14883.4     20399.27     21849.21     81.11728      161.849     323.6016      1.483     2.96     917.5929     57.04004     2073.618        37     1.368     1.022  74.45   0
         2    665.2761     18.9314 307.6691386  +6.6946525     12543.44      17189.6     18665.15     81.24553     161.9777     323.6016      1.403     2.86     901.5753     57.04004     1890.481        36     1.349     0.988  70.92   0
         3    542.8796     18.6369 307.7200076  +6.6906749     1551.013     2011.446     2275.203     80.98883     161.9134     323.6016      1.334     3.15     904.4858     57.04004     286.5848        15     1.154     0.814  86.64   0
         4    265.3394     15.8836 307.8354228  +6.6824970     7195.155     10630.62     11465.46     81.24553     161.9134     323.6338      1.542     3.14     919.6427     57.04004      1017.67        33     1.324     1.121  72.27   2
         5    686.6880     13.7365 307.6604159  +6.6975138     9155.278     12329.17     13448.01     80.98883     162.0419     323.6016      1.391     2.61     901.4244     57.04004     1662.624        28     1.343     0.887  68.42   3
         6    690.0959     10.9984 307.6590919  +6.6987582      14801.1     20701.99     21995.27     80.60224     161.5915     323.2153      1.423     2.87      901.332     57.04004     2509.935        34     1.295     1.005  73.09   3
         7    656.8928     14.3599 307.6727759  +6.6962592     10339.97     14083.06     15733.99     81.24553     161.7847     323.6981      1.426     2.80     901.3625     57.04004     1785.151        30     1.314     0.933  72.40   0
         8    426.8222     14.4041 307.7683745  +6.6885306     9289.859     12855.09     13203.16     80.73131     161.5915     323.3763      1.468     2.84     908.9055     57.04004       1480.6        33     1.360     0.996  68.45   0
         9    742.4365     13.2079 307.6372682  +6.6995970     2018.103      2612.43     2160.094     80.34349     161.6559     323.3441      1.360     3.11     901.4982     57.04004     305.9648        14     1.150     0.719  70.20   0
        10    666.3101     10.2660 307.6690004  +6.6982646     3627.914     4904.659     6634.415     81.11728     161.9777     323.6338      1.497     2.95     901.1607     57.04004     572.8895        18     1.196     0.784  75.37   0
        11    205.2511     11.1953 307.8605482  +6.6824123     1210.628     2150.856     2478.619     80.47297     161.5915     323.2153      1.975     5.79     920.0567     57.04004     170.6399        15     1.372     1.016   6.29   0
        12     73.1701      7.4568 307.9155542  +6.6795107     3589.351     5295.468      5344.69     80.98883     161.9134     319.0655      1.537     3.12     921.0472     57.04004      508.627        23     1.241     1.004  70.17  16
        13    955.7011      6.9446 307.5488579  +6.7093071     808.3759     1110.902     1341.075     80.86017      161.849     315.5877      1.523     4.22     894.7341     57.04004     128.9283         7     0.800     0.633  70.40  16
        14    163.8615      4.9586 307.8779565  +6.6835947     5742.085     8091.637     8941.062     81.11728      161.849     295.7294      1.448     3.12     919.9882     57.04004     937.2423        28     1.332     0.946  80.27  16
        15     95.4605      4.9452 307.9063776  +6.6812981     765.2993     1020.331     856.6867     81.24553     161.7847     295.5181      1.394     4.32        920.5     57.04004     126.9415         8     1.092     0.561  55.59  16
        16    791.0961      3.2815 307.6173818  +6.7053220     1265.818     1961.775     1871.178     80.86018      154.139     274.1722      1.573     3.37     898.5776     57.04004     256.8723        13     1.221     0.757 -70.65  24
        17    898.1819      1.8558 307.5729306  +6.7094881     2111.033     2550.711     2742.269     76.49323     136.5153     251.9285      1.212     2.46     896.6758     57.04004     397.1127        13     0.913     0.795 -26.51  24
        18    235.1870      1.4163 307.8484400  +6.6874560     859.0167     1141.209     1110.014     71.71637     129.6303     244.8021      1.104     2.66     919.7742     57.04004     197.6166         6     0.687     0.640  15.30  24
        19    644.2249      1.2631 307.6784804  +6.7012421     893.3833      1093.99     1558.953     69.50465      127.525     242.2369      1.061     2.65     900.7846     57.04004       270.09         7     0.973     0.440   0.63  24
        20    244.9497    993.9308 307.8108880  +6.2780317     1678.365     2280.138     2539.318     80.98883     161.7847     323.6016      1.461     3.20     940.9247     57.04004     266.7159        11     1.012     0.692 -86.61   0
        21    762.0959   1023.7497 307.5951698  +6.2830442     1754.044     2045.998     2112.948     69.20441      127.198     242.2369      1.024     2.76     934.3181     57.04004     464.6586         9     1.081     0.432  -1.68  24
        22    555.3367   1018.7339 307.6811841  +6.2781996     9233.009     12974.26     14422.22     81.11728      161.849     309.5924      1.512     2.88     938.3787     57.04004     1351.269        40     1.434     1.092  69.18  18
        23    307.9142   1023.7234 307.7837422  +6.2678458      5221.42     6593.659      7089.57     69.80359     127.9326     242.6234      1.095     2.15     940.6435     57.04004     1588.369        20     1.356     0.628   7.83  27
        24    312.2912   1022.3265 307.7819720  +6.2685694     1325.897     2095.669      2450.57     81.11728      147.371     265.1767      1.808     6.29     940.7255     57.04004     187.8288        15     1.716     0.764  47.89  19
        25    279.4657   1022.5044 307.7955944  +6.2673942     1159.413     1307.818     1212.356     81.11728     145.1644     262.3346      1.304     3.46     940.3963     57.04004     220.3411        11     1.088     0.716  62.65  24
        26    209.1898    993.3774 307.8257535  +6.2770591     834.3782      1037.97     557.3013     80.73131     161.5915     323.4407      1.361     4.94     941.1238     57.04004     128.6155         9     1.233     0.560  66.99   0
        27     69.8190    992.0598 307.8836612  +6.2729178     2962.922     4101.882     4162.794     80.73131     161.7203     323.4407      1.445     3.12     941.0175     57.04004     505.2317        19     1.226     0.885  77.68   0
        28    963.6902    989.9791 307.5125974  +6.3037162     7180.288      10744.3     10996.59     80.98883     161.6559     323.4729      1.583     3.31     928.4635     57.04004     964.1622        35     1.431     1.123  68.51   0
        29    219.9889    986.0601 307.8215167  +6.2804428     694.3907     717.9113     302.3924     80.47297     161.7203     323.3119      1.034     2.63     941.1502     57.04004     143.8218         5     0.662     0.530  89.76   0
        30    646.4094    984.0688 307.6445355  +6.2955592      774.712     1061.387      885.282     80.60224     161.6559     323.4729      1.464     3.75     936.0638     57.04004     133.2839         6     0.829     0.487 -84.25   0
        31    937.4858    981.5052 307.5237618  +6.3063407     2211.972     3183.879     3469.268     81.11728     162.2346     323.6659      1.562     3.15     929.6768     57.04004     297.5959        20     1.206     0.927  84.54   0
        32    270.4319    977.7990 307.8008521  +6.2855474     4999.884     6953.204     7549.067     80.47297     161.6559     323.3441      1.409     2.81     940.5791     57.04004     787.6182        25     1.295     0.909  76.54   0
        33    796.9470    977.9925 307.5822342  +6.3030999      1366.22     1954.202      2780.22     80.60224     161.6559     323.2797      1.494     2.94     933.1368     57.04004     282.8313        15     1.080     0.890 -80.53   0
        34    658.1906    977.5478 307.6398628  +6.2986455     5249.461     7137.549     7097.869     80.47297     161.7203     323.3441      1.391     2.66     935.5594     57.04004     807.8115        22     1.246     0.883  71.60   0
        35   1007.1423    977.4758 307.4949736  +6.3103270     731.0145     1398.633     1625.543     81.24553      161.849     323.5694      1.771     4.35     926.0887     57.04004     107.0349         7     0.907     0.595  78.07   0
        36    480.5461    976.2017 307.7136674  +6.2932542     1116.249     1436.113     1477.178     80.47297     161.6559     323.2153      1.323     3.37     939.1075     57.04004     169.4493         8     0.861     0.655 -80.26   0
        37     39.1082    975.2921 307.8969779  +6.2788069     2529.122     3456.348     3601.461     81.11728     162.3629     323.6338      1.441     2.94     940.9448     57.04004     395.3501        17     1.143     0.883 -78.97   0
        38    889.9341    974.5566 307.5437392  +6.3076231     1078.638     1566.889      1386.38     81.11728     161.7847     323.6338      1.638     4.08     931.2253     57.04004     153.3043         9     0.934     0.672 -68.53   0
        39    982.2446    972.0487 307.5054935  +6.3117377     710.5213     871.0508     672.0117     81.11728     161.7203     323.6016      1.301     3.48     927.2467     57.04004     107.9747         6     0.914     0.745  26.94   0
        40    961.6098    971.2873 307.5140871  +6.3113640     900.0423       1117.2     1185.759     80.73132     161.5271     323.4407      1.396     3.21     928.1569     57.04004     128.7385         8     0.895     0.631 -73.39   0
        41    306.3659    971.3157 307.7861512  +6.2894303     981.7914     1265.545     1001.868     81.11728     161.7203     323.5694      1.255     3.11     940.5008     57.04004     162.8301         8     0.903     0.641 -88.06   0
        42   1014.3577    969.5215 307.4922438  +6.3138516     800.7014     1438.543     1503.723     80.98883      161.849     323.6338      2.178     6.42     925.7589     57.04004     113.5031        10     1.314     0.882  83.12   0
        43    582.8332    970.1078 307.6714020  +6.2991957      1811.34     2454.315     2664.776     81.24553     161.7203     323.6338      1.364     2.82     937.1006     57.04004     356.4196        12     1.086     0.662  86.71   0
        44    622.0570    966.4461 307.6552389  +6.3020201     1556.742     2157.041     2729.094     81.11728      161.849     323.6981      1.469     3.32     936.4108     57.04004     250.7294        13     1.140     0.715  78.85   0
        45     71.9227    966.8600 307.8836390  +6.2833921     721.3889     1212.617     1343.931     81.24553     161.9134     323.5694      1.493     3.80     940.9106     57.04004     122.4262         5     0.856     0.483  64.75   0
        46    302.1070    964.3401 307.7881545  +6.2921672     1590.213     2113.401     1691.455     80.98883     161.7847     323.6981      1.362     3.24     940.4615     57.04004     256.5776        14     1.134     0.789  77.89   0
        47    768.8502    960.2355 307.5944962  +6.3094924     1119.995     1637.824     1663.449     80.98883      161.849     323.5372      1.483     3.61     933.4467     57.04004     184.0071        12     1.166     0.684  85.43   0
        48    906.4001    956.8333 307.5374959  +6.3154898     7542.462     10819.77     10962.77      80.0839     161.6559     323.3441      1.517     3.00     929.9969     57.04004     1019.566        30     1.354     1.023  59.23   0
        49    144.2354    958.7635 307.8538895  +6.2891664     557.9995     811.8672     1168.267     80.86018     161.6559     323.3441      1.454     3.72     940.7178     57.04004     99.92108         5     0.873     0.457 -45.03   0
        50    442.4867    954.1688 307.7302113  +6.3010751     2269.168     3283.449     3194.297     81.24553     161.6559     323.5372      1.477     4.08     939.1998     57.04004     384.3963        21     1.336     0.985  64.95   0
        51    611.3363    953.7776 307.6601159  +6.3068917     547.7194     817.8267     402.8446     80.73132      161.849     323.4729      1.416     3.53      936.394     57.04004     101.6083         5     0.798     0.451 -77.73   0
        52    343.9793    952.2744 307.7711758  +6.2985537     11065.55     15264.03     16254.35     80.73131     161.7203     323.5372      1.437     2.85     940.5955     57.04004       1856.2        37     1.335     1.083  79.31   0
        53    264.0295    951.3422 307.8044023  +6.2962550     8059.544     11412.44     12044.55     80.86017     161.9134     323.4729      1.446     2.80     940.6545     57.04004     1382.864        33     1.320     1.059  76.44   0
        54    182.9705    949.7825 307.8381102  +6.2941761     625.9172     802.3514        851.5     80.73131     161.6559     323.5372      1.515     4.15     940.7501     57.04004     94.21838         6     1.112     0.443 -72.75   0
        55    592.3300    945.7606 307.6682771  +6.3095655     1334.939     1713.475     2180.782     80.98883      161.849     323.6659      1.325     3.81     936.3965     57.04004     221.1791        10     1.079     0.700  61.12   0
        56    776.4509    945.0569 307.5918494  +6.3160131     866.3506     837.6776     529.9415     81.11728      161.849     323.6016      1.186     3.70     933.1559     57.04004     125.7924         6     0.793     0.495  85.39   0
        57    922.3893    942.0892 307.5313506  +6.3221106     1243.627     1936.178     2240.075     80.86017     161.5915     323.4085      1.610     3.38     928.8653     57.04004     166.3478        13     1.046     0.819  60.34   0
        58    154.7095    941.5386 307.8501222  +6.2966296     775.2431     947.1169     1279.388     81.11728     161.9777     323.6659      1.292     3.50     940.5744     57.04004     140.6137         6     0.896     0.454  89.48   0
        59    878.7998    940.5967 307.5495005  +6.3212723     691.9359     1092.314     1177.294     80.47297     161.3981     323.3441      1.337     1.95     930.4042     57.04004     158.9224         5     0.683     0.446  23.18   0
        60    420.9923    939.9614 307.7396142  +6.3062201     727.3531     896.9402      1121.15     80.34349     161.5915     323.3119      1.258     3.70     939.2925     57.04004     126.4965         5     0.693     0.567 -89.89   0
        61    989.4464    937.4493 307.5036614  +6.3262627     783.4169     1018.515     1131.574     81.11728     161.7203     323.6338      1.425     3.84     926.5839     57.04004      115.968         9     0.886     0.807  22.87   0
        62    851.5015    935.5727 307.5610041  +6.3224353     1014.297     1146.501     1169.107     81.24553     161.5915     323.5694      1.373     4.32     931.1255     57.04004      134.241        12     1.014     0.887 -76.32   0
        63    758.4716    935.0549 307.5996505  +6.3195418     1922.535     2404.303     2383.499     80.98883     161.7203     323.5694      1.348     2.83     933.3452     57.04004     305.9082        15     1.075     0.772  84.90   0
        64    582.1426    935.5850 307.6728491  +6.3134256     815.3011     1028.994      910.736     80.47297     161.7847     323.3119      1.474     4.50     936.2495     57.04004     110.3542        10     1.002     0.759  70.16   0
        65    622.7028    931.7430 307.6561367  +6.3163692     1010.562     1073.631     660.2587     80.98883     161.7847     323.7946      1.143     3.68     935.5211     57.04004     155.3099        11     1.086     0.682 -84.62   0
        66      9.1803    931.9125 307.9108694  +6.2957084     1160.615     1701.448     1968.309     80.86017     161.5915     323.4729      1.770     5.06      940.761     57.04004     150.2705        15     1.310     0.905  76.18   0
        67    989.8918    930.7523 307.5037006  +6.3290425     1348.374     1866.177     2478.604     81.11728     161.7847     323.7303      1.488     4.31     926.4983     57.04004     218.8242        15     1.240     0.857  80.04   0
        68    634.0063    931.5510 307.6514496  +6.3168267     689.7745      821.259     625.4838     80.60224     161.6559     323.2153      1.380     3.20     935.2899     57.04004     114.2523         6     0.921     0.492  76.50   0
        69    543.5517    930.6340 307.6890394  +6.3141776     1380.005      1857.14     2078.435     80.86018      161.849     323.5372      1.437     3.87     936.6063     57.04004     248.1575        12     1.301     0.634  70.23   0
        70    677.1138    928.4213 307.6336554  +6.3195608     2933.345     3894.717     3625.219     81.11728     161.5915     323.4729      1.393     3.00     934.3665     57.04004     466.7491        16     1.169     0.808  73.88   0
        71    485.2014    928.6331 307.7133349  +6.3130491     534.4374     569.3559     418.4528     80.34349     161.6559     323.3441      1.200     3.43     937.8428     57.04004     81.89154         5     0.759     0.448 -16.83   0
        72    967.1274    925.8425 307.5133177  +6.3303106     663.4039     964.0014     768.8678     80.98883     161.9134     323.6338      1.730     5.33     927.0068     57.04004     93.56671         7     1.294     0.620  81.93   0
        73     73.6345    924.3194 307.8843654  +6.3010121     3352.479     4679.566     4692.189     80.98883     161.9134     323.6338      1.514     3.15     940.6863     57.04004     499.7132        24     1.395     0.952  76.85   0
        74    837.8190    924.7179 307.5670495  +6.3264600     926.2649     1106.422     900.1499     80.73131     161.5271     323.5372      1.374     3.95     931.2242     57.04004     137.4587         9     0.928     0.717 -89.01   0
        75    574.6099    924.6783 307.6763435  +6.3176763     575.6769     745.4903     537.8154     80.73132     161.5271     323.4729      1.356     3.88     936.0955     57.04004     80.47339         5     1.011     0.426  75.03   0
        76     91.0374    923.7791 307.8771581  +6.3018206     2258.104     3077.219     3373.121     80.73131     161.5915     323.3441      1.406     2.85     940.6696     57.04004     377.2508        17     1.168     0.881 -78.96   0
        77    955.2708    923.1992 307.5183296  +6.3310065     763.4255     1223.066     1266.158     80.47297     161.3981     323.4085      1.673     4.94     927.2462     57.04004     118.4691         9     1.016     0.824 -63.84   0
