#   1 NUMBER                 Running object number                                     
#   2 X_IMAGE                Object position along x                                    [pixel]
#   3 Y_IMAGE                Object position along y                                    [pixel]
#   4 ALPHA_J2000            Right ascension of barycenter (J2000)                      [deg]
#   5 DELTA_J2000            Declination of barycenter (J2000)                          [deg]
#   6 FLUX_APER              Flux vector within fixed circular aperture(s)              [count]
#   9 FLUXERR_APER           RMS error vector for aperture flux(es)                     [count]
#  12 FLUX_RADIUS            Fraction-of-light radii                                    [pixel]
#  13 FWHM_IMAGE             FWHM assuming a gaussian core                              [pixel]
#  14 BACKGROUND             Background at centroid position                            [count]
#  15 THRESHOLD              Detection threshold above background                       [count]
#  16 FLUX_MAX               Peak flux above background                                 [count]
#  17 ISOAREA_IMAGE          Isophotal area above Analysis threshold                    [pixel**2]
#  18 A_IMAGE                Profile RMS along major axis                               [pixel]
#  19 B_IMAGE                Profile RMS along minor axis                               [pixel]
#  20 THETA_IMAGE            Position angle (CCW/x)                                     [deg]
#  21 FLAGS                  Extraction flags                                          
         1    639.0922     22.1015 307.6783903  +6.6875760     3824.165     5847.491     6003.969     80.87726     161.8824      322.612      1.594     4.27     897.2923     56.87126     565.5723        23     1.522     0.821  55.31   0
         2    439.2708     18.3909 307.7615161  +6.6823889     6235.297      9590.34     9728.806     80.36375     160.9205     322.4836      1.643     4.23     903.2217     56.87126      891.001        31     1.594     0.935  54.02   0
         3     40.2452     17.9336 307.9272697  +6.6691184     8431.026     13318.43     13731.82     80.87725      161.306     322.6761      1.675     4.27       914.76     56.87126     1198.294        35     1.624     0.980  52.96   0
         4    430.9946     14.6518 307.7650796  +6.6836541     804.2886     1284.209     1307.746     80.23485     161.1776      322.291      1.725     5.68      903.691     56.87126     119.8335        11     1.300     0.699  55.18   0
         5    335.8183     13.3160 307.8046578  +6.6810000     12597.31     19815.35     21162.14     80.49243     161.0491     322.5799      1.687     4.09     909.7397     56.87126     1690.691        37     1.627     0.966  55.40   0
         6    109.5483     13.6756 307.8986287  +6.6732180     2563.639     3754.067     3539.859     80.87726     161.4343      322.644      1.660     4.25     914.9785     56.87126     397.8997        21     1.491     0.840  54.04   0
         7    804.2119     12.2879 307.6101308  +6.6971699     840.5474     1243.863     975.4282     80.49243     161.0491     322.5157      1.408     4.67     893.3306     56.87126     148.3782         9     1.494     0.414  65.60   0
         8    402.1320     11.3449 307.7771795  +6.6840477     2232.588     3537.987     3839.811     80.87726     161.2418     322.5799      1.725     4.08     905.5206     56.87126     336.6414        20     1.557     0.776  54.61   0
         9    100.8226     12.3961 307.9022961  +6.6734515     1602.631     2235.394     2350.209     80.49243     161.0491     322.4515      1.487     4.40     915.2228     56.87126      255.216        13     1.254     0.673  56.15   0
        10    662.8217      6.8659 307.6690449  +6.6946638     11083.74     16825.22     17818.59     80.49242     161.3701     313.7975      1.589     4.11     896.1415     56.87126     1774.835        36     1.587     0.936  51.14  16
        11     80.8505      8.0250 307.9107390  +6.6745816     647.7935     1052.789     746.9096     80.49243     161.3701     321.2295      1.718     4.53     915.0048     56.87126     92.59241         7     1.346     0.433  68.60  16
        12    540.6472      6.7566 307.7197979  +6.6906032     1307.513     1951.533     1898.795     80.87726      161.306     312.8726      1.533     4.38     899.8451     56.87126     217.9176        14     1.371     0.683  58.52  16
        13    827.3737      6.1657 307.6007147  +6.7004744     1660.215     2222.807     2227.678     80.36375     161.1776     307.5342      1.493     4.76     893.4387     56.87126     320.6844        14     1.463     0.628  51.86  16
        14    262.7831      3.7088 307.8353177  +6.6825047     6449.388     10510.29     11662.92     80.62091     156.8163     279.0195      1.741     4.22     912.7397     56.87126     853.2776        34     1.590     1.066  55.75  26
        15    897.8726      4.4166 307.5714882  +6.7035593     1503.224     2220.616      1894.98     80.36375      161.306     288.4309      1.563     4.05     893.6718     56.87126     232.2859        13     1.233     0.682  43.32  16
        16    654.5484      2.4982 307.6726281  +6.6961894     9542.832      12719.3     13272.62     80.74918     144.6633     261.7561      1.483     3.94     896.2173     56.87126     1527.523        27     1.388     0.891  49.23  24
        17    439.9811      4.7382 307.7616803  +6.6880499     492.0489      807.553     801.3423     80.49243      161.306     292.1744      1.783     3.91     903.3022     56.87126       100.15         5     0.846     0.517  57.51  16
        18    424.3926      2.5465 307.7682291  +6.6884300     8225.006     11326.98     11198.24     80.36375     145.0206     262.0723      1.535     4.22     904.2484     56.87126     1106.176        28     1.398     0.961  48.07  24
        19    685.3853      1.8969 307.6598389  +6.6974732     7067.652     11620.42     12428.94     76.67293      136.491     251.8415      1.761     8.03     895.6179     56.87126     1201.862        27     1.882     0.957  -8.62  24
        20    740.3062      1.7507 307.6370301  +6.6993770     1632.276     1903.772     1972.762     75.44826     134.6589      249.861      1.126     2.43     895.2281     56.87126     319.8406         9     0.796     0.685  47.96  24
        21     73.9503   1000.7357 307.8801174  +6.2644681     738.1494     1069.585     1130.884     80.74918      161.306     322.6761      1.462     4.35     932.8885     56.87126     143.4985         7     1.299     0.415  44.63   0
        22    373.2765   1023.3640 307.7551273  +6.2652127     1285.133     1668.197     1639.331     74.06377     133.1128     248.0735      1.308     2.98     934.3642     56.87126     252.5754        10     1.029     0.653  21.82  24
        23    221.8044   1023.0508 307.8180031  +6.2602408     455.4529     486.0083     155.2229     76.67293     137.0963     252.6211      1.220     3.86     935.2339     56.87126     85.71625         5     0.827     0.517  39.92  24
        24    492.4985    998.9537 307.7064651  +6.2793016     2244.876     3620.939     3630.238     80.87725     161.1776     322.8365      1.735     4.15     932.4045     56.87126     293.2175        20     1.498     0.815  51.70   0
        25    926.8602    991.0382 307.5264436  +6.2971400     41154.77     68301.86     73016.31     80.87726     161.4343     322.6761      1.773     4.22     923.0131     56.87126     5716.502        71     1.837     1.155  49.12   0
        26      1.1957    991.2963 307.9106302  +6.2659092     1149.941     1656.004     1546.925       68.397     125.8385      240.188      1.164     3.30       932.71     56.87126     333.4375         8     1.303     0.396  89.32  24
        27    234.1263    989.2872 307.8140255  +6.2745970     1658.916     2820.971     2264.966     81.00513     161.6905      322.644      1.728     4.78     934.4703     56.87126     254.1057        19     1.595     0.787  57.83   0
        28    122.0509    987.8960 307.8605872  +6.2713926      725.797     1402.329     1255.933     80.74918      161.306     322.8365      1.916     5.10     933.0168     56.87126     111.7035         9     1.333     0.552  64.12   0
        29    772.9996    982.6187 307.5905882  +6.2954626     6407.517     10311.26     11167.32     80.49242     160.9205     322.3231      1.741     4.13     926.5995     56.87126     847.1125        39     1.782     1.154  57.46   0
        30    633.3936    987.7191 307.6483628  +6.2886734     968.0031     1202.562     769.5195     80.49243     160.9205     322.4515      1.350     4.29     930.0592     56.87126     139.9276         8     0.959     0.636  87.67   0
        31    824.7986    984.8165 307.5690145  +6.2962911     2312.927     3812.038     4034.759     80.49242     160.9205     322.4194      1.695     4.48     925.1348     56.87126     355.4354        21     1.526     0.922  49.35   0
        32    559.8863    982.1523 307.6790594  +6.2885035     999.8062     1304.969     1128.788     80.87725      161.306      322.644      1.566     5.23     931.5267     56.87126     163.7791        11     1.446     0.533  59.00   0
        33    242.8628    981.7720 307.8106524  +6.2779944     1446.408     2097.091     1748.232     80.49242     161.3701     322.5799      1.623     5.38     934.3234     56.87126     234.9058        14     1.283     0.793  59.19   0
        34    207.1685    981.2181 307.8254855  +6.2770202     834.8154     1566.864     2016.476     80.49242     161.1776     322.5157      2.183     5.65     933.9421     56.87126     116.7633         9     1.339     0.672  52.99   0
        35    961.2607    977.8027 307.5126070  +6.3037564     6239.362      10588.3     11255.67     80.23485     161.1134     322.3552      1.787     4.40     921.9066     56.87126     784.7349        36     1.727     1.047  49.65   0
        36     67.3019    979.6417 307.8835877  +6.2729533      2764.98     4176.458     3959.532     80.87726     161.2418     322.8685      1.636     4.53     932.8529     56.87126     390.8381        21     1.504     0.848  53.72   0
        37    217.4397    973.4574 307.8214838  +6.2805708     622.1414      757.463     824.1654     80.87726     161.4343     322.6761      1.436     4.21     933.9363     56.87126     133.7947         7     1.127     0.448  60.78   0
        38    643.6760    972.1500 307.6446169  +6.2954472     784.5526     1090.581      549.178     80.74918     161.4343      322.644      1.430     4.72     929.3796     56.87126      122.188         8     1.063     0.594  36.66   0
        39    935.1765    969.3226 307.5237174  +6.3063851     1964.539     3279.504     3567.004     80.49243     161.2418      322.612      1.755     4.26     922.3837     56.87126     291.9155        24     1.514     1.016  58.86   0
        40    794.6806    966.0043 307.5821451  +6.3030497     1236.043      1929.48     2220.919     80.49242     160.9205     322.3873      1.760     4.09     925.4291     56.87126     199.5677        11     1.228     0.596  61.54   0
        41    655.7266    965.3373 307.6398434  +6.2986647     4476.911     6952.267      6927.53     81.00513     161.3701      322.644      1.621     4.28     928.9764     56.87126     668.9744        26     1.520     0.914  49.11   0
        42    267.9269    965.4971 307.8007974  +6.2855588     4555.977     6873.853     7123.053     80.49242     161.4984      322.612      1.609     4.01     934.0856     56.87126     618.7339        25     1.447     0.891  53.55   0
        43   1005.1425    964.8558 307.4948251  +6.3105705     721.0507     1208.088     1405.571     81.00513     161.4343     322.7082      1.494     3.66      920.145     56.87126     129.7416         7     0.986     0.569 -88.82   0
        44    478.3005    964.1520 307.7135264  +6.2931942      1197.84     1606.649     1772.745     80.87726     161.2418     322.8365      1.429     4.73     932.2789     56.87126     174.1796        11     1.342     0.622  56.77   0
        45     36.6964    962.9720 307.8968519  +6.2788029     2250.955     3387.401     3431.225     81.00512     161.1134     322.5799      1.597     4.25     932.7902     56.87126     326.5057        20     1.481     0.839  47.17   0
        46    887.4648    961.8336 307.5437720  +6.3078802     857.2055     1320.554     1423.873     80.74918     161.3701      322.612      1.478     4.87     923.5143     56.87126      127.084         9     1.290     0.520  64.56   0
        47    959.1953    958.7924 307.5140996  +6.3115370      888.683     1250.674     1018.315     80.23485     161.1134     322.4836      1.603     6.17     921.3783     56.87126     116.3004        12     1.264     0.846  72.50   0
        48    303.8432    959.0979 307.7861056  +6.2894108     986.8478     1465.517     1792.673     80.87725      161.306     322.8685      1.566     5.12      934.078     56.87126     143.4539        11     1.331     0.593  56.63   0
        49    580.6510    958.0704 307.6712485  +6.2991447     1535.813     2349.745     2113.594     80.74918      161.306     322.6761      1.585     4.20     930.4589     56.87126     233.0297        15     1.351     0.745  57.41   0
        50   1011.8345    957.2834 307.4923002  +6.3139211     773.1339     1474.441     1954.428     80.87726     161.3701      322.612      2.320     6.64     919.5155     56.87126     103.6695        12     1.263     0.979 -53.05   0
        51     69.6252    954.8416 307.8834595  +6.2832715       727.27     1263.888     1317.056     80.49243      161.306     322.4194      1.249     3.72      932.836     56.87126     133.2345         6     1.265     0.315 -72.55   0
        52    619.6283    953.9871 307.6552072  +6.3021396     1305.461     1994.968     1848.056     80.36374     161.1776     322.5478      1.534     4.98     929.3799     56.87126     228.6108        13     1.492     0.651  50.55   0
        53    299.5894    951.9520 307.7881115  +6.2922182     1311.395     2151.194      2450.86     80.36374     161.2418     322.3231      1.872     5.35     934.0052     56.87126     180.6873        17     1.550     0.801  59.77   0
        54    766.5760    948.3177 307.5944028  +6.3094106      869.712     1269.916     989.6452     80.74918     161.1134     322.5799      1.729     5.36     926.0027     56.87126      134.183        10     1.271     0.638  69.37   0
        55    903.9207    944.7031 307.5375142  +6.3155046     6768.417     10623.15     11005.77     80.62091     161.6265     322.7403      1.654     4.05     922.7882     56.87126     891.3704        34     1.636     0.982  49.22   0
        56    608.7277    942.0527 307.6601319  +6.3067014     468.1282     380.3361     78.37814     80.74918     161.3701     322.6761      1.403     3.94     929.1319     56.87126     111.3806         6     1.423     0.312  76.77   0
        57    439.8417    941.7396 307.7302418  +6.3011552     2398.228     3644.929     3385.613     80.87726     161.3701     322.7082      1.539     4.25     932.5228     56.87126     400.7969        19     1.502     0.768  49.17   0
        58    341.5602    940.1549 307.7710880  +6.2985024     9827.261     15016.28     15667.15     80.62091     161.3701     322.5478      1.637     4.02     933.8096     56.87126     1534.786        39     1.610     0.988  54.75   0
        59    261.6017    939.0737 307.8043117  +6.2962560     7259.261     11257.31      11479.1     80.36374     160.7919     322.5157      1.638     4.16     933.5775     56.87126      1090.96        30     1.585     0.882  51.13   0
        60    589.5363    933.4725 307.6683855  +6.3095998      1240.13     1811.261     1902.608     80.87726     161.3701     322.6761      1.769     5.89     929.4664     56.87126     183.8947        12     1.603     0.609  37.96   0
        61    919.8489    929.6459 307.5314060  +6.3222552      1067.36     1750.451     2442.094     80.87726     161.2418     322.6761      1.720     5.17     922.0893     56.87126     140.9847        14     1.378     0.799  59.06   0
        62    876.3829    929.5455 307.5494517  +6.3208413     733.2397     1173.438      902.206     80.36375      161.306     322.3873      1.444     3.82     923.3148     56.87126     126.7913         9     1.115     0.761 -82.60   0
        63    986.6810    924.6642 307.5038308  +6.3265488     772.1917     1047.666     1411.723     81.13279     161.4343      322.612      1.450     5.02     919.1202     56.87126     106.6583         9     1.205     0.593  43.60   0
        64    849.1026    923.3496 307.5609828  +6.3224860     569.1902     906.1895     772.4577     80.74918      161.306     322.8044      1.546     4.20     923.6855     56.87126     98.12262         7     1.164     0.433  57.40   0
        65    756.2725    922.7039 307.5995372  +6.3196415     1869.657     2832.419     3135.374     80.62091     161.4984      322.612      1.715     4.51      925.764     56.87126     249.9237        17     1.381     0.843  65.38   0
        66    987.5139    918.7938 307.5036812  +6.3290007     1008.602      1607.15     1672.653     80.36375     161.0491     322.3873      1.646     5.57     918.9624     56.87126     140.0059        12     1.293     0.691  54.60   0
        67    632.1185    919.5342 307.6511779  +6.3167849     732.6445     1050.603     1077.768     81.13279     161.6265     322.6761      1.664     4.28     928.2957     56.87126       96.948         7     0.905     0.576  82.40   0
        68    620.2337    919.5583 307.6561103  +6.3163759     865.9645     1479.012     1794.626     80.62091     161.3701     322.4836      1.671     4.25     928.3882     56.87126     121.7281         8     0.991     0.564  70.46   0
        69    541.1416    918.4303 307.6889777  +6.3141852     1136.309     1669.405     1744.449     80.62091     161.3701     322.5799      1.641     4.98     930.6422     56.87126     203.9205        15     1.559     0.740  52.12   0
        70      7.0697    919.8861 307.9106012  +6.2955922     911.7847     1407.775     1470.056     81.00513     161.6265     315.5079      1.624     4.17     932.3636     56.87126     137.6298         7     0.993     0.560  56.55  16
        71    674.5372    916.1361 307.6336845  +6.3196117     2558.757     3837.436     3632.364     80.87726     161.3701     322.6761      1.597     4.71     927.8088     56.87126     457.2059        18     1.402     0.755  51.92   0
        72    966.0677    914.1931 307.5127372  +6.3301829     554.3391     920.1856      1399.97     80.36374     161.1134     322.4515      1.696     4.33     919.7651     56.87126     99.58008         5     1.353     0.395  -0.45   0
        73     71.3513    912.1041 307.8841838  +6.3009758     2773.789     4613.883     4850.481     80.74918     161.2418     322.8044      1.757     4.40     932.4077     56.87126     391.1268        26     1.616     0.933  61.82   0
        74    952.7847    911.7122 307.5183339  +6.3307628     673.0189     1051.373     867.4726     80.62091     161.1134     322.5157      1.629     4.65     920.2368     56.87126     129.1324         9     1.361     0.629  62.33   0
        75    835.4206    912.4434 307.5670270  +6.3265310     929.3742      1458.26     1283.309     80.36375     161.2418     322.4836      1.726     5.61      923.639     56.87126     128.9047        11     1.203     0.738  61.07   0
        76    214.7120    911.1801 307.8247124  +6.3061931     2218.922     3323.893      3670.83     80.62091     161.1134     322.5478      1.553     4.69     932.9194     56.87126     312.0709        17     1.499     0.721  50.85   0
        77     88.6627    911.4472 307.8770209  +6.3018313     1965.478       3120.3     3068.032     80.74918     161.2418     322.6761      1.647     4.85     932.5021     56.87126     272.2817        20     1.581     0.837  51.80   0
