#   1 NUMBER                 Running object number                                     
#   2 X_IMAGE                Object position along x                                    [pixel]
#   3 Y_IMAGE                Object position along y                                    [pixel]
#   4 ALPHA_J2000            Right ascension of barycenter (J2000)                      [deg]
#   5 DELTA_J2000            Declination of barycenter (J2000)                          [deg]
#   6 FLUX_APER              Flux vector within fixed circular aperture(s)              [count]
#   9 FLUXERR_APER           RMS error vector for aperture flux(es)                     [count]
#  12 FLUX_RADIUS            Fraction-of-light radii                                    [pixel]
#  13 FWHM_IMAGE             FWHM assuming a gaussian core                              [pixel]
#  14 BACKGROUND             Background at centroid position                            [count]
#  15 THRESHOLD              Detection threshold above background                       [count]
#  16 FLUX_MAX               Peak flux above background                                 [count]
#  17 ISOAREA_IMAGE          Isophotal area above Analysis threshold                    [pixel**2]
#  18 A_IMAGE                Profile RMS along major axis                               [pixel]
#  19 B_IMAGE                Profile RMS along minor axis                               [pixel]
#  20 THETA_IMAGE            Position angle (CCW/x)                                     [deg]
#  21 FLAGS                  Extraction flags                                          
         1    678.1994     22.9657 307.6589519  +6.6987219     15078.27     20990.15     21697.33     79.01543     159.2408     318.5451      1.433     3.41     868.4291     56.18788     2336.744        34     1.445     0.867  60.75   3
         2     61.1377     19.2538 307.9154694  +6.6794978     3716.221     4938.458     5295.541     79.90541     159.3677     318.7354      1.411     3.37     889.6236     56.18788      551.343        22     1.285     0.857  57.60   0
         3    151.8735     16.6484 307.8778578  +6.6836338     5781.367     8255.504     8807.624     79.90541     159.4944     318.7988      1.528     3.53     889.0482     56.18788     826.0977        28     1.398     0.896  63.57   0
         4    779.2266     15.1884 307.6172335  +6.7053184     1475.326     2138.193     2423.322     79.52521     159.2408     318.7037      1.577     3.03     866.2394     56.18788     272.3433        13     1.076     0.752  77.61   0
         5    886.0516     13.1130 307.5729136  +6.7097513     2363.493     3111.384     3393.679     79.90541     159.3043     318.8621      1.347     3.37     866.0204     56.18788     416.0696        13     1.168     0.614  66.39   0
         6    632.0707     12.2897 307.6784782  +6.7015824      1380.12     1682.438     1900.755     79.77888     159.6843     318.7671      1.308     3.57      868.592     56.18788     204.1114        12     1.097     0.726  58.95   0
         7    223.2659     12.8658 307.8483222  +6.6876014     1069.443      1249.32     1076.995     79.90541     159.4311     318.7988      1.339     3.69     888.9321     56.18788     190.6456        10     1.115     0.596  47.72   0
         8    971.4230     10.3995 307.5375294  +6.7137267     928.3383     1301.785     921.8433     79.52521     159.1139     318.5451      1.600     3.20     862.1576     56.18788     191.1349         9     1.095     0.573  57.13   0
         9    838.3746     10.8028 307.5928027  +6.7091095     945.3057     1328.543     1496.051     79.52521     159.1139     318.5768      1.513     3.53     865.5634     56.18788     154.2668         8     0.928     0.602 -81.58   0
        10    738.3961     10.5354 307.6343560  +6.7058715     1649.957     2201.094     2014.944     79.14318     159.1774     318.5451      1.426     3.79     867.8157     56.18788     260.7952        15     1.240     0.767  45.98   0
        11    794.9746      4.1128 307.6110614  +6.7104184     3428.186     4692.432     4772.183     80.03174     157.7109     280.8585      1.399     3.46     864.7658     56.18788     592.4575        16     1.208     0.705  57.97  16
        12    222.4826      2.8974 307.8489842  +6.6916903     993.8483     1180.362     1183.633     79.90541     147.7901      264.482      1.323     3.51     888.8068     56.18788     145.7834        10     0.913     0.817 -82.62  24
        13    102.8537      3.6329 307.8986648  +6.6873540     596.4557     840.0754     707.5884     79.77888     154.7362      274.749      1.332     2.30     889.1602     56.18788     137.4965         5     0.731     0.422  23.02  16
        14    620.8232      1.1921 307.6835250  +6.7057867     1858.094     2288.505     2425.806     67.12511     124.3264      237.387      0.979     2.22     868.3613     56.18788     631.3333        10     1.180     0.384   4.53  24
        15    925.5377    993.5551 307.5236688  +6.3062803      2313.85     3314.115     3244.536     79.77888     159.3677     318.8621      1.579     3.57     897.7095     56.18788      330.693        18     1.396     0.812  63.15   0
        16    529.4484   1023.6672 307.6871146  +6.2805832     564.7106     688.2995     1024.952     69.34595     126.5812     239.7584      1.282     3.89     905.8452     56.18788     142.7463         6     0.987     0.611 -18.80  24
        17    483.0196   1022.6807 307.7064241  +6.2794323     2360.897     2981.481     2972.662     78.88746     140.2853     255.6641      1.415     3.65     905.7549     56.18788     331.5784        16     1.175     0.856  58.49  24
        18     64.4561   1023.8276 307.8801593  +6.2648793     468.8491     539.9187     448.1796     67.12512     124.0824     237.0036      0.955     3.52     908.4062     56.18788     145.3722         5     0.985     0.363  -6.47  24
        19    785.1552    990.2116 307.5820690  +6.3029652     1332.666     1984.222     1613.321     79.39806     159.3043     318.4817      1.591     3.91     901.3275     56.18788     193.2759        13     1.231     0.751  50.59   0
        20    646.1696    989.3525 307.6398051  +6.2986647     5191.274     7288.368     7058.172     79.52521     159.4311      318.672      1.477     3.41     905.1762     56.18788     798.3069        24     1.391     0.848  54.67   0
        21    258.4185    989.5599 307.8007884  +6.2855583     4818.795     6728.686     6803.331     79.52521     159.2408     318.5134      1.493     3.39      909.856     56.18788     676.0366        22     1.314     0.854  65.12   0
        22    995.4496    988.4965 307.4948097  +6.3107048     746.9771     1223.005     1482.073     79.77888     159.3677     318.9255      1.874     6.35     895.1057     56.18788      103.197        10     1.422     0.797  86.48   0
        23    468.3317    987.7645 307.7136960  +6.2933546     1369.286     2050.677     2379.667     79.77888     159.4944     318.8621      1.653     3.68     906.1642     56.18788     191.9093        14     1.237     0.732  67.22   0
        24     27.0288    986.9009 307.8969440  +6.2788626     2430.556     3669.931     3899.976     79.90541     159.1774     318.7671      1.581     3.61     908.2946     56.18788     326.8862        19     1.329     0.865  66.13   0
        25    877.9044    985.8122 307.5437060  +6.3078846     1075.496     1678.476     1444.321     79.65214     159.1774     318.5451      1.696     5.11     899.2127     56.18788     147.0932        12     1.320     0.653  79.30   0
        26    969.4951    983.4937 307.5057538  +6.3119033     663.7748     1054.603     310.5764     79.90541     160.0004     318.7037      1.657     5.45     895.8837     56.18788     78.72034         8     1.448     0.579  73.73   0
        27    294.5711    983.2585 307.7859907  +6.2893760     959.5096     1044.579     587.2336     79.52521     159.4944      318.672      1.425     5.00     909.6445     56.18788     142.0328         9     1.004     0.714  82.37   0
        28   1002.1956    981.7264 307.4922351  +6.3137254     827.6869     1706.792     1917.739     79.52521     158.9869     318.6403      2.149     6.42     894.5204     56.18788     123.7601         9     1.427     0.812  87.55   0
        29    949.7479    983.2307 307.5139619  +6.3113521     691.0296     943.1086     351.0845     79.77888     159.5578     318.7037      1.502     4.71     896.6371     56.18788     115.2545         8     1.248     0.505  31.39   0
        30    570.8653    982.0750 307.6713157  +6.2991445     2005.314     2711.881     2762.917     80.03174     159.4311     318.7354      1.406     3.57     905.8018     56.18788     296.0649        14     1.207     0.722  62.55   0
        31     59.8251    978.8010 307.8836016  +6.2833123     692.7615     1149.225     1227.666     79.52521     159.1139     318.5451      2.287     5.66     908.2446     56.18788     108.2708         9     1.531     0.589  45.63   0
        32    609.8792    978.1091 307.6552503  +6.3020902     1348.708     1709.932     995.0862     79.65215      159.621     318.8304      1.406     4.51     905.6049     56.18788     184.7986        14     1.293     0.712  56.88   0
        33    289.9190    976.1326 307.7881622  +6.2921615     1679.393     2440.456     2754.066     80.03174     159.6843     318.7987      1.382     3.62      909.699     56.18788     281.3872        14     1.267     0.712  80.35   0
        34    558.2806    974.3332 307.6768009  +6.3019186     707.3425      924.883     1086.656     80.03174     159.6843     318.7671      1.509     3.77     905.8122     56.18788     127.3743         5     0.849     0.479  46.18   0
        35    757.2535    972.2637 307.5942556  +6.3094413     963.7684     1428.058     1094.258     79.90541     159.3677     318.7354      1.616     4.14     901.9462     56.18788     166.7147        11     1.265     0.647  63.47   0
        36    894.4439    968.7016 307.5374114  +6.3155021     7717.081     11435.08     12057.15     79.90541     159.3677     318.9888      1.619     3.52       898.25     56.18788      1000.72        35     1.515     1.027  57.64   0
        37    132.3913    969.8766 307.8537754  +6.2894419     614.3768     941.0608     1203.631     79.52521     158.9233     318.5768      1.779     4.47     908.2208     56.18788     129.1304         7     1.110     0.512  62.90   0
        38    103.7983    967.3816 307.8657306  +6.2895087     556.4972     608.1901     503.9629     79.52521     158.9869     318.4817      1.403     3.92     908.1116     56.18788     111.8143         7     1.250     0.617  44.17   0
        39    430.3221    965.7023 307.7302192  +6.3011868     2257.685     3053.814     3082.872     79.52521     159.6843     318.7671      1.501     3.54     906.9575     56.18788     335.2536        19     1.346     0.816  62.11   0
        40    331.9584    964.1847 307.7711103  +6.2985079     10620.22     15023.38     15835.27     79.39806     159.1774     318.5134      1.475     3.38     908.5601     56.18788     1517.541        33     1.390     0.936  63.43   0
        41    252.0149    963.0233 307.8043410  +6.2962986     7891.724     11387.12     12072.11     79.65215     159.2408      318.672      1.504     3.59     909.4712     56.18788     1073.975        30     1.407     0.940  58.22   0
        42    764.5524    957.4492 307.5917216  +6.3158021     766.9778     862.4222     262.6772     79.90541     159.3043     318.7988      1.415     5.28     901.4647     56.18788     114.7261        10     1.139     0.693  64.91   0
        43    580.0930    957.7042 307.6683028  +6.3095158     1407.857     1835.392     1921.638     79.90541     159.9372     318.7037      1.487     4.28     905.5515     56.18788     182.1053        12     1.082     0.745  58.82   0
        44    910.1165    953.6215 307.5314086  +6.3222522     1098.714      1638.24      1586.45     79.65214     159.1139     318.6403      1.592     3.32      897.532     56.18788     197.1846        10     1.098     0.668  51.47   0
        45    142.9140    953.4100 307.8499619  +6.2965946     673.8028     901.3504     457.8154     79.52521     159.1139     318.6086      1.427     3.89     908.1445     56.18788     120.6368         7     1.036     0.515  66.51   0
        46    866.7815    952.5525 307.5494381  +6.3212445     890.3706     1351.593      1025.97     79.39807     159.4311     318.5768      1.589     4.41     898.4135     56.18788     128.4442         7     1.153     0.479  51.52   0
        47    408.6377    952.0177 307.7396828  +6.3061082     723.3126      996.552      963.461     79.52521     159.3043     318.5134      1.434     3.86     907.2985     56.18788     110.2924         6     1.014     0.421  75.47   0
        48    214.2040    952.8644 307.8203819  +6.2992203     646.2173     628.3277     744.4634     79.14317     159.1139     318.5451      1.193     4.60     909.0397     56.18788     109.5864         9     1.065     0.671  16.69   0
        49    977.7171    949.5196 307.5034763  +6.3262050     786.9478     1243.054     1705.542     79.90541     159.6843     318.8304      1.751     4.34     894.1868     56.18788     114.9108         7     0.990     0.543  53.80   0
        50    773.1796    950.1454 307.5883842  +6.3191064     465.7722     358.5891     -299.787     79.39806     159.4311     318.5768      1.276     4.38     901.1049     56.18788     77.96588         5     0.864     0.632  46.77   0
        51    839.2813    947.4763 307.5610268  +6.3224205     787.3976     1029.924     824.7726     80.15788     159.6843     318.8938      1.468     4.64     899.0238     56.18788     109.4893        10     0.996     0.834 -61.12   0
        52    746.6054    946.9489 307.5995255  +6.3195364     1801.848     2592.844     2529.803     79.27072     159.3043     318.4182      1.467     3.53      901.884     56.18788     279.4653        17     1.314     0.783  68.66   0
        53    570.4427    948.0068 307.6726354  +6.3131958     843.5096     1256.388     1136.045     79.39806     159.1774     318.4817      1.635     3.73     905.5782     56.18788     133.7551         8     0.981     0.581  48.06   0
        54    610.6406    943.9501 307.6560810  +6.3162187     901.5694     1195.542     797.8389     80.03174     159.4311     318.7037      1.409     4.19     905.0065     56.18788     137.1418        12     1.246     0.701  68.87   0
        55    977.9352    942.5957 307.5036173  +6.3290709     1354.589     2156.904     2435.286     79.14317     159.1139     318.5451      1.731     4.75     893.9026     56.18788     185.1853        15     1.275     0.829  57.39   0
        56    622.4716    943.3342 307.6511893  +6.3168697     684.3189     937.4892     576.9318     79.90541     159.4944     318.8304      1.404     4.50     904.7927     56.18788     100.1973         7     1.221     0.470  50.87   0
        57    531.6373    942.5953 307.6889296  +6.3141281     1276.629     1817.535     1695.414     79.01543     159.1774     318.5768      1.602     4.84     905.9211     56.18788     169.0926        12     1.217     0.718  70.64   0
        58    665.2068    940.1431 307.6335520  +6.3196196     2871.199     4005.451      3528.56     79.39806     159.3043     318.4817      1.439     3.31       903.97     56.18788      457.319        18     1.293     0.780  67.74   0
        59   1016.0214    939.3948 307.4879098  +6.3316646     567.1245     797.2834     754.7754     79.52521     159.1774     318.5768      1.548     3.63     891.2513     56.18788     118.2855         6     1.056     0.762  82.92   0
        60    955.7399    938.0189 307.5129866  +6.3302189     671.7584     899.9044     1210.549     79.52521     159.3043     318.6086      1.472     3.80     895.1534     56.18788     110.5928         5     0.817     0.508  35.82   0
        61     61.6755    936.0956 307.8842749  +6.3010054     3104.057     4430.126     4674.444     79.52521      159.621     318.8304      1.552     3.62     908.0906     56.18788     442.9265        19     1.315     0.829  71.28   0
        62    825.7116    936.3372 307.5670344  +6.3265655      899.794     1418.321     1507.838     79.77888      159.621     318.7988      1.636     3.04     899.1604     56.18788     143.9728         8     0.955     0.546  65.55   0
        63    205.1136    935.1768 307.8247523  +6.3062167     2494.729     3534.002     3267.227     79.90541     159.2408     318.6403      1.477     3.69      908.653     56.18788     339.3223        18     1.315     0.809  62.15   0
        64     79.0389    935.3899 307.8770897  +6.3018820      2071.18     2838.603     3167.474     79.27072     159.2408     318.4817      1.417     3.95     907.9681     56.18788     320.5409        15     1.272     0.703  70.05   0
        65    943.6434    935.7546 307.5180852  +6.3307496     929.0504      1575.46     1069.554     79.90541     159.4311     318.7037      1.769     5.16     895.9051     56.18788     150.5151        11     1.264     0.691  33.53   0
        66    369.7361    934.1600 307.7564357  +6.3121737     309.3397     313.5716     841.7227     79.90541     159.3677     318.8304      1.717     4.48     907.6639     56.18788      75.5929         5     1.264     0.452  60.67   0
        67   1007.7930    933.2465 307.4915321  +6.3339283     463.7021     622.5753     434.3905     79.39806     159.2408     318.4182      1.662     3.86      891.426     56.18788     71.18079         5     0.935     0.458 -45.93   0
        68    239.2947    932.2358 307.8106597  +6.3085813     842.1327     1234.959     1143.872     80.03174     159.3043     318.8621      1.601     3.59     908.9456     56.18788     141.9532         7     1.026     0.461  59.33   0
        69    659.7729    929.3056 307.6361719  +6.3239119     7942.065      11016.3     11714.97     80.03175     159.1774     318.6086      1.487     3.23     903.8627     56.18788     1245.401        29     1.347     0.948  59.71   0
        70    344.1951    931.2170 307.7671394  +6.3125302     972.7302     1431.352     2029.714     79.52521     159.1139     318.6086      1.742     4.14     908.0134     56.18788      176.997        12     1.302     0.630  74.13   0
        71    797.0910    930.2096 307.5791238  +6.3281376     806.7599     919.0121     939.6351     79.65214     159.1139     318.5134      1.255     3.60     900.0426     56.18788     133.1418         9     1.089     0.610  80.36   0
        72     19.7660    927.6173 307.9019611  +6.3030926     1278.849     1716.762     1742.065     79.52521     159.2408     318.6086      1.463     4.50     908.3727     56.18788     171.2722        10     0.993     0.710  84.56   0
        73    897.4205    925.5874 307.5376187  +6.3334022     2952.771     4028.832     4427.943     79.65215     159.1139      318.672      1.507     3.53     897.1749     56.18788     395.3835        18     1.309     0.788  63.00   0
        74    449.4364    926.6104 307.7235976  +6.3179682     603.6659     991.4821     553.1858     79.39807     159.2408     318.5134      1.600     3.41     906.6564     56.18788     102.6414         5     1.034     0.325  67.57   0
        75     32.7765    925.5569 307.8966290  +6.3043819     1318.366     2024.405     2296.888     79.52521     159.3043     318.6086      1.702     4.47     908.2411     56.18788      186.938        16     1.337     0.808  79.66   0
        76    342.7023    922.3680 307.7680571  +6.3161334     18573.88     25605.76     26164.42     79.90541     159.3043     318.8621      1.485     3.47     907.9752     56.18788     2886.737        35     1.393     0.926  59.15   0
        77     77.3130    923.4960 307.8782077  +6.3067342     1596.032     2118.641     2551.339     79.90541     159.8108     318.7988      1.416     3.51     907.8839     56.18788      259.407        12     1.061     0.727  48.02   0
