#   1 NUMBER                 Running object number                                     
#   2 X_IMAGE                Object position along x                                    [pixel]
#   3 Y_IMAGE                Object position along y                                    [pixel]
#   4 ALPHA_J2000            Right ascension of barycenter (J2000)                      [deg]
#   5 DELTA_J2000            Declination of barycenter (J2000)                          [deg]
#   6 FLUX_APER              Flux vector within fixed circular aperture(s)              [count]
#   9 FLUXERR_APER           RMS error vector for aperture flux(es)                     [count]
#  12 FLUX_RADIUS            Fraction-of-light radii                                    [pixel]
#  13 FWHM_IMAGE             FWHM assuming a gaussian core                              [pixel]
#  14 BACKGROUND             Background at centroid position                            [count]
#  15 THRESHOLD              Detection threshold above background                       [count]
#  16 FLUX_MAX               Peak flux above background                                 [count]
#  17 ISOAREA_IMAGE          Isophotal area above Analysis threshold                    [pixel**2]
#  18 A_IMAGE                Profile RMS along major axis                               [pixel]
#  19 B_IMAGE                Profile RMS along minor axis                               [pixel]
#  20 THETA_IMAGE            Position angle (CCW/x)                                     [deg]
#  21 FLAGS                  Extraction flags                                          
         1    238.7787     26.3308 307.8301025  +6.6636548     5606.688     12771.98     15505.02     85.76143      171.865     343.6617      2.583     6.83      1047.49     60.59403      605.462        58     2.639     1.308 -24.61   2
         2    418.1037     25.8282 307.7555992  +6.6698638     13595.93     30067.18      35811.4     86.30769     171.6598       343.73      2.419     6.27     1036.016     60.59403     1469.031        71     2.348     1.418 -24.78   0
         3    598.8011     24.5508 307.6805497  +6.6764275     2021.901     4928.738     6433.605     85.48699     171.5229     343.2854      2.813     6.81     1027.615     60.59403      249.183        39     1.942     1.535 -54.38   0
         4    179.9746     10.6132 307.8550740  +6.6681759     486.9084     785.3646     1184.494     85.89832     171.7282     343.6958      1.765     3.94      1047.15     60.59403     81.42029         5     1.302     0.341 -48.17   0
         5    156.1276      8.3665 307.8650603  +6.6683044     6514.127     14337.38     17024.75       86.035     171.9334     343.4565      2.399     6.42     1046.982     60.59403     731.0337        58     2.266     1.383 -22.32  16
         6    500.3978      6.6710 307.7220507  +6.6805265     1721.084     3898.264      4503.17     85.62432     171.5229     332.5061      2.377     7.01     1032.275     60.59403     230.2238        31     2.123     1.023 -27.67  16
         7    901.7704      5.8408 307.5552729  +6.6942502     2726.571     5793.578     6999.787     85.76143     171.7282     324.3496      2.371     6.97     1018.899     60.59403     305.0609        31     2.114     0.940 -20.91  16
         8    703.3245      4.4561 307.6377927  +6.6882134      1230.36     2494.368      2954.13     86.17145      171.865       307.77      2.400     7.87     1024.852     60.59403     151.7449        21     1.872     0.925 -18.80  16
         9    437.8706      5.0892 307.7480892  +6.6790903     1125.611     2125.199     1959.841     86.17145     172.2065     315.7967      1.909     5.03     1035.404     60.59403     151.2974        14     1.289     0.906 -19.79  16
        10    965.9069      2.4258 307.5287331  +6.6977937     1572.981     2853.228     3068.598     86.30769     153.1387     277.6238      1.933     7.16     1014.981     60.59403     179.6622        22     1.859     0.944 -18.60  24
        11    684.0795      1.2321 307.6459000  +6.6889034     1226.766     1642.228     1656.618     73.51632     135.2103     256.9644      1.155     3.24     1025.484     60.59403     264.1019         8     1.097     0.422  -0.57  24
        12    693.5808   1002.5394 307.6080488  +6.2756446     2141.896      4486.75     6295.837     85.76144      171.865     343.5933      2.516     8.61     1067.646     60.59403     316.6781        30     2.637     0.785 -24.10   2
        13    770.8231   1022.2432 307.5753072  +6.2700786     5060.798     9879.448     10810.09     85.62432     157.2272     282.6567      2.069     7.42     1066.816     60.59403     709.3743        36     2.087     0.935 -19.94  24
        14    561.3392   1023.7958 307.6622426  +6.2624563     39886.34     52072.32      54368.3     72.71284     134.5133     256.1401      1.336     4.36     1071.558     60.59403     9891.549        26     1.758     0.452  -1.83  27
        15    561.5645   1018.3835 307.6623323  +6.2646992     53762.73     108699.3     122234.8     85.76143     171.6598      332.011      2.168     6.80      1071.42     60.59403     6733.333        95     2.300     1.204 -26.09  18
        16    218.4052   1004.4811 307.8052966  +6.2589746     979.3157     1689.844     2093.757     85.76143     171.4543     343.5249      1.788     6.07     1072.178     60.59403     164.9275        13     1.679     0.618 -13.98   0
        17    417.4253   1003.0847 307.7227038  +6.2662064     593.4592     1119.575     1091.523     86.30769     171.6598     343.6275      2.120     5.49     1071.529     60.59403     90.14807         8     1.990     0.427 -24.47   0
        18    709.5902   1001.6228 307.6014318  +6.2765565     970.7159     1815.839     1746.398     85.76143     171.6598     343.5933      2.123     5.60     1067.418     60.59403     139.8995        11     1.488     0.595 -22.34   0
        19    340.3245   1000.0181 307.7548232  +6.2648963     1364.624     2871.759     2863.799     85.62432     171.6598     343.6617      2.171     7.13     1071.639     60.59403     196.8832        19     2.079     0.684 -28.41   0
        20    522.7313    990.1864 307.6794131  +6.2750499     3115.078     6311.293     6921.999     85.62432     171.7966     343.6275      2.127     6.78     1070.949     60.59403     422.1034        32     2.027     0.954 -28.09   0
        21    492.8076    991.3691 307.6917989  +6.2735626     798.1033     1496.959     1364.598     85.62432     171.7282     343.5249      1.862     5.42      1071.05     60.59403      105.777         9     1.281     0.647 -38.23   0
        22    727.3883    989.4716 307.5944519  +6.2821682     6075.146      12097.8     12773.33     85.62432     171.5229     343.5591      2.104     7.20     1066.821     60.59403      774.328        39     2.111     0.941 -24.95   0
        23    273.1572    988.8350 307.7830934  +6.2672690     10442.66     21908.95     24591.74     85.89832     171.9334     343.5591      2.254     7.11     1072.082     60.59403     1337.232        57     2.345     1.087 -27.37   0
        24    395.9323    989.7629 307.7320806  +6.2709906     735.9613     1332.841     997.5734     86.03499     171.9334     343.9009      1.752     5.76      1071.46     60.59403     136.8877         8     1.609     0.580 -20.26   0
        25    788.7076    988.6057 307.5690174  +6.2845675     937.9191     1597.088     1820.343     85.76143     171.5913     343.5249      1.918     6.04     1065.479     60.59403     164.7733        13     1.846     0.556 -24.86   0
        26    888.6664    982.8843 307.5277010  +6.2902562     6844.461     13374.35     14296.34     86.30769     172.2065     343.8326      2.034     7.60      1064.11     60.59403      990.467        37     2.095     0.874 -25.66   0
        27    520.1102    982.3194 307.6807681  +6.2782118     5931.291     12027.34     13653.77     85.89832     172.1382     343.8667      2.178     6.92     1070.816     60.59403     798.9869        40     2.188     0.952 -25.67   0
        28    862.2946    979.0629 307.5387815  +6.2909576     9608.703     19165.05     21296.29       86.035       172.07     343.8326      2.090     7.11     1064.117     60.59403     1375.698        45     2.155     0.997 -26.39   0
        29    984.0267    978.4868 307.4882487  +6.2952421     3880.322     7377.857     8066.877     86.30769     171.7282     343.6617      2.011     7.13     1060.435     60.59403     549.4614        28     2.017     0.812 -23.98   0
        30    573.9572    980.1514 307.6584813  +6.2809038     916.5176     1481.457     1546.501     86.17145      171.865     343.6958      1.431     4.42     1070.344     60.59403      136.144         8     1.274     0.436 -29.94   3
        31    577.4869    978.4809 307.6570721  +6.2817115     493.3899     637.1749     1139.442     85.89832     172.2065     343.9009      0.901     3.89     1070.243     60.59403     109.1714         5     0.940     0.462  44.88   2
        32    506.5747    978.1194 307.6865312  +6.2794948     3058.431      6611.29     7698.474     85.89832     171.7282     343.7642      2.286     6.54     1070.774     60.59403     423.9341        35     2.120     0.996 -24.03   0
        33    615.5163    977.6419 307.6413084  +6.2833263     1003.092     1879.911     2189.143     86.17145      171.865     343.6958      2.118     5.41       1069.5     60.59403     150.0905        13     1.447     0.630 -23.51   0
        34     40.7482    976.9887 307.8799999  +6.2643780     617.5579     1052.201     1161.385     85.48699     171.7966     343.4907      1.661     4.32      1070.88     60.59403     98.96606         7     1.267     0.420 -32.51   0
        35    458.7726    974.8797 307.7064910  +6.2792370       1619.8     2730.223     3111.214     86.03499      171.865     343.7642      1.721     6.22     1070.979     60.59403     190.1116        18     1.638     0.782 -38.05   2
        36    462.2755    973.3571 307.7050881  +6.2799828     748.9739     956.1249     1439.048       86.035     172.0017     343.7984      1.174     3.68     1070.921     60.59403     147.7356         5     0.812     0.480 -82.63   3
        37    894.0699    966.6237 307.5260061  +6.2971523     33279.82     65948.21      71523.6     85.76143     171.7966       343.73      2.071     7.15      1063.03     60.59403     4593.243        68     2.169     1.017 -24.09   0
        38    201.4441    965.2277 307.8136738  +6.2746195     1111.887     2140.941     2123.823     85.76143     172.0017     343.6617      2.144     6.83      1071.49     60.59403     182.4415        16     1.901     0.688 -19.03   0
        39    599.6711    963.2638 307.6483752  +6.2887366     683.2661      1201.65     1015.174     86.17145     171.9334     343.8326      2.043     5.96     1069.304     60.59403     103.2949         9     1.488     0.671 -27.73   0
        40    791.9731    960.3928 307.5686150  +6.2963293     1793.334     3239.969     3769.767     85.62432     171.7966     343.5591      1.944     6.46     1064.635     60.59403     247.7488        20     1.815     0.736 -24.83   0
        41    740.2219    958.2707 307.5901777  +6.2954829     4939.486     9763.951     10915.46     85.76143     171.7966     343.7642      2.095     6.98     1065.729     60.59403     698.9949        34     2.124     0.875 -25.68   0
        42    209.6810    957.8040 307.8105059  +6.2779614     998.9561     2172.834     1855.444     85.62432     171.4543     343.4565      2.099     8.27     1071.496     60.59403     121.6647        20     1.870     1.021 -24.20   0
        43    526.3947    957.8312 307.6789884  +6.2885360     742.9872     1183.427     1319.876     85.48699     171.7966     343.5249      1.670     5.24     1070.384     60.59403     120.5936         9     1.149     0.703 -10.79   0
        44     34.8158    955.5549 307.8831931  +6.2730316     1863.246     4035.436     4507.916     85.62432     171.7966     343.5249      2.194     6.70     1070.881     60.59403     256.5299        30     1.912     1.021 -23.97   0
        45    928.4445    953.3533 307.5121790  +6.3037763     5363.329     10151.77     10514.93     86.17145      171.865       343.73      2.003     7.32     1061.725     60.59403     765.1075        33     2.030     0.850 -25.01   0
        46    183.7449    950.2664 307.8215319  +6.2802063     559.7065     875.5501     1168.643     86.17145      171.865     343.7642      1.684     3.88     1071.177     60.59403     78.44226         5     0.931     0.463 -45.24   0
        47    902.2086    944.9261 307.5233589  +6.3063849     1551.096     2619.928     2301.718     85.76143     171.4543     343.5933      1.772     6.56     1061.506     60.59403     232.5907        18     1.896     0.637 -26.28   0
        48    622.8979    941.0646 307.6394815  +6.2986802     3394.455     6681.744     6773.656     86.17145     172.0017     343.7984      2.126     6.28     1067.634     60.59403     524.1481        34     2.021     1.002 -28.00   0
        49    235.2329    941.3782 307.8004538  +6.2856009     3050.101     6279.904     6238.179     85.62432     171.7282     343.5591      2.122     6.62     1071.431     60.59403      355.266        34     2.100     0.956 -25.18   0
        50    762.0770    941.4170 307.5816717  +6.3031718     1011.983      1765.35     1091.484     85.62432     171.6598     343.6275      1.818     6.12     1064.766     60.59403     124.4144        15     1.567     0.672 -40.04   0
        51    445.1331    939.4109 307.7133579  +6.2934312     735.4248     1515.261     975.5536     85.62432     171.7966     343.5933      1.822     7.36     1070.694     60.59403     114.5426        13     2.002     0.758 -31.96   0
        52      3.7717    938.9288 307.8966499  +6.2788573     1490.138     3150.587     3130.529     85.89832     167.8531      298.231      2.036     7.05     1070.896     60.59403     222.0621        21     2.021     0.748 -26.16  24
        53    854.4519    937.4549 307.5434439  +6.3078826     756.0615     1602.422     1405.119     86.17145     171.9334       343.73      2.092     5.75     1061.877     60.59403     125.9301        11     1.986     0.469 -25.80   0
        54    547.4194    933.8726 307.6710693  +6.2991333     1233.411     2525.581     1852.135     85.76143      171.865     343.6958      2.167     7.46     1069.894     60.59403     156.1156        20     1.981     0.874 -34.79   0
        55    948.1472    934.9252 307.5046188  +6.3120428     522.6923     740.7217     1231.673     86.17145     172.0017     343.7642      1.513     5.04     1059.697     60.59403     80.10791         6     0.962     0.746  30.88   0
        56    978.2554    933.5917 307.4921601  +6.3135940     645.2755     1413.194     1626.228     85.48699     171.7966     343.4565      2.181     4.26     1058.393     60.59403     135.1545         6     1.492     0.347 -34.36   0
        57    586.7302    930.1760 307.6548698  +6.3019715     803.2578     1474.896     1024.462     85.76143     171.7966     343.6958      1.759     6.89     1068.406     60.59403     119.6821        14     1.751     0.759 -28.43   0
        58     35.6428    930.0153 307.8837194  +6.2836077     540.4416     813.5521     994.4872     85.62432     171.6598     343.5249      1.301     3.89      1070.88     60.59403     87.46033         5     0.907     0.478 -87.90   0
        59    266.4551    927.6842 307.7879540  +6.2923017     1039.451     2032.321     1997.729     86.17145     171.9334     343.9009      1.964     6.61     1071.383     60.59403     146.6555        15     1.756     0.699 -29.18   0
        60    734.4759    923.5859 307.5937369  +6.3096177     690.3946     1369.456     1860.117     85.62432     171.6598     343.5591      2.232     5.49      1064.79     60.59403     150.6276         7     1.603     0.531 -16.98   0
        61    871.0886    920.2898 307.5371147  +6.3155259     5414.234     10596.81     11374.12     85.89832     172.4792     343.8667      2.028     7.41     1060.657     60.59403     766.4607        37     2.108     0.877 -24.72   0
        62    308.6639    915.9020 307.7708266  +6.2985800     6570.062     13489.19     14705.09       86.035     172.0017     343.7984      2.145     6.53     1071.273     60.59403     852.8878        47     2.132     1.114 -25.85   0
        63    407.1340    917.3359 307.7298865  +6.3012795     1584.534     3207.044     3483.093     86.17145     171.9334     343.7642      2.147     7.89     1070.694     60.59403     210.4092        24     1.999     0.871 -26.47   0
        64    228.8171    914.9046 307.8040178  +6.2963205     4738.086     9819.913     11341.45     86.03499     171.7282     343.5933      2.230     6.56     1071.179     60.59403     553.0847        41     2.128     1.062 -24.89   0
        65    556.7693    909.1881 307.6680229  +6.3096408      797.792     1462.634     1346.214     85.62432     171.6598     343.6617      1.848     5.73     1068.375     60.59403     104.3828        12     1.836     0.504 -24.67   0
        66    887.5450    905.3647 307.5307845  +6.3222379     850.5881     1802.297     1686.941       86.035     171.9334     343.7984      2.263     6.32     1059.935     60.59403     124.7114         8     1.618     0.694 -71.78   2
        67    843.3594    904.1916 307.5491742  +6.3212527     679.5059     1228.589     1595.767     85.48699     171.7282     343.4565      1.926     4.81     1061.067     60.59403     96.41284         8     1.565     0.420 -24.78   0
        68    954.0327    901.2126 307.5033123  +6.3261632     751.7628     1541.864     1664.085     85.62432     171.6598     343.6617      1.856     4.62     1057.907     60.59403     150.4667         8     1.561     0.388 -24.09   0
        69    722.0735    899.0616 307.5997171  +6.3193341      1221.64     2166.971      2354.54     86.30769     171.9334     343.7984      2.191     4.67     1064.093     60.59403     189.9904        10     1.212     0.572 -23.49   2
        70    586.6105    895.2201 307.6561035  +6.3164056     786.8578     1150.198     914.2708     85.76143     171.5913     343.6275      1.662     5.56     1066.955     60.59403     115.3864         8     1.197     0.728 -53.78   0
        71    954.6193    894.2098 307.5033051  +6.3290751     981.8466     1973.237     2136.631     85.76143     171.5913     343.6275      2.041     6.43      1057.57     60.59403     175.9819        16     2.064     0.562 -27.60   0
        72    508.3527    894.1243 307.6886400  +6.3142469     890.9872     1864.137     2327.335       86.035     172.0017     343.7642      2.477     5.96     1068.506     60.59403     125.8107        13     1.700     0.588 -23.01   0
        73    641.6508    891.8523 307.6333599  +6.3196319     1813.569     3687.821     4679.916     86.30769     171.7966     343.7984      2.276     6.93     1065.559     60.59403     245.3988        26     2.036     0.876 -25.09   0
        74     38.5583    888.0885 307.8839365  +6.3010220      1882.23      4298.07     4756.923     86.17145      171.865     343.7984      2.390     7.18     1070.087     60.59403       253.89        33     2.142     1.047 -28.70   0
        75    801.2520    888.5979 307.5671883  +6.3262924     743.8572     1162.354     1586.954     85.48699     171.5229     343.3196      1.876     5.08     1061.696     60.59403     127.8104         7     1.245     0.586 -17.68   0
        76     54.9640    887.5235 307.8771432  +6.3018054      1555.63     2653.123     3232.719     86.03499     172.0017     343.7984      2.043     4.27      1070.06     60.59403     191.9513        15     1.308     0.804 -57.93   2
        77    918.0233    888.0000 307.5187131  +6.3304237      631.746     1098.677     1453.447     85.62432     171.5229     343.5249      2.620     5.06     1058.724     60.59403       100.72         7     1.215     0.597   6.86   2
