#   1 NUMBER                 Running object number                                     
#   2 X_IMAGE                Object position along x                                    [pixel]
#   3 Y_IMAGE                Object position along y                                    [pixel]
#   4 ALPHA_J2000            Right ascension of barycenter (J2000)                      [deg]
#   5 DELTA_J2000            Declination of barycenter (J2000)                          [deg]
#   6 FLUX_APER              Flux vector within fixed circular aperture(s)              [count]
#   9 FLUXERR_APER           RMS error vector for aperture flux(es)                     [count]
#  12 FLUX_RADIUS            Fraction-of-light radii                                    [pixel]
#  13 FWHM_IMAGE             FWHM assuming a gaussian core                              [pixel]
#  14 BACKGROUND             Background at centroid position                            [count]
#  15 THRESHOLD              Detection threshold above background                       [count]
#  16 FLUX_MAX               Peak flux above background                                 [count]
#  17 ISOAREA_IMAGE          Isophotal area above Analysis threshold                    [pixel**2]
#  18 A_IMAGE                Profile RMS along major axis                               [pixel]
#  19 B_IMAGE                Profile RMS along minor axis                               [pixel]
#  20 THETA_IMAGE            Position angle (CCW/x)                                     [deg]
#  21 FLAGS                  Extraction flags                                          
         1     11.3031     29.9346 307.9284411  +6.6378147     3675.134     6631.288     8648.419     92.23344     184.1017     367.9839      2.016     5.87     1234.482      64.8567     457.9117        24     2.183     0.767  61.20  19
         2     14.1825     27.8034 307.9273149  +6.6387914     4678.123     11504.91      15132.6     91.79459     183.5158     367.7644      2.690     8.38     1234.272      64.8567     484.8479        61     2.513     1.840  52.26  19
         3    759.6415     22.9642 307.6172100  +6.6658058     1240.805      3770.83     4598.212      91.9411     184.0285     367.7644      2.749     8.53     1194.709      64.8567     146.0896        33     1.907     1.721  84.47   0
         4     54.2720     18.9113 307.9109311  +6.6438119     1202.787     2583.705     3197.534     92.23344     184.3209     367.9839      2.290     7.81     1231.458      64.8567     162.0837        18     1.772     0.963  54.12   2
         5    814.3407     22.3414 307.5944633  +6.6678910     2756.202     7409.468     9583.917     92.23344     184.0285     367.9839      2.721     6.94     1191.878      64.8567     332.5692        51     2.088     1.646  49.32   0
         6     81.0602      4.7419 307.9002615  +6.6505624      3220.87     10788.66     13825.69     92.37927     183.9554     333.3206      2.984     8.34     1229.223      64.8567     368.2327        66     2.177     2.001 -76.06  24
         7    409.8387      4.1180 307.7634420  +6.6618699     923.3893     2616.415     3381.001     92.23344     182.4123     324.4391      2.880    10.42     1210.525      64.8567     113.2201        19     2.052     1.474  86.56  24
         8     58.3546    997.0682 307.8761610  +6.2401992     4702.002     10192.57     11481.19     92.23344     183.9554     367.9839      2.257     5.67     1259.482      64.8567      521.436        44     1.916     1.378  61.29   0
         9    819.1109   1022.9064 307.5589029  +6.2550281     1910.701      3182.64     3360.253      89.8681     159.3312     291.2521      1.781     5.19     1258.765      64.8567     269.6221        22     1.624     0.988  11.20  24
        10    739.0000   1022.9510 307.5922196  +6.2523340     713.8222     1109.736     1336.093     88.66175     157.7178      289.723      1.472     5.38     1259.302      64.8567     141.1375         7     1.593     0.512  78.17  27
        11    741.3610   1022.6957 307.5912463  +6.2525182     835.8228     1257.199     1220.976     91.35361     162.0951     294.9718      1.493     5.35     1259.296      64.8567     124.8722         7     1.294     0.625  63.04  19
        12    460.0375   1023.1412 307.7082316  +6.2429216     1705.899     2772.194     2836.202     87.43877      155.483     286.8749      1.716     6.00     1261.589      64.8567     224.7302        17     1.525     0.769  17.98  24
        13    145.3077   1023.4875 307.8391081  +6.2322176     4050.338     5872.531     6377.893     82.69167     149.8401     280.3731      1.462     4.37     1260.399      64.8567     852.3826        18     1.552     0.648   7.62  24
        14    787.5666    996.1295 307.5729204  +6.2650280     9337.371     19747.48     21240.18     92.08739     184.0285     368.0205      2.211     4.87     1257.773      64.8567     1016.109        55     1.808     1.550  49.67   0
        15    571.0945    987.2112 307.6632520  +6.2614719     92439.65     216163.4     261145.1     91.79459     183.6625     367.6912      2.484     5.21     1259.416      64.8567     9711.755       133     2.187     1.909  60.64   3
        16    573.1333    979.8874 307.6626503  +6.2645633     42885.28     97135.21     112441.9     92.23344     184.2478     367.9839      2.354     5.61     1259.061      64.8567     4339.318        82     2.054     1.623  32.25   3
        17    205.0255    990.2204 307.8153957  +6.2479558     2167.198     4932.236     6086.027     91.79459      183.809     367.8376      2.458     6.28      1259.57      64.8567     241.3495        36     1.802     1.412  39.58   0
        18    747.0621    989.1351 307.5900013  +6.2665622     633.2742     1118.176     610.7851     92.23344     184.0285     367.9839      1.721     6.11     1257.682      64.8567     96.17493         7     1.289     0.813  -3.87   0
        19    781.8413    983.9235 307.5757110  +6.2698753     4503.199     9538.306     10388.49     92.08739     184.0285     367.9839      2.254     5.08     1257.206      64.8567     492.3541        48     1.915     1.515  53.12   0
        20    879.5774    980.3900 307.5351794  +6.2745968     994.5228     1990.503     1920.783     91.79459     183.7357     367.7644      2.001     6.94     1255.391      64.8567     107.9672        13     1.391     0.969  14.41   0
        21    203.1432    979.6116 307.8165364  +6.2522715     1211.409     2439.502     3357.935     91.50084     183.9554     367.5814      2.446     5.97     1259.415      64.8567     174.8439        16     1.381     1.122 -70.06   0
        22    705.5139    976.5042 307.6077056  +6.2703876      4389.76     10068.58     11728.26     92.23344     184.4669     368.0205      2.451     5.62     1257.282      64.8567     450.2371        54     2.139     1.609  26.53   0
        23    420.4637    976.5405 307.7262584  +6.2608313     2136.219     5103.617     7199.667     92.37927     183.9554     367.9839      2.824     8.26     1260.256      64.8567     244.9519        40     2.016     1.571  53.28   0
        24    738.3049    977.5744 307.5940314  +6.2710417      720.447     1419.015     2784.258     92.37927     183.7357      367.801      3.517     5.15     1257.233      64.8567     133.2791         7     1.334     0.561  56.88   0
        25    562.0143    975.6463 307.6674173  +6.2659418     2409.704     5720.098     7588.104     91.50084      183.809     367.6912      2.665     6.22     1259.236      64.8567     265.1095        38     1.822     1.452  59.80   1
        26    945.2099    965.8559 307.5083682  +6.2827857     4726.863     9850.646     10366.34     91.50084     183.9554     367.5814      2.143     4.85     1253.427      64.8567     548.9803        43     1.735     1.427  53.78   0
        27    705.1046    963.9487 307.6082973  +6.2755567     1628.136     3758.761     5177.844     92.08739     183.9554     368.2399      2.758     6.77      1256.76      64.8567      171.202        30     1.556     1.455 -60.29   2
        28    428.5467    966.2498 307.7232431  +6.2653500     435.9143     993.1203     1075.803     92.37927     183.9554     367.9839      1.631     3.74     1259.953      64.8567     87.61377         5     1.539     0.261 -49.33   0
        29    230.2199    965.9290 307.8057371  +6.2588288     907.7379     1890.258     2095.229     91.79459     183.8822     367.8742      2.664     5.99     1259.392      64.8567     140.6586         9     1.327     0.775  67.05   0
        30    351.6885    961.2104 307.7553781  +6.2648532     994.1586      2468.88      2848.18     91.79459     183.6625     367.7278      2.519     7.89     1259.916      64.8567     138.2839        19     1.425     1.221  15.77   0
        31    738.4458    951.1080 307.5948610  +6.2819715     4881.798     10803.37     12174.51     92.23344     183.9554     368.0937      2.305     5.36      1255.99      64.8567     540.0844        53     1.938     1.564  57.44   0
        32    534.2573    951.0312 307.6797893  +6.2751733     2302.123     5572.315     7648.482     92.08739     184.0285     367.8376      2.792     8.06     1258.559      64.8567     234.6606        42     2.173     1.548  87.07   3
        33    531.4479    943.8559 307.6811991  +6.2780410     4589.937      10957.2     13056.75     92.23344     184.0285     368.0571      2.491     5.95     1258.268      64.8567     463.6252        54     1.887     1.748  57.53   3
        34    284.2827    950.6208 307.7837689  +6.2669626     8104.719     19598.98     24849.59     91.94111     183.6625     367.8742      2.601     5.57     1259.585      64.8567     889.1128        82     2.150     1.994   3.27   0
        35    799.1628    950.3421 307.5696330  +6.2843159     590.5544     1265.376     1663.695     92.23344     184.1017     367.9474      1.587     3.55     1255.328      64.8567     134.7146         5     1.167     0.312 -79.90   0
        36    899.7701    944.4930 307.5279836  +6.2900885     5983.251     12478.08     13030.69     92.37927     183.7357     367.8376      2.151     5.04     1253.542      64.8567     689.7091        51     1.845     1.468  66.45   0
        37    873.3349    940.6022 307.5391092  +6.2908125     8308.187     17811.48     20255.94     91.50084     183.6625     367.6912      2.248     4.75     1253.516      64.8567     963.1639        56     1.830     1.556  54.21   0
        38    517.8688    940.0959 307.6869733  +6.2791384     2311.377     5846.655       6991.5     92.08739     184.1748     367.9839      2.496     6.11     1258.392      64.8567     281.9067        41     1.721     1.713  22.34   0
        39    994.9926    940.0095 307.4885274  +6.2951146      3464.83     7335.353     8112.403     91.64783      183.809      367.801      2.193     4.99     1249.496      64.8567     423.9768        41     1.758     1.431  55.36   0
        40    627.6569    939.0855 307.6413443  +6.2832301     835.0277     1594.256     1543.108     92.23344     184.0285     368.1302      2.017     6.30     1256.794      64.8567     102.8281        10     1.513     0.736 -76.17   0
        41    586.3094    940.2810 307.6585014  +6.2813532     837.4099      1687.56     1775.689     91.94111     184.3209     367.9839      2.240     4.86     1257.338      64.8567     124.3798         7     1.037     0.645  79.52   0
        42    470.7462    936.1639 307.7067045  +6.2791830      1111.35     2532.967     2468.706     92.08739     184.0285     367.9839      2.249     8.46     1259.185      64.8567     139.9683        18     1.465     1.364 -60.93   0
        43    905.0714    928.1349 307.5263267  +6.2970178     29504.55      62661.3     70028.97     92.23344     184.1017     368.0205      2.249     4.69     1252.838      64.8567     3476.448        82     1.970     1.621  54.37   0
        44    213.8312    927.5120 307.8138490  +6.2741359     939.3573     1891.039     1749.683     92.37927      183.809     367.8742      2.084     6.55     1258.816      64.8567     143.5438        12     1.509     1.061 -87.86   0
        45    803.0625    921.8920 307.5689652  +6.2961901     1434.934     3099.212      3743.28     92.23344     184.1748     368.0205      2.205     8.24     1253.626      64.8567     157.6091        21     1.748     1.087  28.01   0
        46    751.2098    919.9072 307.5905991  +6.2952773     3845.514     9100.038     10907.16     91.79459     183.5892     367.7278      2.457     5.47     1254.176      64.8567     397.9487        52     1.821     1.707  62.04   0
        47    221.2141    918.7185 307.8110750  +6.2780136     845.3743     1610.626     1776.602     91.79459     183.7357     367.7278      2.258     5.77     1258.728      64.8567     139.5811         9     1.370     0.684  57.76   0
        48     44.6978    919.9683 307.8844456  +6.2715642     603.4083     1036.656     1111.184     92.23344     183.8822     368.0571      1.482     3.51     1257.448      64.8567     116.6381         5     1.025     0.348  44.18   3
        49     46.4073    916.8375 307.8838404  +6.2729140     1579.287     3211.729     3410.679     91.35361     183.7357     367.6546      2.044     6.16     1257.313      64.8567     183.7347        23     1.494     1.247  32.67   2
        50    939.3782    914.7924 307.5125040  +6.3036699     4671.861     9703.822     10400.55     91.64783      183.809     367.6912      2.173     4.78     1251.369      64.8567     544.4001        40     1.700     1.413  55.78   0
        51    913.5896    906.7557 307.5234999  +6.3061272     1395.769     2848.915     3049.043     91.64783     183.8822      367.618      2.186     5.14      1251.53      64.8567     186.1398        18     1.334     0.967 -47.95   0
        52    634.0945    902.6103 307.6398922  +6.2985019     2451.797     6050.702     7495.593     91.79459     183.5892     367.7278      2.596     6.99     1254.598      64.8567     260.4133        46     1.944     1.668  87.13   0
        53    246.3859    903.0619 307.8011340  +6.2853216     2180.865     5560.491     6264.252     91.64783      183.809     367.7278      2.517     6.54      1258.56      64.8567     252.6926        41     1.757     1.650  74.45   0
        54    772.9756    903.8732 307.5820839  +6.3026231     792.3172      1560.87     1800.819     91.79459      183.809     367.8742      2.389     6.22     1252.677      64.8567     110.4934         9     1.215     0.895  82.97   0
        55     15.6084    900.6702 307.8971958  +6.2785510     1090.583     2544.356     3024.825     91.64783     183.5892      367.801      2.472     9.12       1256.5      64.8567     132.9883        19     1.690     1.374  42.44   0
        56    560.1295    894.8659 307.6709170  +6.2992236     850.4414     1632.602     1706.448     92.23344     184.1017     367.9474      2.056     4.90     1255.015      64.8567     118.9495         7     0.995     0.684  44.93   0
        57    278.1454    890.4232 307.7883509  +6.2916048     722.7414     2038.465     3229.469     91.64783     184.0285     367.7278      2.770     7.80     1258.461      64.8567     120.4247        11     1.818     0.935 -73.65   0
        58    960.1791    888.6451 307.5047277  +6.3151570     1061.973     808.3984     1300.689     91.79459     183.8822     367.7278      0.725     1.35     1248.603      64.8567      430.069         5     0.526     0.478   0.43   0
        59    882.1110    881.8265 307.5374288  +6.3153676     4371.004     9564.682     10480.62     92.37926     183.7357      367.801      2.250     5.20     1250.484      64.8567      497.299        47     1.796     1.559  46.02   0
        60    319.8307    877.8284 307.7714377  +6.2982027     4690.586     12389.89     15242.74     91.64783     183.7357     367.6912      2.626     6.19     1258.054      64.8567     500.9729        57     2.034     1.706  68.92   0
        61    240.0283    876.7224 307.8046666  +6.2959804     3378.182     8845.382      10559.1     92.08739     183.9554     367.9474      2.609     6.88     1257.848      64.8567     369.0767        55     2.114     1.747  51.47   0
        62    418.0285    878.7385 307.7305639  +6.3011205     1089.159     2401.379     2614.582     91.79459     184.0285     367.9108      2.475     8.06     1257.287      64.8567     133.5891        17     1.780     1.021  -2.09   0
        63    752.8534    870.6739 307.5915677  +6.3156552     599.5806     1058.492     1310.055     92.08739     184.0285     367.9108      1.752     5.32     1250.625      64.8567     87.68359         6     1.106     0.724  -7.57   0
        64    733.2966    858.9750 307.6000950  +6.3198309     911.7406     1873.993     2868.051     92.37926     183.7357      367.801      2.792     8.54     1250.216      64.8567     115.2396        14     2.106     0.967   8.91   2
        65    652.8727    853.3260 307.6337372  +6.3194740     1385.783     3440.688     4514.552     92.52486     184.1748     368.0205      2.694     8.92      1250.85      64.8567     174.6456        28     1.809     1.542 -66.28   0
        66    966.1773    855.2563 307.5033508  +6.3291397     743.9965      1413.53     2483.081     91.79459     183.9554     367.7278      2.062     5.36     1246.153      64.8567     100.6514         7     1.219     0.665  14.76   0
        67     66.0828    849.6220 307.8779285  +6.3013203     731.2881     1698.766     2704.899      91.9411     183.6625      367.801      2.709     5.12     1255.044      64.8567     112.2441         9     1.832     0.404 -72.34   0
        68     51.3373    850.6579 307.8840264  +6.3003967     1003.884     1701.985     2466.534     92.37927     183.9554     367.9839      1.767     3.50     1254.774      64.8567     152.0359         8     0.977     0.608  46.99   3
        69     49.3391    847.9750 307.8849481  +6.3014369     1185.585     2261.323      3740.43     91.79459     184.0285     367.8376      2.772     8.73     1254.661      64.8567     144.6616        18     2.384     0.894 -73.09   2
        70    931.6494    849.5359 307.5179048  +6.3303496     613.2767     1298.741      1574.02     92.08739     183.9554     368.0205      1.752     5.35      1247.18      64.8567     90.46948         6     1.304     0.620 -38.07   0
        71    193.6617    848.5072 307.8249034  +6.3060695     1059.002     2128.801     1708.781     92.08739     184.0285     368.0205      2.053     7.88     1257.155      64.8567     122.3115        18     1.432     1.213  38.80   0
        72     69.2994    849.7401 307.8765866  +6.3013798     785.2601     1377.259     2078.257     91.94111     183.9554     368.0937      2.126     3.20     1255.103      64.8567     147.0524         6     0.726     0.634  34.41   1
        73    647.4504    842.4056 307.6363595  +6.3238004     3629.844     9046.078     11086.05     91.50084      183.809     367.5081      2.621     6.15     1250.087      64.8567     363.0525        55     1.952     1.756  60.84   0
        74    330.5272    836.1505 307.7683933  +6.3157653     7492.838     20489.86     26249.58     92.23344     184.1017     367.9839      2.780     6.43     1256.648      64.8567     798.9058        81     2.290     1.897  63.05   0
        75      8.6983    841.0749 307.9020844  +6.3029174     723.3378     1687.636     1765.211     91.64783     184.1748     367.9108      2.244     5.21     1253.659      64.8567     119.4215         8     1.627     0.471  57.14  16
        76    885.1974    838.8455 307.5375855  +6.3332128     1655.284     4244.474      4751.55     91.50084     183.5892     367.5447      2.462     6.42     1247.447      64.8567     221.2943        30     1.678     1.384  89.39   0
        77     63.9954    836.9667 307.8792243  +6.3064738     599.4694     1341.624     2406.828     91.35361     183.8822     367.6912      2.604     5.07     1254.708      64.8567     102.7998         5     1.396     0.522 -77.71   0
