#   1 NUMBER                 Running object number                                     
#   2 X_IMAGE                Object position along x                                    [pixel]
#   3 Y_IMAGE                Object position along y                                    [pixel]
#   4 ALPHA_J2000            Right ascension of barycenter (J2000)                      [deg]
#   5 DELTA_J2000            Declination of barycenter (J2000)                          [deg]
#   6 FLUX_APER              Flux vector within fixed circular aperture(s)              [count]
#   9 FLUXERR_APER           RMS error vector for aperture flux(es)                     [count]
#  12 FLUX_RADIUS            Fraction-of-light radii                                    [pixel]
#  13 FWHM_IMAGE             FWHM assuming a gaussian core                              [pixel]
#  14 BACKGROUND             Background at centroid position                            [count]
#  15 THRESHOLD              Detection threshold above background                       [count]
#  16 FLUX_MAX               Peak flux above background                                 [count]
#  17 ISOAREA_IMAGE          Isophotal area above Analysis threshold                    [pixel**2]
#  18 A_IMAGE                Profile RMS along major axis                               [pixel]
#  19 B_IMAGE                Profile RMS along minor axis                               [pixel]
#  20 THETA_IMAGE            Position angle (CCW/x)                                     [deg]
#  21 FLAGS                  Extraction flags                                          
         1    315.2673     21.8178 307.8046491  +6.6809872     15578.28     20560.76     21383.86      77.5178     155.5936     311.1563      1.371     2.89     828.5228     54.85726     2535.917        33     1.284     0.925  50.84   0
         2    642.2017     15.2363 307.6690198  +6.6945876     12732.11     16534.97     17299.55     77.14422     155.4698     311.0325      1.345     3.03     818.5012     54.85726     2281.957        26     1.224     0.851  48.10   0
         3    519.7622     14.8015 307.7199116  +6.6906956     1554.305     2156.711     2040.271     77.14422     155.4698     311.0015      1.392     3.27     819.0567     54.85726      252.719        12     1.043     0.792  73.96   0
         4    807.0272     14.5055 307.6005530  +6.7003620     1804.972     2570.322     2998.234     78.13647     155.4078     311.0634      1.480     3.93     818.0046     54.85726     271.8556        14     1.173     0.773  41.81   0
         5    877.1368     12.4902 307.5714865  +6.7035190     1700.484     2139.739     1699.066     78.01312     155.7792     311.2801      1.355     3.14      817.897     54.85726     306.0081        16     1.180     0.804  54.20   0
         6    242.1190     12.3159 307.8353608  +6.6824698     7657.354     10061.12     10272.82     77.76585     155.9028     311.2801      1.362     3.04       829.17     54.85726     1382.627        25     1.212     0.899  43.27   2
         7    245.9524     10.4308 307.8338311  +6.6833760     1036.315     1472.026     1554.037     77.64193     155.6555     311.1253      1.356     3.44     829.1774     54.85726     187.6469         8     0.993     0.616  30.98   3
         8    945.7375     11.7240 307.5430052  +6.7061086     466.6774     718.7918     464.4032     78.25961     155.6555     311.2182      1.194     3.88     816.4998     54.85726      83.0824         5     0.910     0.475  45.30   0
         9    663.5010      9.8181 307.6603498  +6.6975322     9566.566     12514.83     13421.17     78.01313     155.5317     310.9705      1.356     3.02     818.6646     54.85726     1488.089        26     1.272     0.855  46.21   3
        10    667.0739      7.3378 307.6589477  +6.6986749     15935.53     21030.53     21816.41     78.25961     155.6555     306.0701      1.391     3.11     818.6729     54.85726     2667.201        30     1.260     0.895  44.54  19
        11    633.8768     10.6241 307.6726328  +6.6962150     10942.11     14221.88     15616.74     77.64193     155.5317     311.1872      1.339     2.88     818.3867     54.85726     1646.725        28     1.230     0.876  46.70   0
        12    403.6313     10.7753 307.7683013  +6.6884912     9690.593      12585.6      12417.6      77.5178     155.5317     311.0325      1.346     2.94     825.1951     54.85726     1438.234        27     1.245     0.870  47.00   0
        13    719.2393      9.3271 307.6372048  +6.6995863      2250.05      2864.43     2165.911     77.88959     155.5936     311.2801      1.307     2.93     818.2225     54.85726     398.7728        15     1.060     0.841  54.59   0
        14    145.0212      9.5629 307.8757979  +6.6803645     593.3303     613.4176     557.7932     77.64193     155.4078     310.9705      1.293     4.53     828.5806     54.85726     85.57172         7     0.977     0.596  57.65   0
        15    182.2245      7.4993 307.8604088  +6.6824589     1312.735     1768.509     1489.489     78.13647     155.4078     306.9184      1.455     3.44     828.8163     54.85726     208.7515        13     1.064     0.892  82.13  16
        16    643.2478      6.4872 307.6688767  +6.6982344     3680.321     4711.912     5549.758     78.01313     155.5317     299.7115      1.346     2.80     818.4246     54.85726      665.559        19     1.132     0.882  61.46  16
        17     50.0221      3.9754 307.9154576  +6.6794961     3815.732     5114.805     5292.701      77.5178     153.2237     272.6577      1.426     3.00     827.1987     54.85726     587.5638        21     1.247     0.885  50.08  24
        18     31.0196      3.2645 307.9233770  +6.6791541     437.1175     635.0043     818.8019     77.64193     147.8503     263.0587      1.493     5.08     826.7099     54.85726     75.00549         5     1.191     0.613  79.24  16
        19    932.1469      2.9322 307.5489449  +6.7092881      949.006     1279.364     1509.529     77.88959     144.4237     258.5168      1.614     4.07     816.5737     54.85726     155.5887        11     1.067     0.935  58.67  24
        20    140.8037      1.7615 307.8778116  +6.6834442     5279.015     6480.499     6548.201     71.97808     129.7418     240.8528      1.225     3.21     828.4998     54.85726     981.7247        17     1.171     0.712  19.87  24
        21     71.9949      1.4456 307.9064126  +6.6812752     686.4921     804.1831     484.9291     69.11144     125.0553     235.6795      1.308     4.04     827.5934     54.85726     129.2903         7     1.056     0.534  24.47  24
        22    187.4684    989.6047 307.8253805  +6.2771761     851.8372     1334.108     1278.491      77.5178     155.2839     311.0325      1.804     5.43     847.4545     54.85726     135.9646        10     1.246     0.780 -50.34   0
        23    740.2810   1022.1254 307.5947728  +6.2821405     7605.137     11561.74     11891.49     78.25961      144.023     257.8828      1.624     3.50     850.3084     54.85726      972.061        35     1.436     1.145  29.49  24
        24    535.8120   1022.7070 307.6796482  +6.2751099      4151.89      5737.42     5899.716     76.89416     136.9631     249.0689      1.492     3.35     852.4524     54.85726      586.618        23     1.305     0.943  24.52  27
        25    533.0241   1015.1620 307.6810570  +6.2781322     8644.443     13323.64     14627.58     77.64193     155.4698     311.0325      1.644     3.40     852.2065     54.85726     1153.278        37     1.461     1.130  50.09  18
        26    505.9331   1023.5071 307.6920270  +6.2737862     851.7169     866.8152     743.8395     69.94247     126.2051     236.8208      1.152     4.38     852.3864     54.85726     124.9478         9     1.061     0.641  -1.04  24
        27    285.7571   1021.8234 307.7834967  +6.2671518     15220.77     22610.45     23795.07     77.64193       146.87     261.9214      1.591     3.24      850.012     54.85726     2037.628        40     1.381     1.167  36.13  26
        28    290.0368   1018.9550 307.7818157  +6.2684786     1021.736     1328.313     1690.131     77.76585     155.6555     295.6353      1.283     4.57     850.0552     54.85726     171.3409         8     0.986     0.645 -62.16  19
        29     47.4971    988.5947 307.8835273  +6.2729207     2738.764     4364.752     4548.857     77.76586     155.3459     310.9705      1.727     3.92     846.6456     54.85726     360.2526        24     1.417     1.000  36.07   0
        30    941.3141    986.2144 307.5124940  +6.3036299     6007.751     10534.49     11610.41     77.64193     155.4078     311.0944      1.901     4.18     845.0336     54.85726     685.8384        40     1.653     1.256  32.55   0
        31    196.9612    982.4614 307.8216780  +6.2804418     624.2874     973.8773     1257.708     78.01312     155.6555     311.2491      1.793     7.24     847.4872     54.85726     77.71741         9     1.570     0.935  78.73   0
        32    623.6520    980.3465 307.6445872  +6.2955177     679.8354     1191.175     961.5702     78.13647     155.5936     311.2491      1.735     4.83     849.7097     54.85726     98.49561         7     1.445     0.457  48.96   0
        33    915.1954    978.0585 307.5236096  +6.3061323     1940.295     3421.079      3924.51     77.39347     155.5317     311.0015      1.885     4.36     845.5538     54.85726     224.4009        26     1.433     1.137  51.19   0
        34    774.5363    974.3183 307.5821384  +6.3030146     1454.485     1889.568     1631.692     78.13647     155.7173     311.2182      1.481     3.92     848.6598     54.85726     196.7986        15     1.076     0.969  54.59   0
        35    635.8196    973.9242 307.6397488  +6.2985734     4725.396     7169.899     7243.056     77.64193     155.3459     311.1563      1.603     3.32     849.6675     54.85726     602.7449        29     1.323     1.107  39.73   0
        36    984.9481    972.9196 307.4948171  +6.3105634     729.6974     1184.944     1459.115     78.01313     155.6555     311.2182      1.736     4.64     843.4567     54.85726       97.427         7     0.911     0.672 -60.10   0
        37    457.9808    972.3470 307.7136415  +6.2933129     1194.617     1670.712     2334.466      77.5178     155.6555     311.0325      1.539     3.86     850.8028     54.85726     214.6848        10     1.069     0.617  65.81   0
        38     16.6075    971.8608 307.8969120  +6.2787971     2197.131     3232.178     3078.049     77.39347     155.4698     311.0015      1.592     3.82     845.4489     54.85726     266.2897        21     1.259     1.058  22.97   0
        39    667.6745    970.7918 307.6266264  +6.3009244     611.4185     880.6516     976.0511     77.64193     155.2218     311.0634      1.475     5.82     849.5961     54.85726     85.19366         6     1.243     0.766  53.77   0
        40    867.8587    970.0468 307.5435308  +6.3078719      826.558     1403.529      1905.73     78.01312     155.6555     311.3419      1.846     3.96      845.976     54.85726     121.9534         7     1.044     0.770  30.50   0
        41    283.7631    967.8033 307.7861283  +6.2893875      851.019     1238.377     1867.476     77.14422     155.4698     311.0325      1.456     4.52     848.7728     54.85726     128.7491         7     1.018     0.570  25.48   0
        42    560.4416    966.5134 307.6712933  +6.2991286     1759.477     2715.257     2865.726     78.01313     155.5936     311.2491      1.606     3.47     850.5048     54.85726     236.0997        19     1.210     0.967 -12.98   0
        43    992.0557    965.5410 307.4921104  +6.3138450     676.2843     1564.902      1798.76     78.13647     155.6555     311.2491      2.817     4.91     843.1741     54.85726     93.57983         6     1.254     0.545  24.72   0
        44    599.4631    962.6955 307.6552181  +6.3020015     1301.179      1941.46     2030.803      77.8896     155.7792     311.2491      1.604     3.46      849.827     54.85726      211.764        16     1.144     0.901  47.55   0
        45     49.0385    963.1181 307.8837400  +6.2834900     718.3475     1433.344     1638.105     78.01313     155.7173     311.1563      1.887     3.47      845.295     54.85726     122.0192         8     0.980     0.578 -66.37   2
        46    279.4720    960.6296 307.7881495  +6.2922062     1492.975     2278.494     2691.357      77.8896     155.6555     311.1872      1.767     3.64     848.5361     54.85726     209.2205        16     1.191     0.921 -27.18   0
        47    247.8738    974.3491 307.8008107  +6.2854888     4656.532     6854.168     6926.077     78.01312     155.7173     311.2491      1.575     3.21     848.2265     54.85726     681.4773        28     1.314     1.090  55.00   0
        48    746.0430    956.2217 307.5945707  +6.3095408     826.3545     1011.891     724.0388      77.5178     155.5317     311.0325      1.435     4.35     848.8255     54.85726      106.406         6     0.831     0.649   0.39   0
        49    883.9652    953.0858 307.5374059  +6.3154081     6763.324     10648.73     10901.24     78.01313     155.5317     311.2182      1.685     3.60     845.8161     54.85726     771.0543        35     1.435     1.175  36.98   0
        50    122.3198    954.4308 307.8536053  +6.2895235     606.7946     932.2429     940.5901      77.8896     155.6555     311.1872      1.413     3.48     846.0333     54.85726     86.88403         5     0.753     0.463  17.08   0
        51     92.4721    951.7678 307.8660868  +6.2896265     633.0682     777.0749    -167.6119     77.88959     155.6555     311.1872      1.405     4.25     845.5483     54.85726     97.52356         5     0.879     0.587  41.51   0
        52    419.7670    950.4535 307.7302380  +6.3010801     2306.687     3336.999     3522.439     77.88959     155.5936     311.1563      1.541     3.38     849.7343     54.85726     338.6215        20     1.288     0.911  21.23   0
        53    321.5276    948.8920 307.7710798  +6.2984535     10472.43     15153.49     15592.36     77.88959     155.7792     311.2491      1.546     3.20     848.9153     54.85726     1374.927        34     1.355     1.056  44.26   0
        54    241.6310    947.8210 307.8042888  +6.2962328     7603.156      10841.3     10870.12      77.5178     155.4698     311.0944      1.532     3.02     847.7297     54.85726     1003.232        32     1.376     1.026  33.64   0
        55    160.2495    945.4651 307.8381569  +6.2944909     504.0543     748.2395     381.4377     77.88959     155.5317     311.2182      1.313     3.05     846.3961     54.85726     98.87012         5     0.721     0.477  15.67   0
        56    569.6072    942.1276 307.6682995  +6.3095011     1313.516      1868.77     2050.077     77.64193     155.2218     311.1253      1.549     3.81     849.8417     54.85726     200.0618        15     1.278     0.796  35.83   0
        57    753.9545    941.5027 307.5917749  +6.3158802     757.3249     984.4586     1204.595     78.01312     155.5317     311.3728      1.581     5.60     848.3977     54.85726     101.6127         8     1.453     0.609  43.12   0
        58    899.8545    938.1110 307.5313052  +6.3221171     1042.531     1512.893     1281.332     78.01312     155.5317     311.3419      1.483     4.24     845.6395     54.85726     138.3342        14     1.172     0.867  73.65   0
        59    132.0084    938.7458 307.8501072  +6.2963224     566.5733     593.1064     365.0405      77.5178     155.5936     310.9396      1.306     4.92     845.8398     54.85726     83.92004         7     1.036     0.661  68.58   0
        60    855.2817    936.6412 307.5498621  +6.3212471     719.8793     1156.495     1322.445     78.01313     155.6555     311.1563      1.639     4.14     846.2357     54.85726     106.0198         6     0.713     0.685  58.96   0
        61    398.4088    936.1841 307.7395820  +6.3062604     742.9758     1048.008     1483.855     77.76586     155.4078     311.0944      1.622     5.07     849.1561     54.85726     87.74609         9     0.897     0.811 -55.37   0
        62    828.9399    932.0602 307.5609523  +6.3222653     442.1825     805.0355     260.4467     78.01313     155.6555     311.2491      1.229     3.78     846.7861     54.85726     83.91547         5     1.520     0.270 -68.00   0
        63    736.0124    931.1375 307.5995695  +6.3195644     1755.692     2513.214       2291.4      77.5178     155.4698     311.0015      1.513     3.44     848.4752     54.85726     243.5826        18     1.206     0.911  42.16   0
        64    559.8883    931.8378 307.6726777  +6.3134263     693.2147     1127.778     1237.786     78.01312     155.5317     311.2182      1.645     3.74     849.6562     54.85726      108.301         6     0.916     0.459  33.52   0
        65    967.5235    926.8846 307.5035789  +6.3289929     1239.539       2068.1      2886.49     78.13647     155.9645      311.311      1.850     4.14     843.8469     54.85726     168.8459        16     1.203     0.903  61.88   0
        66    600.3122    927.9130 307.6560234  +6.3163901     941.3428     1334.703     1057.542     77.76585     156.0262      311.311      1.495     3.58     849.5659     54.85726     164.7553        11     1.129     0.643  23.81   0
        67    521.0765    926.8636 307.6889589  +6.3141897     1316.237     1999.925     2172.761     78.25961     155.6555     311.1872      1.485     3.64     849.7094     54.85726     223.3475        12     1.166     0.698  58.73   0
        68    611.5547    926.7582 307.6513936  +6.3172403      706.968      943.036     925.8463     77.88959     155.6555     311.0634      1.363     5.15     849.5321     54.85726     93.89954         7     1.126     0.665  54.19   0
        69    654.5552    924.5174 307.6336132  +6.3195937     2845.346     4058.857     3935.149     78.01313     155.6555     311.2182      1.527     3.11     849.2867     54.85726     380.5266        21     1.254     0.932  38.60   0
        70    944.5795    922.0256 307.5132674  +6.3302394      612.744     1052.398     1064.333     77.64193     155.4698     311.1253      1.829     4.87     844.6406     54.85726     93.98358         7     0.917     0.732  34.99   0
        71    815.5157    921.1967 307.5668873  +6.3263054     795.6445     1000.905     920.0676     77.39347     155.2839     310.9396      1.502     4.73     846.9284     54.85726     116.1724        10     1.234     0.746  77.65   0
        72    194.5337    920.0076 307.8247731  +6.3061448     2415.618     3281.333     3056.671      77.5178     155.4078     311.0634      1.464     3.49      846.591     54.85726     336.2576        19     1.206     0.937  51.55   0
        73     51.0999    920.9789 307.8842945  +6.3009557     2980.023     4673.251     4438.297     78.01313     155.4078     311.0015      1.608     3.34     843.5116     54.85726     461.8161        23     1.243     1.026  56.78   0
        74     68.6798    920.3700 307.8770158  +6.3017943      2267.33      3026.54     3114.267     77.88959     155.6555     311.1872      1.434     2.84     843.9686     54.85726     328.2217        16     1.071     0.872  41.20   0
        75    932.4213    919.4006 307.5184031  +6.3309206     601.8176     823.0698     653.4356     77.64193     155.3459     310.9396      1.145     3.41       845.08     54.85726     101.3006         5     1.031     0.327 -21.92   0
        76    333.4996    916.2255 307.7671992  +6.3123388     995.9135     1650.803     2097.061     78.13647     155.4078     311.1253      1.810     4.69      848.209     54.85726      164.868        12     1.224     0.801  46.56   0
        77    228.2890    916.3026 307.8108815  +6.3088002     880.9604     1381.378     1737.303     78.01313      156.088     311.2182      1.706     3.96     847.0874     54.85726     139.7953         9     1.037     0.731  53.76   0
