#   1 NUMBER                 Running object number                                     
#   2 X_IMAGE                Object position along x                                    [pixel]
#   3 Y_IMAGE                Object position along y                                    [pixel]
#   4 ALPHA_J2000            Right ascension of barycenter (J2000)                      [deg]
#   5 DELTA_J2000            Declination of barycenter (J2000)                          [deg]
#   6 FLUX_APER              Flux vector within fixed circular aperture(s)              [count]
#   9 FLUXERR_APER           RMS error vector for aperture flux(es)                     [count]
#  12 FLUX_RADIUS            Fraction-of-light radii                                    [pixel]
#  13 FWHM_IMAGE             FWHM assuming a gaussian core                              [pixel]
#  14 BACKGROUND             Background at centroid position                            [count]
#  15 THRESHOLD              Detection threshold above background                       [count]
#  16 FLUX_MAX               Peak flux above background                                 [count]
#  17 ISOAREA_IMAGE          Isophotal area above Analysis threshold                    [pixel**2]
#  18 A_IMAGE                Profile RMS along major axis                               [pixel]
#  19 B_IMAGE                Profile RMS along minor axis                               [pixel]
#  20 THETA_IMAGE            Position angle (CCW/x)                                     [deg]
#  21 FLAGS                  Extraction flags                                          
         1    172.4327     16.5226 307.8650346  +6.6681112     11812.62     16942.45     18047.04     78.12727     156.1305     312.1368      1.578     2.92     831.3674     55.02466      1699.16        39     1.346     1.146 -84.90   0
         2    516.6768     14.7418 307.7220734  +6.6804146     3087.933     4398.187     4586.239     78.37489     156.1305     312.1057      1.473     2.75     823.7344     55.02466     452.5347        23     1.247     1.020  69.51   0
         3    918.0718     14.3111 307.5553136  +6.6940292     4393.159     6003.778     5880.652     78.25117     156.3785     312.1989      1.413     2.52      820.824     55.02466     809.2221        23     1.185     0.935 -89.85   0
         4    718.8499     13.0162 307.6381322  +6.6879018     2188.017      2913.54      3159.81     77.75434     156.1925     311.8573      1.394     3.15     822.0601     55.02466     349.2837        18     1.196     0.872  80.71   0
         5    454.9245     13.4563 307.7477732  +6.6788732     1958.244     2772.912     2618.629     78.25117     156.0684     312.0747      1.535     3.61     824.7646     55.02466     287.1295        17     1.179     0.922 -73.47   0
         6    982.8843     10.5597 307.5285099  +6.6977423     2203.725     3106.447     3327.379     78.25117     156.0684     312.1057      1.562     3.23     817.8782     55.02466     326.9267        19     1.241     0.882 -89.99   0
         7    777.8647     10.2150 307.6137063  +6.6910332     591.3773     804.9119     999.4265     77.75434     156.0063     312.0747      1.383     3.98     821.3098     55.02466     83.68182         6     0.805     0.562 -42.23   0
         8    702.2150      7.1281 307.6452417  +6.6897758     8053.761     11471.16     12160.23     77.75434     156.0063      305.422      1.491     2.80     822.1643     55.02466     1344.045        31     1.288     1.027  78.75  16
         9    622.4678      6.4202 307.6783994  +6.6873970     4067.508     5568.118     6027.315     77.87885     156.0684     300.0454      1.490     2.77     823.0468     55.02466     641.0726        24     1.180     0.973  87.93  16
        10    324.7595      5.8187 307.8021103  +6.6776541     964.0458     1399.267     2246.859     77.87885     155.9442     294.2086      1.892     3.30     832.2198     55.02466     160.3906        10     0.953     0.735  59.03  24
        11    378.3178      4.1173 307.7799159  +6.6801563     766.6799     1169.864     1322.363     78.00316     155.0094     275.3257      1.605     5.19     829.2154     55.02466     121.5963         8     1.105     0.758 -79.60  16
        12     23.5888      2.3484 307.9273509  +6.6689481      9028.56     11621.12     12036.19     77.00307     137.9441     250.6806      1.426     3.20     832.7573     55.02466     1296.469        29     1.186     1.088  71.69  24
        13    669.8473      1.9540 307.6588641  +6.6908281     898.4426      1077.58     1012.998     74.83353     132.7908      244.775      1.242     3.64     822.7009     55.02466     170.8792         8     0.926     0.666  32.14  24
        14    422.5757      2.6336 307.7615780  +6.6822552     6821.759     9367.894      9300.52     77.75434     141.6177     254.9727      1.476     2.96     826.0001     55.02466     918.2833        28     1.185     1.110 -89.40  24
        15    743.5375    998.0119 307.5948066  +6.2820652      8431.05     12425.56     12747.44     77.75434     155.9442     311.9194      1.555     3.05     855.2849     55.02466     1144.689        37     1.314     1.159  85.84   0
        16    710.6568   1022.8951 307.6076224  +6.2706921     7475.258     9051.628     9342.874     76.11723     135.0337     247.2953      1.300     2.71     856.6146     55.02466     1177.394        21     1.044     0.947   7.61  24
        17    703.0190   1022.4843 307.6108070  +6.2706062     1347.674     1800.747     2312.565     77.87885     139.8276     253.3334      1.532     4.43     856.6565     55.02466     167.9993        13     1.131     0.811  69.18  24
        18    577.8326   1023.5390 307.6627424  +6.2659800     3584.274     5180.564     6126.624     69.74036     126.1301     236.9717      1.437     3.09     856.9005     55.02466     987.3724        24     1.577     0.848   0.63  24
        19    566.7340   1022.1421 307.6673969  +6.2661849     4551.981     6373.295     6660.812     78.37489     144.1268     258.4824      1.490     2.98     856.9329     55.02466     667.8756        26     1.209     1.069  62.96  24
        20    425.3864   1022.8329 307.7260527  +6.2611613     4046.893     5083.125     5219.836      76.2444      135.535     248.0776      1.352     2.98     857.0386     55.02466     626.1894        21     1.480     0.909  34.75  24
        21    582.2047   1000.3960 307.6617049  +6.2756812     477.2383     742.2075     974.8834     77.62964     155.6955     312.0126      1.278     3.51     856.5686     55.02466     77.69373         5     0.800     0.444  17.92   0
        22    289.2911    997.2119 307.7834135  +6.2671703      16271.7     23949.03     26206.04     78.00316     155.8199     311.9816      1.603     3.04     855.5345     55.02466     2602.312        57     1.656     1.280 -48.70   0
        23    413.5911    997.8455 307.7317903  +6.2710816     991.5757     1616.758     1832.417     77.75434     156.0063     311.8573      1.771     5.34     856.8112     55.02466     138.6319        12     1.214     0.804 -71.75   0
        24    804.8753    997.4570 307.5693601  +6.2843450     1094.528     1504.927     1388.332     78.25117     156.0684     312.1057      1.428     3.27     854.1849     55.02466     167.2635        11     0.979     0.750  74.30   0
        25    115.5982    997.5475 307.8555073  +6.2611922      463.818     591.2675     526.5162     77.62964     155.8199     311.7641      1.265     4.24     854.1336     55.02466     85.50232         5     1.044     0.490 -89.15   0
        26    904.8384    991.6442 307.5280535  +6.2900844     8828.562     13825.88     13944.58     78.00316     156.0684     312.0747      1.687     3.44     853.2182     55.02466     1164.595        42     1.501     1.210 -88.34   0
        27    260.4347    994.6951 307.7954776  +6.2672399      1082.75     1519.664     1601.609      78.3749     156.0063     312.2609      1.453     2.76     855.1359     55.02466     172.3425        10     0.900     0.737  89.01   0
        28    536.2187    990.8365 307.6811174  +6.2780872     9118.521     12933.63     13885.43     77.75434     155.9442     311.9505      1.490     2.93     856.7765     55.02466     1398.619        34     1.327     1.055  81.29   0
        29    878.4913    987.7043 307.5391240  +6.2908311     12716.58     20216.51     22045.67     78.25118     156.6261     312.1368      1.756     3.47      853.144     55.02466     1651.547        55     1.539     1.385 -86.63   0
        30   1000.1863    987.1644 307.4886177  +6.2951161      4814.19     7895.092     7744.282     77.75434     155.9442     311.9816      1.734     3.67      851.051     55.02466     568.5035        32     1.408     1.174  80.13   0
        31     34.9674    989.6966 307.8892440  +6.2617193     623.9111     761.9434     430.3521     78.37489     156.0063     312.2609      1.317     3.38     852.8334     55.02466     83.61011         7     0.723     0.685   3.06   0
        32    591.1638    987.8589 307.6584067  +6.2811573     1490.359      2159.96     2104.004     78.25117     156.1305     312.1678      1.518     3.66     856.3304     55.02466     228.7068        16     1.225     0.788  89.87   0
        33    522.8613    986.6461 307.6868036  +6.2793696     4546.308     6714.442     7508.941     78.12727     156.0063     312.1989      1.635     3.39     856.7415     55.02466     655.9265        32     1.632     1.184  23.51   0
        34    632.1632    985.9382 307.6414500  +6.2833232     1526.117     2150.949     2405.911     78.25117     156.1925     312.1678      1.463     3.28     856.1147     55.02466      267.213        16     1.162     0.966 -58.04   0
        35     57.4387    984.9852 307.8800748  +6.2644209     874.8206     1285.739     1306.068     78.00315     155.9442     311.9194      1.810     4.34     853.0195     55.02466      151.433         8     1.119     0.480 -82.85   0
        36    475.6099    983.1465 307.7065379  +6.2792303      2359.79     3279.716     3697.549     77.62963     156.0684     311.8884      1.468     3.41      856.707     55.02466     322.0966        17     1.194     0.877 -81.42   0
        37    787.5687    984.2803 307.5769870  +6.2892067     638.3105     974.0514     826.9179     78.12727     156.1305     312.1368      1.571     4.30     854.1349     55.02466     87.30383         7     0.880     0.650  16.65   0
        38    910.1928    975.2618 307.5263792  +6.2970269     45119.25     69789.47     73556.31     77.62963     155.9442     311.9505      1.671     3.32     852.6641     55.02466     6136.896        73     1.544     1.322  87.42   0
        39    315.5407    975.6462 307.7732428  +6.2769553      578.056     890.7377     933.1575     78.12727     156.1305     312.2609      1.268     4.96     855.6102     55.02466     86.68744         7     1.064     0.655 -42.61   0
        40    217.5264    973.2726 307.8140127  +6.2746420     1912.025     2794.354     2252.769     78.49842     156.2545     312.2299      1.484     3.94     854.5894     55.02466     278.2319        18     1.403     0.810 -72.75   0
        41    808.1910    969.0629 307.5689354  +6.2961787     2446.839      3899.02     3951.475     77.75434     155.9442     311.9816      1.684     3.77     853.5259     55.02466     344.8791        24     1.470     1.053  86.25   0
        42    756.3245    967.1011 307.5905348  +6.2952547     6966.076     10547.46     11942.56     77.75434     156.2545     312.1057      1.647     3.42     854.0172     55.02466      998.061        44     1.740     1.139 -82.91   0
        43    616.2408    971.6387 307.6485406  +6.2886937     970.0214      1307.38     1450.704     78.00316     156.1925     312.0437      1.529     2.78      855.891     55.02466     177.7287         8     0.847     0.659  -1.82   0
        44    105.5546    971.7628 307.8605470  +6.2714993     884.0696     1420.755     1571.529     78.00316     156.1305     312.0747      1.729     3.84     853.4653     55.02466     115.8776        11     1.064     0.744  65.44   0
        45    724.0985    967.9828 307.6038845  +6.2938129     580.6867     773.7452     670.7641     78.25117     155.9442     311.9505      1.377     3.45     854.5331     55.02466     94.79718         5     0.867     0.768 -80.43   0
        46    543.0544    966.0604 307.6791124  +6.2885452     969.1722       1296.3     1043.432     78.37489     156.0684     312.1368      1.397     3.34     856.5578     55.02466     132.9649         9     0.916     0.685  73.95   0
        47    225.8441    965.7209 307.8108143  +6.2780392     1635.337     2353.366     2273.518     78.25117     156.1305     312.1678      1.401     2.56     854.6204     55.02466     279.2198        11     0.886     0.764  68.48   0
        48    190.0659    965.4769 307.8256755  +6.2769372     1054.281      1472.06     1498.053     78.37489     156.1925     312.1368      1.560     4.70     854.3637     55.02466     136.9816        12     1.023     0.881 -73.43   0
        49     50.6889    963.8860 307.8835894  +6.2729043     2864.251     4143.519     4030.214     78.00316     156.4404      312.292      1.493     2.90     852.3162     55.02466     443.1364        23     1.164     1.045  65.96   0
        50    944.5575    962.0164 307.5125552  +6.3036426     6907.725     10809.49     11199.88     77.75434     155.9442     311.9505      1.660     3.27     851.6973     55.02466     838.2292        38     1.403     1.205  72.46   0
        51    200.8274    957.5203 307.8214763  +6.2805839     598.6051     865.3057     105.1908     78.12727     156.0684     312.1678      1.375     5.86     854.3963     55.02466     84.54883         8     1.211     0.798  22.39   0
        52    918.3790    953.8066 307.5236989  +6.3061583     2075.284     3280.869     2218.371     77.87885     155.9442     311.9816      1.695     3.66     851.8697     55.02466     266.0695        21     1.262     1.039 -84.56   0
        53    626.8813    956.0109 307.6446480  +6.2955021     776.3229     962.2413     878.1071     77.87885      155.882     312.0126      1.247     2.94     855.5712     55.02466     140.7057         8     0.836     0.631  48.81   0
        54    251.0917    949.6031 307.8008763  +6.2855420     4824.242     6916.287     6979.748     77.87885     155.8199     311.9194      1.513     2.95     854.7286     55.02466     753.7821        26     1.321     0.992  85.79   0
        55    777.5593    950.0848 307.5822893  +6.3029901     1394.308     1855.132     1932.987     78.25117     156.0684     312.1368      1.406     3.45     853.3113     55.02466     228.8376        12     1.056     0.850  83.34   0
        56    638.9854    949.5612 307.6398393  +6.2985701     4893.655     6733.726      6520.37     78.00315     155.9442     311.9194      1.447     2.87     855.3999     55.02466     827.1628        26     1.234     0.986  81.86   0
        57    461.2367    947.9169 307.7136901  +6.2932930     1328.217     1929.642     1522.717     78.25117     156.0684     312.1057      1.565     3.81     856.4099     55.02466     210.0006        13     1.063     0.824  81.35   0
        58     19.8512    946.9371 307.8969637  +6.2788629     2386.847     3626.297     3919.689     78.25117     156.0684     312.1368      1.543     2.98     851.1945     55.02466     366.8846        19     1.256     0.857 -65.59   0
        59    870.6612    945.9225 307.5437747  +6.3078198     944.4163     1369.968     1054.812     78.49842     156.1925     312.1368      1.461     3.49     852.3812     55.02466     148.5187         7     0.854     0.571  65.33   0
        60    995.1840    941.3329 307.4922282  +6.3138715     845.0168     1532.109      1373.95     77.75434     156.0063     312.0747      1.997     6.27     850.2114     55.02466     131.8674        14     1.612     0.797 -81.91   0
        61    941.9941    943.2638 307.5142473  +6.3112993     632.5814     793.8912     589.2693     77.62963      155.882     311.9505      1.421     4.67     851.0802     55.02466     112.1912         7     0.958     0.645 -10.32   0
        62    563.7294    941.9551 307.6713390  +6.2991899     1968.759     2706.737      2629.74     78.25117     156.1305     312.1678      1.458     2.76      856.074     55.02466     301.8518        16     1.008     0.877  81.30   0
        63    287.1281    942.9501 307.7861400  +6.2894995     947.5959     1524.359     1659.664     78.25117     156.1305     312.1989      1.562     2.30     854.8616     55.02466     185.0575         8     0.764     0.655  56.77   0
        64     52.4315    939.1944 307.8837000  +6.2831566      796.439     1212.503     1675.813     77.62963     156.0063     311.9505      1.519     4.09     851.6109     55.02466     130.2359         7     1.006     0.475 -80.94   0
        65    603.0009    938.3276 307.6551565  +6.3020031     1251.771     1850.681     1616.948     77.62963     155.6955     312.0126      1.533     3.56     855.4504     55.02466     179.6007        12     1.142     0.727  78.86   0
        66     47.2035    937.9836 307.8859113  +6.2834804     540.0963     1040.988     1836.148     77.87885     155.7577     312.0126      1.788     4.31     851.4751     55.02466     77.12299         5     1.039     0.508  55.59   0
        67    282.6586    936.0237 307.7882289  +6.2922089     1792.966     2663.387     3170.989     77.87885     156.1305     312.0437      1.577     2.96     854.7623     55.02466     298.6654        15     1.020     0.887 -85.89   0
        68    550.1700    933.7322 307.6772448  +6.3021305     732.6976     998.8841     517.2928     78.00316     156.1305     312.1368      1.549     4.86     856.2012     55.02466     101.8933         8     1.033     0.646  58.04   0
        69    749.6467    932.2374 307.5944767  +6.3094252     1090.909     1384.187      1691.99     78.00316     156.0684     312.0747      1.466     4.31      852.836     55.02466     155.3439        10     0.983     0.789 -70.41   0
        70    887.2150    928.9060 307.5374719  +6.3153982     7446.309     10858.05     10877.74     78.00315      155.882     312.0126      1.555     3.13     851.6991     55.02466     1071.812        32     1.299     1.096  86.18   0
        71    423.1996    925.9156 307.7302221  +6.3011004     2251.599     3138.298     3631.089     77.50472     155.6332     311.8573      1.513     2.98     856.1816     55.02466     372.3295        17     1.181     0.842 -76.55   0
        72    324.8245    924.3565 307.7711165  +6.2984420     10671.73      15297.8     16064.91     77.87885     156.0684     312.0437      1.504     2.83     855.0942     55.02466     1684.051        35     1.310     1.114  88.65   0
        73    244.8324    923.2103 307.8043646  +6.2962278     7819.682     11199.45     11567.53     77.75434      155.882     312.0126      1.496     2.86     854.5507     55.02466     1278.126        31     1.285     1.054 -89.87   0
        74    757.2180    917.2955 307.5918344  +6.3158474     843.9455     1176.935     1287.928     78.12727     155.9442     311.9816      1.454     4.72     852.6162     55.02466     137.2086         9     1.138     0.694  58.84   0
        75    573.0974    917.6893 307.6682651  +6.3095221     1251.748     1538.536     2002.915     78.25117     156.5643     312.1678      1.255     2.69     855.3541     55.02466      215.131        11     0.878     0.804 -58.56   0
        76    902.9265    913.6283 307.5314604  +6.3222305     1123.346     1423.159     1375.038     78.12727     156.1305     312.1057      1.428     3.81     850.9724     55.02466      190.785        12     1.157     0.701 -87.95   0
        77    859.5428    912.9360 307.5494963  +6.3210673      830.138     1421.406     1234.748     78.37489     156.0684     312.1989      1.572     4.26     851.8768     55.02466     142.1814         7     1.225     0.460 -80.25   0
