#   1 NUMBER                 Running object number                                     
#   2 X_IMAGE                Object position along x                                    [pixel]
#   3 Y_IMAGE                Object position along y                                    [pixel]
#   4 ALPHA_J2000            Right ascension of barycenter (J2000)                      [deg]
#   5 DELTA_J2000            Declination of barycenter (J2000)                          [deg]
#   6 FLUX_APER              Flux vector within fixed circular aperture(s)              [count]
#   9 FLUXERR_APER           RMS error vector for aperture flux(es)                     [count]
#  12 FLUX_RADIUS            Fraction-of-light radii                                    [pixel]
#  13 FWHM_IMAGE             FWHM assuming a gaussian core                              [pixel]
#  14 BACKGROUND             Background at centroid position                            [count]
#  15 THRESHOLD              Detection threshold above background                       [count]
#  16 FLUX_MAX               Peak flux above background                                 [count]
#  17 ISOAREA_IMAGE          Isophotal area above Analysis threshold                    [pixel**2]
#  18 A_IMAGE                Profile RMS along major axis                               [pixel]
#  19 B_IMAGE                Profile RMS along minor axis                               [pixel]
#  20 THETA_IMAGE            Position angle (CCW/x)                                     [deg]
#  21 FLAGS                  Extraction flags                                          
         1     12.3959     87.4525 307.9359676  +6.6321739     729915.2      1761581      1978051     78.30048     157.2291     314.4896      2.378     6.39     860.8936     55.50015     61827.99       500     2.477     1.879 -52.16  28
         2    103.2952     48.2859 307.8995287  +6.6514102     8092.217     14628.16     15374.47     78.92739     157.8548      314.928      1.918     4.67     854.3229     55.50015     973.6708        45     1.755     1.197 -43.28   0
         3    189.4235     14.4813 307.8648882  +6.6682689     9203.268     16079.64     17298.33     78.67722     157.1664     314.7715      1.889     4.68     853.1111     55.50015     1135.889        43     1.709     1.156 -44.52   0
         4      2.6198     14.9516 307.9424755  +6.6617858      831.931     1426.208     1526.169     78.42625     142.9105     257.0226      1.810     6.51      855.436     55.50015      103.313        13     1.428     0.833 -54.46  24
         5    935.0826     12.1591 307.5551763  +6.6942106     3556.871     5910.758     6206.946     78.92739     157.4797     314.8028      1.840     4.48     834.7845     55.50015     478.2292        30     1.689     0.988 -52.77   0
         6    533.9099     12.6244 307.7218352  +6.6806016      2567.33      4192.92     4766.899     79.05218     157.2918     314.7089      1.752     4.44     839.8298     55.50015     329.9313        22     1.428     0.965 -46.66   0
         7    471.9550     11.0420 307.7476278  +6.6791780     1643.172      2923.51     3075.123     78.80241     157.4797     314.7089      1.891     5.26     841.3193     55.50015     210.2139        21     1.491     1.002 -49.06   0
         8    735.8634     10.8825 307.6379893  +6.6880821     1832.623     3034.002     2797.489     79.05218     157.4797     314.8654      1.704     4.58     837.5389     55.50015     275.2396        19     1.503     0.799 -45.38   0
         9    999.8399      8.4768 307.5283941  +6.6978919     1855.178     3093.506     3147.247     78.80241     157.4797     314.8968      1.826     4.87     827.9086     55.50015     238.0665        21     1.603     0.879 -49.01  16
        10    719.2684      4.9653 307.6450823  +6.6899709     6610.912     11261.04     11530.66     78.80241     157.5423     287.8484      1.809     4.59     837.6168     55.50015     944.5591        38     1.685     1.056 -47.70  24
        11    639.3544      4.2679 307.6783075  +6.6875847     3310.587     5704.845     6334.664     78.92739     156.7897     279.6503      1.879     4.70     838.4493     55.50015     407.4832        29     1.549     1.030 -41.37  16
        12    341.5823      3.4835 307.8020455  +6.6779245     852.8619     1660.593     1882.386     78.55184     151.3517     269.2347      2.007     6.41      849.251     55.50015     135.9594        12     1.575     0.732 -47.92  24
        13    676.4742      4.0249 307.6628936  +6.6889275     1743.611     1648.964     1807.498     78.55184     155.4639     276.5668      0.669     2.50     838.1481     55.50015     747.6895         5     0.507     0.370  14.26  16
        14    438.9965      1.6571 307.7616360  +6.6819485     3530.138     4932.293     5162.188     72.27817     129.9036     241.8075      1.382     3.74     842.7734     55.50015      661.854        21     1.445     0.780  -7.35  24
        15    395.7043      2.5111 307.7795931  +6.6801431      650.608     799.0964     583.8398     78.92739     141.6635     255.4454      1.398     3.34     845.3503     55.50015      119.126         5     0.765     0.422 -24.78  16
        16     39.6635      1.5706 307.9275383  +6.6685599      3989.62     5101.388     5139.768     71.45524     128.6072     240.7044      1.215     3.17     853.8615     55.50015     805.2465        17     1.243     0.694  -7.48  24
        17    821.5435    995.4645 307.5694530  +6.2843028     1072.526     1737.934     1747.812     79.05218     157.4171     314.8654      1.723     5.64     869.0778     55.50015     147.6591        11     1.012     0.887 -30.46   0
        18    990.7300   1023.2596 307.4982879  +6.2784677     465.8511     789.6886     1152.977     73.49529     131.1871     243.5135      1.698     3.85     865.6453     55.50015     72.52795         5     1.348     0.316 -30.79  24
        19    760.6724   1022.3813 307.5938229  +6.2711526     724.4731     1102.772     1649.878     78.55184     142.7034     257.2143      1.810     5.39     870.2175     55.50015      89.7652         9     1.346     0.610 -54.98  24
        20    727.8262   1021.2472 307.6074964  +6.2705233      6234.28     11100.99     12132.69     78.55184     153.6783     272.8351      1.886     4.42     870.1218     55.50015     732.2534        40     1.722     1.128 -43.46  24
        21    595.2719   1023.2673 307.6624558  +6.2652558     40455.21     52105.82     54972.08     73.36105     131.1871     243.4326      1.274     3.27     874.1222     55.50015     7638.038        48     1.490     0.925  -4.55  24
        22    442.5747   1021.3966 307.7259063  +6.2609145     3544.055     6031.285     6637.635     78.42626     152.3901     270.8771      1.849     4.82     874.7322     55.50015     442.5767        29     1.652     0.979 -47.93  24
        23    430.7408    995.7908 307.7316781  +6.2710932     777.7963     1266.745     1497.281     78.30048     157.3544     314.5836      1.659     4.63     874.5328     55.50015     145.9809         8     1.307     0.465 -48.83   0
        24      3.6071    995.8610 307.9089834  +6.2567169     730.6958     1133.937     1735.909     78.30048      152.584     270.8771      1.671     4.68     871.4938     55.50015     99.50574         8     1.075     0.578 -36.04  16
        25    277.4992    992.6246 307.7953981  +6.2672603     846.9999     1585.167     1676.988     79.05218     157.2291     314.6776      1.907     5.72     874.4615     55.50015     115.3922        11     1.365     0.675 -54.05   0
        26    921.7898    989.4603 307.5280365  +6.2901284     7206.497     13529.93     14993.54     78.30048     157.3544     314.5836      2.004     4.52     867.1802     55.50015     767.1606        50     1.812     1.289 -43.18   0
        27    553.2094    988.6930 307.6810758  +6.2781274     7327.855     12719.62      13560.7     78.55184     157.1037     314.6776      1.847     4.66     873.2308     55.50015     1052.045        36     1.680     1.052 -47.04   0
        28   1017.3977    984.9832 307.4884940  +6.2951655     3893.291     7612.893     8085.297     78.55184     157.0409     311.2762      2.049     4.82     863.7639     55.50015     422.8516        39     1.721     1.296 -34.61  16
        29    895.5372    985.5875 307.5390647  +6.2908521     10336.42     18947.16     20315.77     78.42626     157.2918     314.6462      1.983     4.41     867.3812     55.50015     1148.328        57     1.851     1.324 -36.56   0
        30    608.2433    985.7402 307.6583282  +6.2811890     1244.952     2217.982      2267.96     78.80241     157.4797     314.9906      1.814     6.26     873.0477     55.50015     167.4982        14     1.436     0.766 -44.68   0
        31    539.4545    984.4268 307.6869289  +6.2794288     3729.993     6241.284     7472.935     78.55184     157.5423     314.7089      1.932     4.69     873.2125     55.50015     490.4523        28     1.575     0.994 -43.40   0
        32    649.1223    983.9559 307.6414174  +6.2832936     1275.261     2276.492     2539.013     78.80241     157.4797     314.8654      2.009     5.93     871.4585     55.50015     158.4037        19     1.529     0.921 -45.68   0
        33     74.7624    982.9279 307.8798825  +6.2644524      796.347      1461.66     1585.974     78.80241     157.4797      314.928      2.171     6.97     872.2273     55.50015     135.1472        11     1.532     0.890 -44.51   0
        34    492.9630    980.9390 307.7063461  +6.2793122     1830.531      3204.35      3242.75     78.92739     157.5423     314.8654      1.795     5.01     873.2906     55.50015     252.4401        21     1.588     0.858 -43.89   0
        35    927.2043    973.1681 307.5263327  +6.2970380     35886.98     66835.38     73232.74     78.30048     157.3544     314.6462      1.999     4.53     866.5319     55.50015     4251.869        87     1.892     1.411 -45.86   0
        36    234.1963    971.4195 307.8140868  +6.2745640     1596.063     2608.353     2763.753     78.55184     157.0409     314.6776      1.720     4.65     873.5261     55.50015     222.7433        19     1.484     0.925 -39.53   0
        37      1.4182    971.9913 307.9106964  +6.2665012     1630.255     2165.248     2645.354     69.78027     126.2089     238.1519      1.303     3.28     871.3848     55.50015     377.9513        11     1.177     0.545 -85.00  24
        38    633.2091    969.6571 307.6485026  +6.2886668     832.6061     1148.137     781.1075     78.30048     157.4171     314.5836      1.612     5.24      871.683     55.50015     114.3665        10     1.139     0.681 -38.94   0
        39    123.0891    969.5843 307.8602709  +6.2715884     557.4434     1236.794     1555.046     78.67722     157.2291     314.7089      2.050     3.45     872.4775     55.50015     98.68158         5     0.763     0.450 -19.12   0
        40    825.1417    966.7541 307.5689189  +6.2962807      1967.23     3256.334     3295.846     78.92739     157.4797     314.9594      1.781     4.47     868.2134     55.50015     243.6801        20     1.381     1.012 -50.40   0
        41    773.4378    964.7455 307.5904511  +6.2953834     5772.706     10231.45      11365.9     78.92739     157.5423     314.8968      1.957     4.59      868.998     55.50015     734.2072        41     1.729     1.210 -50.68   0
        42    560.1886    963.6245 307.6790187  +6.2887145     774.5978     1159.007     1165.481     78.55184     157.2918     314.8028      1.654     5.96     872.8515     55.50015     117.6385        11     1.258     0.921 -47.14   0
        43    242.7837    963.5444 307.8107867  +6.2781048     1328.274     2150.985     2304.133     78.30048     157.4171     314.6149      1.729     5.46     873.5438     55.50015     178.9456        13     1.353     0.622 -44.76   0
        44    207.5244    963.1913 307.8254355  +6.2770663     761.8188     1271.569     843.9885     78.55184     156.9781     314.6462      1.823     5.38      873.206     55.50015     91.58331         9     1.256     0.649 -36.64   0
        45    961.5520    959.9335 307.5125148  +6.3036497     5673.421     10622.77     11218.27     78.80241     157.4171     314.8654      1.981     4.47     864.9849     55.50015     675.7498        40     1.678     1.224 -45.40   0
        46     67.5432    961.8515 307.8835891  +6.2729139     2204.596     3900.894     4477.543     78.92739     157.4797     314.8654      1.944     4.92     871.8052     55.50015     252.7609        28     1.733     1.000 -39.40   0
        47    643.8604    954.2246 307.6445975  +6.2953969     639.9767     1369.124     1267.386     78.55184     157.4797     314.7402      2.043     6.82     870.9102     55.50015     89.02173        10     1.433     0.912 -36.85   0
        48    935.3345    951.7672 307.5236720  +6.3061481     1657.391     3057.522     3383.169     78.80241     157.5423     314.8341      1.994     5.80      865.526     55.50015     193.0496        23     1.640     0.994 -55.12   0
        49    268.2392    947.5375 307.8007576  +6.2855704     3837.057     6573.309     7169.489     78.92739     157.4797      314.928      1.870     5.12     873.5509     55.50015     458.5075        33     1.655     1.054 -42.31   0
        50    794.7065    948.2426 307.5821732  +6.3029098     1216.948     2244.614     2627.968     79.05218     157.4171     314.9906      2.052     5.07     868.0896     55.50015     144.1067        19     1.558     0.842 -39.47   0
        51    656.0355    947.4282 307.6397706  +6.2986111     3954.899     6868.084     6859.375     78.55184     157.2291     314.6776      1.846     4.57     870.3941     55.50015     517.8894        32     1.583     1.083 -41.41   0
        52    478.5381    945.7651 307.7135142  +6.2933559     998.8569         1541     1264.387     78.80241     157.4797     314.8341      1.796     6.35     872.9286     55.50015     149.8757        13     1.481     0.764 -49.94   0
        53     36.9627    944.9685 307.8968521  +6.2788576     1921.083     3222.254     3580.253     78.55184     157.2291     314.6776      1.809     4.88     871.4249     55.50015     218.1859        19     1.454     0.833 -46.88   0
        54    887.5781    944.3163 307.5437477  +6.3076321     860.8032     1093.763     1270.036     78.67722     157.1664     314.7402      1.518     5.80     866.5422     55.50015     105.1157        12     1.075     0.881 -22.05   0
        55    980.3721    941.7903 307.5053070  +6.3117707     561.0441     943.6627     780.8113     78.55184     157.2918     314.7402      1.659     3.87     863.9415     55.50015     78.54486         6     1.203     0.357 -29.12   0
        56    959.1846    941.2582 307.5141212  +6.3112840     613.6069     1044.691     1035.476     78.30048     157.4171     314.6149      1.764     5.53     864.4783     55.50015     86.74567         7     1.442     0.597 -37.38   0
        57    580.6664    939.8885 307.6713128  +6.2992032     1470.989      2509.96     2666.716     78.92739     157.6673     314.8341      1.794     5.12     872.0729     55.50015     216.2125        18     1.565     0.778 -48.76   0
        58    304.6859    940.9766 307.7858479  +6.2895035     809.7104     1406.051     1900.627     78.92739     157.2918     314.7402      1.879     5.47     873.6232     55.50015     129.2571         9     1.186     0.711 -26.38   0
        59   1012.8383    938.4230 307.4919404  +6.3142437      719.735     1318.493     1309.689     78.55184     157.2291     314.6776      2.161     7.18     862.9686     55.50015     96.70697        11     1.707     0.846 -66.46  16
        60    619.8102    936.1728 307.6551867  +6.3020478     1115.274     1783.046     1217.825     78.55184     157.2918     314.7402      1.629     5.31     871.0883     55.50015     169.8876        12     1.263     0.724 -43.12   0
        61     69.7860    937.0570 307.8834931  +6.2832293      576.206     1088.947     1393.606     78.30048     157.3544     314.5522      1.951     4.42     871.3973     55.50015     90.00189         6     1.294     0.429 -35.89   0
        62    299.7608    933.8952 307.7881304  +6.2922628     1294.857     2305.583     2789.979     78.92739     157.3544     314.9906      2.023     5.23     873.4719     55.50015     180.1397        14     1.444     0.655 -47.52   0
        63    567.4686    932.1112 307.6770526  +6.3019735     540.1151     778.7538     479.6215     79.05218     157.7298     314.8341      1.559     4.73     872.2166     55.50015     101.6393         5     1.047     0.605 -19.00   0
        64    767.1927    930.2722 307.5941969  +6.3094127     668.2063     906.0963     974.8167     78.55184     157.0409     314.7715      1.488     5.05      868.356     55.50015     109.8843         8     1.245     0.580 -44.56   0
        65    904.2585    926.8141 307.5374072  +6.3154174      5801.93     10450.88     11344.42     78.30048     157.4171     314.5836      1.879     4.66     865.6309     55.50015     727.6935        38     1.742     1.104 -46.62   0
        66    440.1773    923.7855 307.7301770  +6.3011480     1710.675     3052.531     2787.318     78.67722     157.2918     314.7715      1.802     4.48      873.017     55.50015     278.7243        23     1.532     0.996 -32.01   0
        67    341.7962    922.2299 307.7710718  +6.2984912     8499.033     14412.16     15326.08     78.42625     157.3544     314.7089      1.807     4.68     873.3292     55.50015     1063.731        41     1.751     1.033 -43.62   0
        68    261.9139    921.1044 307.8042720  +6.2962748     6507.478     11083.85     11730.07     78.92739     157.8548      314.928      1.818     4.70     873.1706     55.50015     836.4694        39     1.721     1.060 -48.23   0
        69    590.1099    915.4230 307.6682121  +6.3096237     1065.667      1671.99     1278.306     78.92739     157.2918     314.7402      1.592     5.87     871.2043     55.50015     140.9374        13     1.453     0.667 -43.61   0
        70    920.2872    911.6098 307.5312603  +6.3222319     1153.316     1816.531     1805.992     78.55184     157.1664     314.7089      1.669     5.14      864.845     55.50015      144.037        18     1.420     0.867 -22.29   0
        71    418.5819    909.5635 307.7396197  +6.3062978       615.08     1065.494     1061.624     78.42626     157.2918     314.6462      1.860     5.26     872.9614     55.50015     97.44916         7     0.926     0.843 -36.84   0
        72    756.2350    904.5278 307.5996074  +6.3196793      1523.92     2746.182     2818.625     78.80241     157.4797     314.8654      1.956     5.45      868.045     55.50015     235.4081        21     1.470     1.119 -47.69   0
        73    580.1739    905.3038 307.6726763  +6.3134705     551.3505     822.6538     614.6147     79.05218     157.2291     314.7402      1.667     4.55     871.1854     55.50015     78.95117         5     1.328     0.443 -59.66   0
        74    631.8315    901.5684 307.6513550  +6.3167420     536.4684     931.0646     824.2947     78.42625     157.2291     314.6149      1.787     3.38     869.9785     55.50015     96.70575         5     0.822     0.673 -61.59   0
        75      6.8383    901.5807 307.9108194  +6.2957625      696.014      1322.59     1312.939     78.55184     157.2918     305.9423      1.879     4.45     870.8531     55.50015     107.9615         7     1.207     0.467 -39.72  16
        76    987.5983    900.7353 307.5036772  +6.3289681     979.3942     1808.184     2086.532     78.30048     157.2291     314.6462      1.876     6.12     862.3149     55.50015     111.8023        13     1.562     0.674 -20.68   0
        77    541.5917    900.2887 307.6888623  +6.3142500     1148.178     1772.163      1241.47     78.55184     157.1664     314.6149      1.682     3.73     872.0002     55.50015     196.9193        13     1.242     0.714 -52.09   0
