#   1 NUMBER                 Running object number                                     
#   2 X_IMAGE                Object position along x                                    [pixel]
#   3 Y_IMAGE                Object position along y                                    [pixel]
#   4 ALPHA_J2000            Right ascension of barycenter (J2000)                      [deg]
#   5 DELTA_J2000            Declination of barycenter (J2000)                          [deg]
#   6 FLUX_APER              Flux vector within fixed circular aperture(s)              [count]
#   9 FLUXERR_APER           RMS error vector for aperture flux(es)                     [count]
#  12 FLUX_RADIUS            Fraction-of-light radii                                    [pixel]
#  13 FWHM_IMAGE             FWHM assuming a gaussian core                              [pixel]
#  14 BACKGROUND             Background at centroid position                            [count]
#  15 THRESHOLD              Detection threshold above background                       [count]
#  16 FLUX_MAX               Peak flux above background                                 [count]
#  17 ISOAREA_IMAGE          Isophotal area above Analysis threshold                    [pixel**2]
#  18 A_IMAGE                Profile RMS along major axis                               [pixel]
#  19 B_IMAGE                Profile RMS along minor axis                               [pixel]
#  20 THETA_IMAGE            Position angle (CCW/x)                                     [deg]
#  21 FLAGS                  Extraction flags                                          
         1      1.7951     62.6375 307.9347922  +6.6329801     86774.77     125865.6     143679.5     85.49552     153.4982     284.5463      1.603     3.77     1212.947      64.6803     23088.24       154     2.604     1.462 -87.96  24
         2     87.8196     24.7277 307.9002701  +6.6515205     4159.101     12140.17     15130.35     91.54491      183.382     366.8736      2.754     7.12     1205.975      64.6803     527.6221        64     2.222     1.777 -49.83   0
         3    417.4453     24.2679 307.7630749  +6.6626773     1106.677     3040.234     4258.409     91.98257      183.455     366.9831      3.146     8.33     1186.918      64.6803     166.7628        23     1.981     1.267 -48.83   2
         4    630.4221     16.4575 307.6746801  +6.6729720     8428.785     22943.03     28016.68     91.54491      183.455     366.7276      2.677     6.46     1176.529      64.6803     938.0393        79     2.252     1.823 -48.66   0
         5    530.3221     12.4790 307.7164845  +6.6712979     2311.823     6630.008     8321.951      92.2732     183.8195     367.0925      2.776     7.37     1178.282      64.6803     281.5736        46     1.919     1.701 -49.09  16
         6    256.2381      8.8346 307.8307023  +6.6636990     3741.705     11153.16     14748.38     91.69103      183.382     366.6911      2.973     7.56     1203.933      64.6803     457.1327        67     2.465     1.777 -44.03  18
         7    435.8297      8.2215 307.7559637  +6.6699217     9110.263      27784.6     34002.21     91.39855      183.309     366.1796      2.764     7.10     1186.203      64.6803     1055.903        83     2.336     1.888 -49.47  16
         8     22.1616      9.3760 307.9281205  +6.6556780     1023.865     2395.534     2939.795     91.54491      183.236     366.7276      2.670     8.01     1207.908      64.6803     156.4325        16     1.759     1.020 -49.11  16
         9    616.7704      7.1528 307.6806767  +6.6763664     1538.203     4497.857     5997.701     91.54491     183.6009      359.278      2.985    10.16     1176.425      64.6803     173.6219        33     2.120     1.476 -49.07  18
        10    913.8113      7.8243 307.5569965  +6.6859185     1288.518     2946.387     4243.322     91.54491      183.309     364.2736      2.756     5.77     1166.509      64.6803     207.3113        22     1.403     1.279  66.18  16
        11    244.4074      6.2325 307.8357151  +6.6643811     1129.479     3275.012     5182.049     91.39855      183.382     350.4503      3.235     9.19     1203.905      64.6803     154.7811        22     1.877     1.256 -35.40  16
        12    427.4722    997.0114 307.7260818  +6.2608509     2743.554     5656.714      6599.73     91.39855     183.0898     366.7276      2.193     6.08     1238.402      64.6803     277.6602        37     1.761     1.442 -49.53   0
        13   1005.7606   1022.9205 307.4846656  +6.2692718     734.1757     893.5311     1006.891     89.17441      158.476     290.1371      1.251     3.69     1230.935      64.6803      142.457         6     0.772     0.624 -26.77  24
        14    704.7250    995.7109 307.6108000  +6.2705753     977.2623     1604.072      2039.53     91.98257     183.8924      367.056      1.963     5.15     1235.697      64.6803     145.1046         9     1.097     0.684 -42.23   0
        15    744.8168    991.8292 307.5942536  +6.2735065      1025.01     2045.861     3341.292     91.54491      183.236     366.8736      2.957     6.27     1234.915      64.6803     147.2792        12     1.273     0.904 -60.87   0
        16    952.0967    986.1616 307.5082208  +6.2826987     5975.035     9540.011     10215.27     91.98257      183.382     367.1289      1.716     3.88     1232.248      64.6803     862.9165        29     1.502     1.010 -44.60   0
        17    237.0332    986.5673 307.8056466  +6.2588441      896.244     1785.883     1993.325     91.39855      183.236     366.6546      2.152     6.15     1237.945      64.6803     113.7449        12     1.519     0.701 -54.70   0
        18    711.6974    984.7098 307.6082695  +6.2753543     2166.335      4233.51      5373.14     91.98257     184.0379     366.9466      2.352     6.38     1235.089      64.6803     248.7218        28     1.850     1.089 -48.09   2
        19    727.8686    983.9322 307.6015689  +6.2762108     788.0715     1216.148     1624.885     91.98257     183.6738     366.9466      1.634     3.33     1234.779      64.6803     112.9075         5     0.782     0.512 -31.22   0
        20    358.8563    981.6782 307.7551397  +6.2649126     1257.637     2536.935     2657.608     91.98257      183.528     366.9466      2.139     6.58     1238.233      64.6803     166.3232        16     1.217     0.999 -46.59   0
        21    511.7672    974.0955 307.6917909  +6.2731209     777.2484     1576.004      1592.11       92.128      183.382      367.056      2.172     5.33     1237.235      64.6803     115.0331         7     1.161     0.690 -82.67   0
        22    291.3082    971.0643 307.7835946  +6.2670572      10004.2      21076.7     23847.43     91.98257     183.7467     367.0195      2.269     5.13     1237.836      64.6803     958.2208        69     2.197     1.484 -42.47   0
        23    745.4089    971.4720 307.5946914  +6.2819425     6144.406     11156.05     11664.13     91.39855     183.0167     366.7641      1.929     4.27     1234.044      64.6803     771.0143        41     1.723     1.222 -50.02   0
        24    541.0710    971.9796 307.6796729  +6.2749670     2945.827     6332.458     7680.003     91.54491      183.382     366.9101      2.261     5.20     1236.993      64.6803     320.9366        39     1.749     1.366 -45.01   0
        25    806.5266    970.5847 307.5692977  +6.2843304     963.5073      1775.04     2394.576     91.39855      183.236     366.8371      2.254     6.44     1233.474      64.6803     121.4823        12     1.451     0.801 -41.27   0
        26    568.8547    996.1011 307.6673038  +6.2659151     2834.721     5817.505     7376.887     91.83691      183.528     367.2383      2.271     5.83     1238.213      64.6803     296.8734        34     1.802     1.225 -46.87   0
        27    262.2227    967.7537 307.7958045  +6.2674593     685.7332     1267.081     1119.186     91.54491      183.528     366.8006      2.141     4.29      1237.64      64.6803     103.5977         5     0.758     0.692  25.36   0
        28    906.7325    964.7835 307.5278086  +6.2900396     7648.606     13084.78     13815.27     91.39855      183.455     366.8371      1.819     4.14      1231.73      64.6803     912.9893        37     1.714     1.067 -44.28   0
        29    538.1697    964.3780 307.6811358  +6.2780136     5638.929        11651     13720.64     91.39855      183.309     366.7641      2.202     5.08     1236.579      64.6803     596.4309        44     1.803     1.356 -39.36   0
        30    880.3403    960.9410 307.5389163  +6.2907565      10598.5      19007.2     21004.15     91.98257      183.528     366.9831      1.960     4.31     1231.744      64.6803     1268.592        55     1.880     1.284 -43.08   0
        31   1002.0450    960.4248 307.4883061  +6.2949877     4539.774      7610.75     7573.599     91.39855      183.528     366.8006      1.778     3.98     1229.445      64.6803      613.902        34     1.597     1.107 -53.64   0
        32    524.6299    960.0049 307.6869151  +6.2793728      2805.33     5831.409     6760.367     91.39855      183.309     366.7276      2.185     5.29     1236.445      64.6803     276.8909        35     1.707     1.344 -47.20   0
        33    634.2016    959.4208 307.6413561  +6.2832445     1080.344     1970.707     2138.264     91.54491     183.1629     366.6181      1.850     6.99     1235.223      64.6803      121.736        15     1.323     1.036  -9.89   0
        34    593.5217    960.8654 307.6582293  +6.2813000     975.4285     1844.973     2015.558       92.128     183.6009     366.9101      2.103     5.38     1235.964      64.6803     145.0988         8     1.055     0.776   7.21   0
        35    477.8297    956.7599 307.7064918  +6.2791626     1492.074     3330.927     3059.345     91.39855      183.236     366.8006      2.180     6.62     1236.607      64.6803     174.8215        25     1.663     1.218 -66.40   0
        36    912.0865    948.5626 307.5261257  +6.2969228     36884.89     64415.05     69527.07     91.98257      183.455     366.9466      1.902     4.25     1230.455      64.6803      4563.26        74     1.851     1.294 -49.94   0
        37    219.7381    947.3495 307.8141653  +6.2744826     1249.391     2662.773     2913.062     91.98257      183.455     367.0195      2.259     7.50     1236.829      64.6803       133.75        21     1.346     1.170  80.66   0
        38    618.7853    945.3198 307.6482434  +6.2885639     650.9995      1255.46     1319.297     91.54491      183.236     366.7276      2.455     4.53      1234.64      64.6803     97.96741         6     1.175     0.496 -47.28   0
        39    810.0052    942.4404 307.5687960  +6.2960813     1766.204      3416.75     3188.105     91.10514     183.1629     366.6181      1.989     5.06     1231.829      64.6803     222.9689        19     1.342     1.080 -47.43   0
        40    758.3154    940.1553 307.5903750  +6.2953169     5087.048     9679.972     10801.94     91.98257      183.455     366.9466      2.055     4.97     1232.559      64.6803     542.9486        42     1.885     1.224 -47.17   0
        41    228.8204    939.5528 307.8106508  +6.2780079     910.8405     1764.111     1549.762     91.54491      183.528     366.7276      2.079     5.86     1236.743      64.6803     107.0151        10     1.178     0.821 -82.27   0
        42    545.1990    939.2268 307.6790587  +6.2886450     849.1544     1530.164     1888.159     91.54491     183.1629     366.7276      2.149     4.87     1235.182      64.6803     104.5171         8     1.010     0.665 -61.14   0
        43     53.1193    937.7638 307.8837944  +6.2729010     1866.425     3689.742     4123.331     91.83691     183.6009     366.9466      2.126     5.82     1235.275      64.6803     211.4584        25     1.554     1.160 -53.80   0
        44    946.5139    935.2094 307.5122521  +6.3035803     6003.011     10173.92     11418.08     91.54491     183.1629     366.7641      1.866     4.34     1228.986      64.6803     790.4795        38     1.800     1.088 -48.37   0
        45    628.8309    929.8464 307.6445853  +6.2952938     595.7515     1338.449     1503.446     91.39855      183.528     366.8371      2.338     6.19      1233.58      64.6803     91.15637         6     1.223     0.881 -48.60   0
        46    920.0633    926.9621 307.5235322  +6.3061168     1745.008      3103.04     3256.056     91.98257      183.455     366.9831      1.938     5.06     1228.695      64.6803     226.4109        22     1.441     1.129 -69.98   0
        47    253.3667    923.4294 307.8009851  +6.2854897     2782.436     5952.046     6389.891     91.39855      183.236     366.6546      2.172     5.85     1236.733      64.6803     265.1025        37     1.712     1.419 -32.76   0
        48    779.8126    923.3637 307.5819967  +6.3029702     960.7103     2072.999     2241.272     91.39855      183.309     366.6181      2.233     7.78     1231.415      64.6803     111.5256        15     1.709     0.991 -61.26   0
        49    640.9951    923.0717 307.6397531  +6.2984976     3063.052     6455.501     6431.268     91.54491     183.0898     366.8006      2.154     5.14     1233.109      64.6803     311.2297        41     1.791     1.376 -31.81   0
        50    989.8413    922.2904 307.4946612  +6.3103515     789.8708     1026.021     1310.255     91.98257      183.528     366.9831      1.403     3.11     1227.966      64.6803     126.5331         6     0.762     0.547 -48.32   0
        51    463.3451    921.7308 307.7136976  +6.2931643     717.5417     1256.481     550.6818     91.98257      183.382     366.9101      1.701     5.26     1235.436      64.6803      102.702         5     1.407     0.554  54.41   0
        52     22.3005    920.9943 307.8971809  +6.2788072     1622.387     3434.922     4182.657     91.69102     183.0898     366.6181      2.306     5.71     1234.982      64.6803     178.7031        26     1.472     1.245 -44.22   0
        53    872.2087    919.4517 307.5436916  +6.3076414     775.0038     1513.766     1399.923     91.39855      183.382     366.6181      1.869     6.24     1229.273      64.6803      106.933         9     1.529     0.717 -18.01   0
        54    944.0844    916.5405 307.5138890  +6.3112186     680.9944     991.7686     657.9941     91.98257     183.6009      367.056      1.444     3.86     1228.036      64.6803      131.681         5     1.230     0.437 -31.21   0
        55    565.7786    915.6158 307.6712931  +6.2990885     1147.311     2206.368     1900.466     91.69103      183.236     366.8736      1.991     7.29     1233.927      64.6803     127.7489        15     1.306     1.153 -64.93   0
        56    996.3426    916.0790 307.4921649  +6.3131341     711.4689     1052.449     1503.685     91.98257      183.528     366.9101      1.304     3.11      1227.37      64.6803     128.1691         6     0.749     0.611 -28.54   0
        57    604.0123    912.3965 307.6554968  +6.3016862     659.7563     1190.208       789.72     91.54491     183.1629     366.8006      1.726     3.57     1233.242      64.6803     96.08545         5     0.776     0.584  88.39   0
        58    285.2782    909.5052 307.7881812  +6.2923070     892.0975     1804.618     2373.091     91.69103     183.7467     366.9831      2.244     6.90     1236.912      64.6803     106.3743        11     1.273     1.049 -30.67   0
        59    889.1153    902.1130 307.5372404  +6.3153684     5690.951     10220.96     11039.54     91.69103     183.7467     367.0195      1.910     4.29     1228.243      64.6803     637.2216        42     1.708     1.245 -46.77   0
        60    425.6205    899.3209 307.7301457  +6.3011777     1240.539     2761.535     2540.726     91.54491     183.1629     366.9466      2.168     7.92     1235.456      64.6803     146.2908        21     1.664     1.055 -25.97   0
        61    326.8923    898.1420 307.7712544  +6.2983874     5636.353     13063.45     14628.17     91.83691      183.455     367.0925      2.312     5.50     1236.663      64.6803      509.754        53     1.942     1.532 -44.95   0
        62    246.9886    897.2047 307.8045240  +6.2961197      4318.27     9828.559     10545.48     91.54491      183.236     366.8371      2.285     5.36     1236.331      64.6803     416.9188        46     1.776     1.499 -50.25   0
        63    904.7010    887.0552 307.5312620  +6.3221087     884.8831     1413.257     1540.488     91.83692      183.528     367.2383      2.053     5.33     1227.463      64.6803     121.3092        10     1.475     0.544 -39.73   0
        64    860.9943    885.3968 307.5495001  +6.3213506     805.2128     1485.378     1113.624     91.25196     183.1629     366.7641      1.982     4.62     1227.817      64.6803     119.2074         7     0.994     0.610 -48.81   0
        65    741.3945    879.6531 307.5994475  +6.3197713     1103.832     2235.529     2444.974     91.39855      183.236     366.5815      2.155     6.90     1229.836      64.6803     134.4817        14     1.193     1.120 -37.86   0
        66    972.3215    876.0257 307.5035010  +6.3289012     1250.546     1924.663     3131.774     91.69102      183.455     366.9101      1.775     4.65     1224.823      64.6803     161.9056        12     1.261     0.670 -58.33   0
        67    660.2737    873.5843 307.6333982  +6.3195958     1650.157     3598.166     3474.347     91.39855      183.236     366.8006      2.156     6.07     1230.408      64.6803     196.4623        29     1.688     1.264 -56.65   0
        68    527.1263    876.0838 307.6887035  +6.3141514     756.2656     1408.332     1330.672     92.12801     183.8924     366.9831      2.523     4.26     1233.318      64.6803     173.0217         6     0.837     0.618 -85.49   0
        69     56.7478    870.7446 307.8845530  +6.3007288     1746.863     4010.755     4213.738     91.98257      183.528     366.9101      2.286     7.42     1233.551      64.6803     200.2581        27     1.611     1.273 -56.93   0
        70    820.4111    870.7227 307.5668760  +6.3260763     706.6006     1140.723     2039.663     91.54491     183.0898     366.7641      2.981     5.32     1228.373      64.6803     122.3528         5     1.083     0.739 -35.69   0
        71     74.1422    869.6756 307.8773537  +6.3017500     1335.579     3000.369     3326.238     92.12801      183.528     366.9101      2.362     7.65     1233.523      64.6803     164.2461        22     1.495     1.246 -25.65   0
        72    200.3701    869.1201 307.8248650  +6.3061805     1163.989     2641.167     2945.686     91.83692      183.528     366.9101      2.413     7.09     1235.663      64.6803     131.5508        18     1.365     1.031 -16.76   0
        73    937.9557    868.5538 307.5180484  +6.3308560     651.7654     1103.999       925.51     91.98257      183.528     366.8736      1.988     4.48     1226.199      64.6803     93.40234         5     0.990     0.575  77.13   0
        74    654.4187    862.9814 307.6361907  +6.3237856      4470.67     9721.688     10937.96     91.69103      183.455     366.8736      2.290     5.52     1230.009      64.6803     446.5642        42     1.820     1.369 -44.24   0
        75     14.6360    861.9269 307.9023687  +6.3029713     712.0325     1351.747     1688.421     91.83691      183.528     366.9466      2.115     5.39     1233.303      64.6803     94.73364         6     1.237     0.663  69.64   0
        76    892.1846    858.9528 307.5374122  +6.3333140     2157.764     4309.841     4349.061     91.39855      183.309     366.6546      2.057     5.53     1226.202      64.6803     299.0408        27     1.660     1.091 -37.68   0
        77    337.5416    856.4627 307.7682312  +6.3159724     9337.706     21787.98     25164.39     92.12801      183.455     366.9831      2.402     5.65     1235.543      64.6803     837.5857        63     1.990     1.635 -51.14   0
