#   1 NUMBER                 Running object number                                     
#   2 X_IMAGE                Object position along x                                    [pixel]
#   3 Y_IMAGE                Object position along y                                    [pixel]
#   4 ALPHA_J2000            Right ascension of barycenter (J2000)                      [deg]
#   5 DELTA_J2000            Declination of barycenter (J2000)                          [deg]
#   6 FLUX_APER              Flux vector within fixed circular aperture(s)              [count]
#   9 FLUXERR_APER           RMS error vector for aperture flux(es)                     [count]
#  12 FLUX_RADIUS            Fraction-of-light radii                                    [pixel]
#  13 FWHM_IMAGE             FWHM assuming a gaussian core                              [pixel]
#  14 BACKGROUND             Background at centroid position                            [count]
#  15 THRESHOLD              Detection threshold above background                       [count]
#  16 FLUX_MAX               Peak flux above background                                 [count]
#  17 ISOAREA_IMAGE          Isophotal area above Analysis threshold                    [pixel**2]
#  18 A_IMAGE                Profile RMS along major axis                               [pixel]
#  19 B_IMAGE                Profile RMS along minor axis                               [pixel]
#  20 THETA_IMAGE            Position angle (CCW/x)                                     [deg]
#  21 FLAGS                  Extraction flags                                          
         1     12.7690     31.4395 307.9282500  +6.6388129     4661.097     15680.15     19626.09     91.58947     183.3983     366.9427      2.850     7.29     1225.728     64.71178     593.7235        71     2.199     1.948 -87.75  16
         2    813.7658     25.8146 307.5949338  +6.6677259     3005.814     7913.594     9495.836     91.58947     183.3252     366.9792      2.562     6.72      1189.65     64.71178     359.0758        45     2.057     1.516  64.77   2
         3    752.9781     14.1646 307.6206412  +6.6705287     936.5483     2327.295     2843.698     91.44305     183.3252     366.8331      2.535     7.22     1190.018     64.71178     120.9645        14     1.798     0.812  77.09   0
         4    755.4521     11.7471 307.6196933  +6.6716093     717.1915     1221.644     1353.864     92.31812     183.4713     367.1617      1.635     3.46     1189.887     64.71178     109.6439         5     0.744     0.465 -72.29   1
         5     80.8947      7.4736 307.9007070  +6.6509834     3501.645     11952.56     15230.69     91.88162     183.8362     362.1271      2.911     7.65     1220.254     64.71178     410.6494        66     2.111     2.022 -85.71  16
         6    410.3221      8.0556 307.7635253  +6.6616978     1063.876     2528.743     2963.037     92.02735     183.6173     365.7355      2.343     7.86     1206.956     64.71178      134.869        18     1.856     0.930 -38.94  16
         7    623.1804      1.6217 307.6751145  +6.6714141     5388.769      7947.32     8846.501     84.11537     150.9325      281.561      1.584     4.54     1192.465     64.71178     841.2123        26     1.831     0.725   1.30  24
         8    787.4776    999.1455 307.5728108  +6.2647463     11058.34     20278.74     21422.35     92.17285     183.6173     367.1252      1.963     4.26     1247.367     64.71178     1223.295        50     1.549     1.503 -32.90   0
         9    563.5367   1021.8994 307.6652086  +6.2479377     2104.447      3656.09     3567.045     91.73566     172.5561     307.8867      1.838     4.65     1250.223     64.71178     237.4761        23     1.269     1.244  48.71  24
        10    570.9297    990.1628 307.6632124  +6.2612937     104917.8     225953.5     253270.9     91.88162     183.6173     367.1982      2.243     4.77     1249.035     64.71178     11311.42       111     1.825     1.773 -53.04   3
        11    572.6655    982.8866 307.6627378  +6.2643572      49261.1     105862.1     116560.5     92.02735     183.8362     367.1617      2.200     4.97     1248.769     64.71178     5329.248        83     1.784     1.693  -6.24   3
        12    205.0008    993.3471 307.8153465  +6.2478381     2394.499     4866.451     5093.209     91.29639     183.1789     366.6138      2.149     5.13     1249.243     64.71178     344.5692        31     1.621     1.327 -64.70   0
        13    781.7883    986.9583 307.5755916  +6.2695931     5268.722     10150.93     10913.75     91.29639     183.3983     366.7965      2.010     4.48     1247.008     64.71178     600.1559        37     1.487     1.403 -72.46   0
        14    879.7005    983.7217 307.5349634  +6.2741644     1304.616     2721.798     3073.861     91.73566      183.909     367.1617      2.130     6.04     1245.516     64.71178     165.0829        16     1.290     1.016 -16.31   0
        15    202.7354    982.5605 307.8166573  +6.2522188     1574.951     3273.938     3315.544     92.02735     183.5444     367.2347      2.101     6.11     1248.872     64.71178     221.0402        22     1.388     1.222  29.47   0
        16    705.6641    979.4642 307.6075187  +6.2701725     5360.073      10361.4     11841.97     92.02735     183.6173     367.1617      2.054     4.47     1247.828     64.71178     616.4604        43     1.575     1.473 -53.03   0
        17    561.8977    978.6175 307.6673631  +6.2657642      2692.21     5797.763     7180.119     91.88162     183.3983     366.8696      2.345     5.45     1248.804     64.71178     279.3489        35     1.627     1.408 -41.82   0
        18    420.6548    979.6889 307.7260913  +6.2606404     2542.543     5737.774     7034.783     92.02735     183.4713     367.2712      2.451     5.66     1249.133     64.71178     302.4442        35     1.626     1.529  89.03   0
        19    737.8217    973.9714 307.5943257  +6.2735051     841.3672     1124.996     1508.314     91.29639     183.3252     367.0157      1.473     4.24      1247.54     64.71178     135.3077         8     1.048     0.631  11.83   0
        20    945.1796    968.7307 307.5082277  +6.2825188     6059.235     10386.93     10857.66     91.58947     183.4713     367.0522      1.789     3.88     1243.996     64.71178     727.6614        33     1.363     1.282 -86.50   0
        21    230.1223    968.8190 307.8057324  +6.2588058       740.46     1514.915     1262.809     91.44305     183.3252     367.0887      2.043     6.71     1249.067     64.71178     105.3693         8     1.211     1.044  62.41   0
        22    704.2795    967.2245 307.6085107  +6.2751833     1922.023     3869.669     4212.946     91.73566     183.3983     367.1252      2.301     7.65     1247.239     64.71178     217.2946        27     1.843     1.102 -32.18   0
        23    352.1003    964.1778 307.7551421  +6.2647739     1237.001     2778.216     3230.644     92.02735     183.3252     366.8696      2.393     6.25     1249.556     64.71178     176.8947        17     1.424     0.963  20.96   0
        24    604.0466    957.8331 307.6505336  +6.2757464     470.2674     645.3487     446.8528     91.73566     183.6173     367.0522      1.227     3.40     1247.463     64.71178      99.6145         5     1.544     0.217  27.16   0
        25    533.6942    954.6594 307.6799128  +6.2747276     2900.363     6592.616     7652.391     91.88162     183.6173     367.2347      2.396     5.46     1248.282     64.71178     360.0686        44     1.723     1.663  80.95   3
        26    531.2222    946.9881 307.6812024  +6.2778149     4932.635     11548.97      13242.9     91.58947     183.3983     367.0157      2.317     5.33     1248.006     64.71178     604.3684        49     1.754     1.610 -89.49   3
        27    284.4497    953.6689 307.7836467  +6.2668693     9344.218     21536.01     25059.04     91.88163     183.5444     367.1252      2.386     5.38     1249.349     64.71178     1108.848        77     2.115     1.769 -35.24   0
        28    798.7791    953.3151 307.5696644  +6.2840536     743.3259     1519.566     1565.157     91.73566     183.2521     367.0157      1.884     4.03      1245.23     64.71178     155.6667         7     1.264     0.662 -84.65   0
        29    409.8860    953.7893 307.7314542  +6.2709829     584.1934     1019.791     1051.755     91.58947     183.3252     366.9427      2.042     4.66     1248.376     64.71178     92.54944         5     0.959     0.643  28.78   0
        30    738.4399    954.0681 307.5947445  +6.2817482     5469.552     11343.74     12335.65     91.88162     183.5444     367.2347      2.166     4.81     1246.569     64.71178     643.3861        46     1.647     1.532 -23.04   0
        31    899.7316    947.3878 307.5278613  +6.2898364     7127.374     13209.18     14146.31     91.44305     183.4713     367.0157      1.958     4.28      1243.55     64.71178     795.2291        44     1.580     1.419 -77.91   0
        32    873.3439    943.5793 307.5389699  +6.2905386     9651.062     18899.04     20439.46     91.44305     183.6173     366.9061      2.058     4.36     1244.137     64.71178     1121.911        54     1.657     1.549 -54.00   0
        33    995.0906    942.8668 307.4883371  +6.2948503     4545.282     7893.091     7996.605     92.17285     183.7632     367.1617      1.856     3.97     1242.437     64.71178     475.9534        34     1.482     1.289 -63.39   0
        34    517.9323    942.9308 307.6868700  +6.2790508      2475.19     6031.345     6944.358     92.02735     183.7632     367.1252      2.530     5.88     1247.884     64.71178     299.4247        39     1.812     1.464  18.76   0
        35    587.2131    943.4283 307.6580275  +6.2811401     627.1577      1516.48     1611.289     91.58947     183.3983     367.0157      2.091     4.00     1247.219     64.71178     96.95752         6     1.386     0.330  40.91   2
        36    470.8585    939.7367 307.7065646  +6.2788102     1263.176     2996.993       3541.9     92.17285     183.5444     367.1617      2.291     8.33     1247.813     64.71178     153.3512        21     1.656     1.171 -59.00   0
        37    627.1577    941.0215 307.6414895  +6.2834567     879.6223     1696.375      1851.12     91.44305     183.4713     366.9427      2.085     6.86     1246.585     64.71178     131.1761        10     1.478     0.892  12.68   0
        38    905.1194    931.1198 307.5261712  +6.2967350     35051.67     65466.99     69706.19     92.31812      183.909     367.3076      1.988     4.24     1242.637     64.71178     3673.174        73     1.645     1.557 -57.97   0
        39    213.5505    929.7669 307.8139603  +6.2743881     979.0369     1800.257      2053.66     91.88162     183.6173     367.0522      1.920     4.58     1247.404     64.71178     130.9705         8     0.912     0.669  35.85   0
        40    803.0932    924.8807 307.5688347  +6.2959432     1635.286     3329.024     3723.964     91.73566      183.909     367.1982      2.137     5.58     1244.062     64.71178     189.2573        23     1.494     1.150  -9.18   0
        41    751.2717    922.9567 307.5904622  +6.2950254     4386.226     9810.946     11145.15     91.88162     183.6173     367.1617      2.269     5.56     1244.812     64.71178     497.4529        45     1.686     1.575 -61.83   0
        42    221.5704    922.5349 307.8108705  +6.2776422     975.3247     2098.215     2439.976     91.73566     183.6903     367.0522      2.321     7.75     1247.393     64.71178      119.015        16     1.465     1.146   9.94   0
        43     46.0106    920.7760 307.8839726  +6.2725295     1803.675     4124.004     4220.882     91.58947     183.3983     366.9792      2.270     5.09     1246.039     64.71178     264.9661        30     1.605     1.377  61.99   0
        44    939.4192    917.8563 307.5123491  +6.3033466      5528.18     10171.41     10678.58     91.44305     183.5444     366.9061      1.928     4.32     1241.091     64.71178     614.9163        39     1.464     1.417  24.77   0
        45    912.8416    909.5284 307.5236903  +6.3059100     1634.344     2841.856     2884.367     91.88162     183.6173     367.1982      1.888     6.29     1241.119     64.71178     185.1794        22     1.454     1.187 -42.93   0
        46    246.4268    906.0479 307.8010916  +6.2852792     2378.601     6002.074     6341.286     91.58947     183.6903     367.0522      2.433     6.24     1247.645     64.71178     271.7467        41     1.713     1.657  40.50   0
        47    772.3134    906.1227 307.5822787  +6.3026756     855.4128     1736.366     2149.352     92.02735     183.9819     367.2347      2.056     6.02     1243.625     64.71178     110.0488         9     1.548     0.657 -73.44   0
        48    633.9820    905.6655 307.6398523  +6.2982892     2624.434      6052.78     7215.438     91.58947     183.6173     367.0157      2.313     5.61     1244.776     64.71178     290.2834        36     1.628     1.466 -45.84   0
        49    982.6187    905.4062 307.4947960  +6.3099152     676.4172     1252.813     1443.174     91.58948     183.2521     366.9427      1.814     4.24     1240.121     64.71178     95.56995         5     1.058     0.485 -88.15   0
        50     15.2752    904.0028 307.8973338  +6.2784352      1289.37     3051.566     2474.805     91.44305     183.0326     367.0157      2.245     6.22     1245.552     64.71178     164.4357        22     1.501     1.325  60.63   0
        51    558.5353    898.2772 307.6714959  +6.2988434     1126.185     2213.807     2047.173     92.31812     183.6173     367.1252      2.051     6.47     1246.045     64.71178     146.4235        15     1.330     0.884 -36.47   0
        52    598.4418    893.3923 307.6550575  +6.3021830     719.1076     1449.845      1470.78     91.29639     183.3983     366.7965      1.864     5.65     1244.806     64.71178     126.3994         9     1.450     0.621  21.35   0
        53    278.6819    891.6171 307.7881637  +6.2923123     723.2974     1647.016     2375.964     91.58948     183.2521     367.0522      2.396     4.61     1247.961     64.71178     106.3447         6     1.111     0.543  57.81   0
        54    744.4797    887.1411 307.5945048  +6.3095973     782.4579     1357.566     1180.258     92.17285     183.6173     367.0887      1.557     4.29     1242.991     64.71178      133.024         6     1.201     0.622  47.45   0
        55    882.0457    884.7014 307.5373465  +6.3151503     5152.055     9979.799     10702.38     92.02735     183.4713     367.3806      2.005     4.48     1240.381     64.71178      558.806        39     1.529     1.414 -38.89   0
        56    417.9599    882.2026 307.7305344  +6.3008246     1164.455     2498.268     2191.242     91.14949     183.3252     366.8331      2.021     8.15       1246.1     64.71178     153.5312        23     1.596     1.523  43.27   0
        57    319.8157    880.9279 307.7714138  +6.2980942     4993.534     12985.26     15381.92     91.44305     183.4713     367.0157      2.496     6.03     1247.529     64.71178      600.999        56     1.908     1.734  88.73   0
        58    240.0124    879.7648 307.8046576  +6.2959241     3733.291     9868.962     10776.33     91.44305     183.3983     366.9061      2.438     5.95     1247.135     64.71178     548.7101        48     1.848     1.680  48.02   0
        59    897.8604    869.7234 307.5312740  +6.3218602     839.9935     1580.963     2234.589     92.17285     183.6903     367.0887      2.009     5.19     1239.024     64.71178     105.5865         8     1.138     0.669  30.03   0
        60    964.8100    865.7485 307.5035503  +6.3257117     698.9152     1092.278     1713.983     91.29639     183.4713     366.8331      1.689     3.73     1237.678     64.71178     97.79419         5     0.836     0.631  49.11   0
        61    734.2013    863.1777 307.5995957  +6.3191574     1164.911     2439.049     2466.336     91.58947     183.2521     366.7965      2.035     8.56     1241.741     64.71178     158.9086        21     1.491     1.372  42.82   0
        62    965.2944    858.0161 307.5036109  +6.3289222     1111.797     1808.426     2060.679     91.73566     183.3983     366.9427      1.695     5.49     1237.218     64.71178     133.2119        10     0.992     0.856 -70.27   0
        63    652.8721    856.3994 307.6336675  +6.3192675     1469.534     3384.228     4176.612     91.29639     183.0326     366.9061      2.587     6.30     1241.709     64.71178     214.3932        28     1.669     1.381 -45.75   0
        64     49.8284    852.9393 307.8847043  +6.3006805     1549.743     3632.294     4177.184     91.58947     183.6173     367.0522      2.427     7.54       1244.6     64.71178     213.1714        30     1.845     1.434  47.84   0
        65     67.3623    851.2156 307.8774679  +6.3019763     983.5046     2321.622       2267.4     91.73566     183.3983     366.8331      2.336     7.60     1244.623     64.71178     143.7092        15     1.761     1.004  44.05   2
        66    194.1519    851.6117 307.8247004  +6.3060303      1187.48         2654     2736.521     91.29639     183.4713       366.76      2.344     6.04     1246.186     64.71178     176.8979        15     1.322     1.082 -13.66   2
        67    931.0079    851.2543 307.5181072  +6.3305845     779.8093     1396.474     1676.131     91.44305     183.4713     366.7965      1.878     6.22     1237.288     64.71178     116.1204        10     1.192     0.913 -10.37   0
        68    647.3069    845.5400 307.6363524  +6.3235696     3862.822     9557.797     11047.03     91.88162     183.5444     367.2347      2.427     5.65      1241.24     64.71178     428.7312        45     1.750     1.597 -28.73   0
        69    884.8805    841.7208 307.5376249  +6.3330005     2150.862     4064.365     4424.812     92.31812      183.909     367.3076      2.005     4.86      1237.65     64.71178     254.0989        24     1.388     1.158 -44.95   0
        70    330.5569    839.0642 307.7683725  +6.3157455      8194.86     21581.42     25514.14     92.02735     183.5444     367.1617      2.551     5.96     1246.315     64.71178     1022.502        68     1.921     1.892  49.02   0
        71     20.8747    841.9929 307.8971255  +6.3042385     626.2457     1460.663     1709.923     91.58947     183.1058     366.9792      2.740     5.44     1244.409     64.71178     86.36963         6     1.177     0.711  27.66   0
        72    203.6186    838.7122 307.8212020  +6.3116740     639.6955     1396.773     1518.506     91.73566     183.3252     367.0157      1.970     4.60     1246.075     64.71178     112.3308         6     1.285     0.467 -83.59   0
        73     65.2004    839.8171 307.8787573  +6.3066132     663.1865     1760.237     1434.503     91.58947     183.1058       366.76      2.155     7.32     1244.368     64.71178     111.0414         9     1.800     0.834 -12.92   0
        74     94.6454    828.9145 307.8668786  +6.3120971     983.3899     1844.505      1530.25     92.02735     183.5444     367.1252      2.077     6.01      1243.98     64.71178     129.1384         9     1.241     0.819  26.15   0
        75     76.9885    825.3309 307.8743479  +6.3129899     953.6852     1775.869     3021.593     91.44305     183.3983     366.9792      3.271     6.19     1243.956     64.71178      115.847         9     1.225     0.879  12.34   3
        76     78.3114    822.5746 307.8738917  +6.3141726     1423.649     2448.664     3288.019     92.17285     183.3983     366.9427      1.918     5.22     1243.895     64.71178     177.6593        14     1.459     0.691  28.05   2
        77    875.3882    823.4572 307.5421945  +6.3402324     1326.299     2928.211     1754.926     91.29639     183.5444     366.7965      2.102     7.86     1236.692     64.71178     161.2815        23     1.639     1.145 -22.92   0
