#   1 NUMBER                 Running object number                                     
#   2 X_IMAGE                Object position along x                                    [pixel]
#   3 Y_IMAGE                Object position along y                                    [pixel]
#   4 ALPHA_J2000            Right ascension of barycenter (J2000)                      [deg]
#   5 DELTA_J2000            Declination of barycenter (J2000)                          [deg]
#   6 FLUX_APER              Flux vector within fixed circular aperture(s)              [count]
#   9 FLUXERR_APER           RMS error vector for aperture flux(es)                     [count]
#  12 FLUX_RADIUS            Fraction-of-light radii                                    [pixel]
#  13 FWHM_IMAGE             FWHM assuming a gaussian core                              [pixel]
#  14 BACKGROUND             Background at centroid position                            [count]
#  15 THRESHOLD              Detection threshold above background                       [count]
#  16 FLUX_MAX               Peak flux above background                                 [count]
#  17 ISOAREA_IMAGE          Isophotal area above Analysis threshold                    [pixel**2]
#  18 A_IMAGE                Profile RMS along major axis                               [pixel]
#  19 B_IMAGE                Profile RMS along minor axis                               [pixel]
#  20 THETA_IMAGE            Position angle (CCW/x)                                     [deg]
#  21 FLAGS                  Extraction flags                                          
         1    255.8654     29.9200 307.8304217  +6.6634968     4378.026     11905.35     14937.03     92.68691     184.4973     368.5551      2.802     6.36     1206.352     64.97029     448.0568        64     2.056     1.850 -72.75   0
         2    435.2036     29.3788 307.7558282  +6.6697257     10288.99     29097.28     35398.56     91.95535     183.9841     368.3352      2.692     6.39     1184.398     64.97029     997.7589        80     2.123     1.914  69.42   0
         3    244.0852     26.5232 307.8354372  +6.6645050     1414.546     4069.998     5461.222     92.54106     184.7168     368.7017      3.139     9.39     1206.785     64.97029     154.0013        35     1.798     1.607 -88.08   0
         4    173.4026     12.0037 307.8653333  +6.6681321      5064.56     14014.11     16679.77     91.66109     183.8372     368.3352      2.646     6.26     1207.073     64.97029     577.0221        64     2.040     1.826  75.61  16
         5    517.3506     10.0208 307.7223020  +6.6804689     1435.955     3883.875     4833.158     91.80834     184.4241     368.4452      2.648     8.95     1177.403     64.97029     146.2416        31     1.690     1.526  68.24  16
         6    918.6385      9.2161 307.5553660  +6.6941871     2833.911     5726.884     5986.458     91.95535     184.1309     368.3352      2.114     5.37     1167.249     64.97029     316.2194        32     1.685     1.243  62.59  16
         7    719.5344      8.2979 307.6382387  +6.6879319     1200.919      2574.68     3029.065     92.39498     184.4241     368.1518      2.370     7.11     1171.599     64.97029      155.425        19     1.470     1.244  45.21  16
         8    455.7311      8.8874 307.7479772  +6.6788766     863.4518     2028.078     2490.741     92.39498     184.6437     368.6284      2.634     7.04     1181.406     64.97029     105.3167        10     1.351     1.028 -53.43  16
         9    983.3062      5.6617 307.5285781  +6.6978071     1476.842     2843.406     3008.967     92.24867     184.3509     345.9447      2.098     5.10     1160.129     64.97029       173.45        18     1.288     1.061 -80.44  16
        10    702.9831      2.8280 307.6453087  +6.6896392     4043.359     8401.961     9202.414     91.95535     169.7006     304.3607      2.114     5.43     1171.235     64.97029     391.1163        37     1.687     1.393   5.26  24
        11    623.3022      2.2928 307.6784793  +6.6872008     1897.039     3504.318     3622.937     91.51361     162.7114     295.2141      1.947     6.22     1174.592     64.97029     220.6833        22     1.522     1.036  -8.95  24
        12    423.4258      1.1636 307.7616779  +6.6809863     794.6513      852.562     496.1265     76.91781     143.0999     273.8511      1.201     3.48     1186.671     64.97029     167.8737         5     0.968     0.362  -4.98  24
        13     24.2954      1.1666 307.9277321  +6.6676024      888.462     1326.111     1546.001     77.96436      143.477     273.9005      1.245     4.01     1208.217     64.97029     208.1155         7     1.263     0.364   3.68  24
        14    290.4961    992.2427 307.7836097  +6.2671541     10712.12     21088.94     24536.06     92.39498     184.2776     368.7383      2.170     4.45     1252.107     64.97029     1108.268        68     1.810     1.755  87.75   0
        15    886.1315   1022.6569 307.5349669  +6.2744704     1388.226     2280.651     2248.793     91.80834     162.9602     295.9452      1.698     5.26     1239.726     64.97029     190.8065        14     1.133     1.112 -57.55  24
        16    787.6965   1023.6393 307.5758570  +6.2707874     2138.521     2651.462     2643.173     80.85605     147.1946     277.8177      1.216     2.86     1242.254     64.97029     487.2472        10     1.112     0.536  -2.36  24
        17    578.7856   1021.5101 307.6627785  +6.2647009     57051.14     104785.1       112899     92.10213     177.3296     315.1749      1.965     4.33     1246.788     64.97029     5972.911        87     1.709     1.602  32.69  24
        18    208.8251   1021.0804 307.8165904  +6.2525073      1672.04     2951.057     2763.705     92.10213     181.0236      322.043      1.814     5.75     1253.821     64.97029      183.238        18     1.386     0.970  65.82  24
        19    744.5744    992.7174 307.5948200  +6.2821239     6492.579     11773.12     12716.54     92.24867     184.0575     368.5918      1.953     4.06     1241.474     64.97029     682.2577        42     1.648     1.311  72.02   0
        20    540.2075    993.5502 307.6797548  +6.2749626     3274.193     6059.417     6470.819     91.80834     184.0575     368.1884      1.973     4.54     1246.426     64.97029     362.6825        30     1.496     1.249  77.12   3
        21    537.3610    985.7452 307.6812001  +6.2780915     6154.471     11964.68     13531.84     92.39498     184.4241     368.5918      2.094     4.48      1246.29     64.97029     601.6899        48     1.749     1.399  70.17   3
        22    510.8701    994.6426 307.6919146  +6.2735315     804.2468     1388.268     1179.142     92.24867     184.3509     368.6651      1.834     5.32     1246.488     64.97029     110.3533         8     1.021     0.784  24.86   0
        23    414.4949    994.2458 307.7319936  +6.2704748      782.546     1305.716     976.7078     92.24867     184.2776     368.7383      1.769     4.72     1251.111     64.97029     105.7692         6     0.937     0.675   7.23   0
        24    806.4350    992.1511 307.5691208  +6.2844187     753.6551       1420.4     887.7329     92.24867     184.3509     368.5185      1.470     4.62     1239.744     64.97029     129.1989         6     1.253     0.484  84.67   0
        25    260.6795    989.0252 307.7961132  +6.2674849     625.0129     1058.004     629.2786     92.10213     184.1309     368.5551      1.675     6.12     1252.695     64.97029     88.31445         6     1.186     0.887  74.97   0
        26    905.8732    986.2088 307.5279785  +6.2901835     7822.803     13507.94     14594.91     91.95535     183.8372     368.4085      1.862     3.91     1236.318     64.97029     901.5459        42     1.559     1.279  60.87   0
        27    879.4854    982.3682 307.5390777  +6.2908919     10945.55     19125.94     20915.43     92.39498     184.1309     368.4818      1.909     3.86     1237.392     64.97029     1246.667        49     1.640     1.337  67.22   0
        28   1001.1931    981.7108 307.4884993  +6.2952116     4398.097     7022.596     7176.094     91.80834     183.9841     368.3352      1.711     3.62     1233.992     64.97029     581.2711        30     1.533     1.044  71.92   0
        29    592.0696    982.8322 307.6585536  +6.2811212     984.0591     1933.474     2092.264     92.24867     184.3509     368.6284      2.100     7.54     1245.167     64.97029      151.056        14     1.445     1.100 -85.56   0
        30    523.9377    981.4182 307.6869259  +6.2794307     3107.875     6272.427     7637.667     91.95535     184.2776     368.4452      2.251     5.06     1246.271     64.97029     329.9431        37     1.760     1.344  55.53   0
        31    633.3851    980.3692 307.6414597  +6.2835173     1009.226     1458.857     1569.089     91.95535     184.0575     368.5185      1.654     6.16     1243.592     64.97029     122.4126        12     1.236     0.864  79.92   0
        32     58.8648    979.8657 307.8803181  +6.2645042     660.8885     1130.489     1368.613     92.39498     184.3509     368.5918      1.627     3.91     1253.519     64.97029     90.78516         5     1.017     0.432  44.98   0
        33    477.0232    978.0100 307.7065443  +6.2792713     1658.806     3157.065     2967.869     91.95535     184.1309     368.4085      1.948     4.82     1246.734     64.97029     216.7169        21     1.288     1.175 -47.73   0
        34    911.2673    969.8904 307.5262816  +6.2971039     38682.46     66249.61     71476.55     92.54106     184.4973     368.5918      1.846     3.79     1235.171     64.97029     4306.062        73     1.693     1.396  69.36   0
        35    218.9653    968.7855 307.8141359  +6.2744482      1130.93     2245.516     2090.154     91.95535     184.0575     368.4085      1.989     6.89     1253.193     64.97029     145.5162        14     1.297     1.025 -68.96   0
        36    757.4245    961.7088 307.5905162  +6.2953612      5165.01     9450.843     10758.93     92.54106     184.1309     368.4085      2.047     4.06     1239.021     64.97029     565.1036        43     1.783     1.327  78.63   0
        37    809.2454    963.9235 307.5688973  +6.2961727     1991.748     3670.678     3613.827     92.24867     184.4241     368.6284      1.831     4.67     1237.899     64.97029     263.7064        23     1.379     1.128  66.85   0
        38    226.9811    960.9724 307.8110666  +6.2779441     1026.925     1911.144     1830.667     91.95535     184.1309     368.4818      1.988     5.62     1253.056     64.97029     127.6567        11     1.115     0.798 -78.59   0
        39     52.1233    959.0170 307.8838238  +6.2728898      1848.89      3648.73     3535.936     91.80834     184.0575     368.4452      2.043     5.36      1253.46     64.97029     232.6697        24     1.612     1.033  75.35   0
        40    945.6526    956.7159 307.5124260  +6.3036899     6022.886      10218.6     10354.95     92.39498     184.2776     368.7383      1.826     4.02     1233.392     64.97029     645.2957        33     1.490     1.175  75.56   0
        41    919.2178    948.5173 307.5236908  +6.3061973     1721.602     3283.474     3572.392     91.95535     183.9841     368.5551      2.083     5.37     1233.701     64.97029     198.6283        21     1.448     1.050 -66.63   0
        42    640.2272    944.5398 307.6398166  +6.2985459     3280.059     6463.263     6305.635     91.95535     184.4241     368.4452      2.027     5.06     1241.042     64.97029     337.3998        35     1.685     1.295 -86.97   0
        43    252.5004    944.8196 307.8010014  +6.2854710     3032.665     6288.166      6954.11     92.39498     184.2043     368.3352      2.162     4.86     1252.549     64.97029      347.328        33     1.586     1.305  67.27   0
        44    778.9367    945.1739 307.5821261  +6.3029083     1031.812     1926.766     2015.254     91.95535     184.3509     368.5185      1.903     6.15     1237.365     64.97029     130.8726        11     1.187     0.896 -82.53   0
        45     21.6027    942.3788 307.8970728  +6.2787382      1700.56     2937.763     2719.353     91.95535     183.9841     368.2985      1.835     5.48     1253.659     64.97029     214.8198        19     1.359     1.134 -74.69   0
        46    462.5218    942.5525 307.7137640  +6.2934333     942.2245     1573.185     1119.347     92.39498     184.4241     368.5185      1.865     6.11     1247.013     64.97029     125.4088        11     1.144     0.917 -63.98   0
        47    872.3201    941.2048 307.5434338  +6.3076574     840.9794     1245.438      1250.95     91.95535     183.8372     368.2985      1.740     5.21      1234.85     64.97029     114.4963         7     0.993     0.773  44.63   0
        48    963.8340    938.3650 307.5054803  +6.3118751     657.0582     1025.615     847.9261     92.10213     184.0575     368.2985      1.394     4.66     1231.915     64.97029     158.6675         6     1.421     0.433  55.97   0
        49    289.5610    938.3898 307.7858105  +6.2893677     636.4564     1258.444     2009.962     91.66109     184.1309     368.2618      2.011     4.16     1252.103     64.97029     83.84399         5     0.998     0.494 -86.97   0
        50    995.9547    936.3103 307.4921942  +6.3137918     791.2791     1466.217     1703.976     92.39498     184.2776     368.7383      2.078     6.55     1230.979     64.97029     134.9376         9     1.517     0.794 -63.85   0
        51    564.8022    937.2687 307.6714186  +6.2990323     1157.508      2177.44     2427.562     91.66109     183.9107     368.3718      2.074     6.44     1244.454     64.97029     126.9968        15     1.142     1.049 -30.72   0
        52    604.2258    933.5637 307.6551525  +6.3018787     934.4904     1613.476      1247.61     91.95535     184.1309     368.3352      1.811     6.51     1242.709     64.97029     139.4637        12     1.114     1.069  42.14   0
        53    284.2217    931.0609 307.7882769  +6.2922163     1045.411     2204.816     2817.672     91.95535     184.2776     368.4818      2.218     6.15     1252.163     64.97029     134.4808        13     1.532     0.694 -69.06   0
        54    750.8718    926.9731 307.5944040  +6.3094916     687.9586     1118.265     1150.309     91.95535     184.2043     368.4818      1.781     5.15     1236.768     64.97029      95.4093         8     1.154     0.650  15.73   0
        55    888.3563    923.6604 307.5373534  +6.3154385     5815.456     10312.86     11094.99     92.24867     184.3509     368.7383      1.912     4.05     1233.228     64.97029     688.8295        35     1.535     1.216  68.20   0
        56    326.0294    919.4083 307.7712878  +6.2984291     6188.173     13316.05     15116.18     91.95535     184.1309     368.3352      2.250     5.00      1251.51     64.97029     685.0244        49     1.813     1.476  67.28   0
        57    424.2402    920.8060 307.7304101  +6.3011367     1365.402     2870.525     3156.679     91.51361     183.9841     368.2618      2.158     5.90     1247.559     64.97029      152.834        19     1.401     1.075  74.69   0
        58    246.0568    918.2374 307.8045751  +6.2962354     4831.654     10028.41     11479.77     92.39498     184.4241     368.5918      2.224     5.06     1252.411     64.97029     503.3551        45     1.812     1.403  70.73   0
        59    904.3278    908.5504 307.5312183  +6.3222117     894.5349     1458.076     1921.177     92.39498     184.4241     368.6284      2.020     5.12     1231.834     64.97029     114.5934         9     1.024     0.723 -41.37   0
        60    740.3970    901.7109 307.5996054  +6.3195779     1308.848      2585.79     3161.393     91.66109     183.9841     368.2251      2.426     5.34     1235.372     64.97029     178.7263        17     1.212     1.047 -60.85   0
        61    971.6920    897.9576 307.5035638  +6.3288281     1018.917     1607.076      2261.26     92.39498     184.3509     368.7017      1.973     5.79     1229.405     64.97029     126.9692        10     1.124     0.838 -81.14   0
        62    604.5605    897.8504 307.6562114  +6.3166423     646.3914     1267.423     446.5709     92.24867     184.3509     368.5551      1.951     4.98      1240.23     64.97029     90.40186         5     1.029     0.682 -24.86   0
        63    526.2427    897.3854 307.6887888  +6.3142196     844.4794     1749.509     2057.834     91.51361     184.0575     368.2985      2.006     5.98     1244.305     64.97029     122.7604         7     1.229     0.817  47.26   0
        64    658.8415    895.2995 307.6337287  +6.3195071     1783.763     3628.215     4270.902     92.39498     184.2043     368.8482      2.248     5.28      1237.66     64.97029     196.3871        24     1.419     1.229 -70.22   0
        65     73.4348    891.2045 307.8772512  +6.3016156     1414.117     2937.726       3210.4     91.51361     184.2043     368.3352      2.155     5.79     1251.854     64.97029     192.2715        22     1.346     1.275  84.95   0
        66     55.8392    891.5375 307.8845550  +6.3008876     2327.941      4130.93     4234.684     92.39498     184.3509     368.6651      1.939     4.70     1251.811     64.97029     311.1108        27     1.467     1.196  59.03   0
        67    199.2853    890.1924 307.8249643  +6.3062531     1579.293     3398.805     3284.807     91.95535     183.9841     368.4085      2.160     6.80      1252.37     64.97029     207.7228        23     1.450     1.326  73.96   0
        68    937.1597    890.6030 307.5181676  +6.3307178     691.1696     1109.479     1283.028     91.51361     183.9841     368.2618      1.761     3.57     1229.833     64.97029     130.4832         5     1.039     0.353 -84.19   0
        69    653.6787    884.3604 307.6362420  +6.3238536     4821.735     9712.778     10509.36     92.24867     184.4241     368.5918      2.108     4.71     1237.505     64.97029     476.5542        39     1.643     1.370  69.48   0
        70    791.0350    885.6962 307.5790877  +6.3278805     718.5031     1167.328     283.9203     92.54106     184.2043      368.775      1.383     2.81     1233.306     64.97029     136.3347         6     0.892     0.745 -58.48   0
        71     14.1515    883.3942 307.9021607  +6.3028523     929.3653     1737.242     1839.661     91.80834     184.1309     368.2251      1.896     6.44     1251.111     64.97029     93.32031        12     1.300     0.897 -54.60   0
        72     26.2645    881.3431 307.8971941  +6.3041061     803.8804       1868.8     2266.481     92.54106     184.2776     368.6284      2.491     7.77     1251.104     64.97029     113.1707        11     1.715     0.984  54.57   0
        73    891.4337    880.4844 307.5375182  +6.3333763     2332.765     4146.136     3943.716     92.39498     184.2043     368.5551      1.860     4.60     1230.394     64.97029     245.5044        23     1.367     1.141  69.66   0
        74    336.6747    877.6865 307.7682655  +6.3160193     10410.52     22986.06     25988.09     92.54106     184.7168     368.6651      2.296     5.05     1251.052     64.97029     1066.789        64     1.873     1.622  71.65   0
        75     71.6107    879.4442 307.8784061  +6.3064121     869.5521     1642.821     1853.073     91.80834     184.2043     368.2618      2.099     6.33     1251.446     64.97029     108.3879         8     1.374     0.820  30.35   0
        76    208.5993    877.0829 307.8215336  +6.3119803     723.4492     1528.719      1439.96     91.51361     183.7637     368.2251      1.986     4.72     1252.196     64.97029     118.5146         8     1.049     0.602 -71.97   0
        77    100.6526    868.2214 307.8667107  +6.3120220     1025.631     2318.268     2337.723     91.80834     184.3509     368.3718      2.205     6.88     1251.489     64.97029     132.4849        15     1.480     0.896  73.22   0
