#   1 NUMBER                 Running object number                                     
#   2 X_IMAGE                Object position along x                                    [pixel]
#   3 Y_IMAGE                Object position along y                                    [pixel]
#   4 ALPHA_J2000            Right ascension of barycenter (J2000)                      [deg]
#   5 DELTA_J2000            Declination of barycenter (J2000)                          [deg]
#   6 FLUX_APER              Flux vector within fixed circular aperture(s)              [count]
#   9 FLUXERR_APER           RMS error vector for aperture flux(es)                     [count]
#  12 FLUX_RADIUS            Fraction-of-light radii                                    [pixel]
#  13 FWHM_IMAGE             FWHM assuming a gaussian core                              [pixel]
#  14 BACKGROUND             Background at centroid position                            [count]
#  15 THRESHOLD              Detection threshold above background                       [count]
#  16 FLUX_MAX               Peak flux above background                                 [count]
#  17 ISOAREA_IMAGE          Isophotal area above Analysis threshold                    [pixel**2]
#  18 A_IMAGE                Profile RMS along major axis                               [pixel]
#  19 B_IMAGE                Profile RMS along minor axis                               [pixel]
#  20 THETA_IMAGE            Position angle (CCW/x)                                     [deg]
#  21 FLAGS                  Extraction flags                                          
         1    173.6498     19.4545 307.8652241  +6.6681797     6208.286      14087.4     16096.87     89.29236     178.1604     356.2499      2.388     5.90     1135.312     62.78859     820.2594        56     2.119     1.462 -43.47   0
         2    517.8943     17.6251 307.7221897  +6.6804283     1724.304     4151.058      4837.48     89.43353     177.8769     356.0374      2.443     7.89     1108.609     62.78859     188.3135        32     1.993     1.344 -40.42   0
         3    918.8508     17.0748 307.5555288  +6.6939900     3005.567     5793.738     6663.591     89.29236     178.2311     356.2499      2.090     5.25     1097.838     62.78859     360.5525        33     1.773     1.124 -37.66   0
         4    720.2029     15.8263 307.6381509  +6.6879062     1378.654     2735.058     2786.666     88.72542     177.8059     356.0019      2.001     7.42     1104.328     62.78859     175.6403        21     1.703     0.905 -48.28   0
         5    456.2640     15.9955 307.7478642  +6.6790466     1085.409     2374.792     2828.213     88.44058     177.8769     356.0019      2.432     7.14     1112.941     62.78859     131.4258        17     1.369     1.044 -52.70   0
         6    984.0875     13.0264 307.5285454  +6.6978260     1511.182     2876.062     2775.794     89.43353     177.9478     356.1082      1.989     6.97     1090.434     62.78859     176.6423        19     1.559     0.931 -40.35   0
         7    703.3942      9.7057 307.6453454  +6.6898745     4572.798     9855.992     11354.27     89.00934     177.8059     355.9665      2.283     5.25     1104.934     62.78859     531.6083        44     1.934     1.335 -39.93  16
         8    623.5579      9.0935 307.6785545  +6.6874707     2315.716      5033.59     5860.609     89.43353     178.0895     356.3561      2.315     6.51     1106.562     62.78859     244.8285        35     1.888     1.252 -38.20  16
         9    423.8683      5.3918 307.7616904  +6.6823445     3577.187     8521.188     9527.408     88.72542     177.8769     330.9906      2.421     6.15     1116.123     62.78859     423.6521        49     2.074     1.415 -38.34  16
        10     24.7919      5.0744 307.9275887  +6.6691348     5134.278     11468.77     12984.66     88.86749      177.664      326.771      2.336     5.76     1138.579     62.78859     616.3256        49     1.975     1.429 -41.62  24
        11    670.6763      4.8653 307.6591102  +6.6907848      621.392      1448.77     1308.836     89.43353     178.1604     324.4464      2.235     3.68      1106.49     62.78859     128.0736         5     0.940     0.684  13.40  16
        12    319.7374      1.9389 307.8050937  +6.6802946     5927.952     9409.138     10643.07     85.24462     151.5275     279.0866      1.692     6.35     1128.763     62.78859     860.2267        28     1.720     0.878 -12.27  24
        13     93.0692      1.8805 307.8993168  +6.6727400     1179.997     2101.835     2085.642     84.94812       150.86     278.1357      2.037     7.35     1139.002     62.78859     174.9341        17     1.731     0.873  -8.80  24
        14    414.7344   1000.5905 307.7317552  +6.2710911     790.4506     1487.279     1499.337     88.72542     178.0187     356.1082      2.081     4.80     1168.808     62.78859     144.9615         8     1.308     0.500 -32.40   0
        15    713.3676   1023.7713 307.6069293  +6.2714585     1782.801     2168.645     2565.274     75.84696     139.6563     265.9391      1.007     2.67     1163.666     62.78859     511.7827        10     1.139     0.418  -1.98  24
        16    705.1153   1023.7067 307.6103592  +6.2712108     676.4647     976.4603     875.3681     76.83846     141.2729     267.4057      1.325     4.05     1163.614     62.78859     145.7695         6     1.107     0.423   9.51  24
        17    568.9111   1023.4532 307.6669424  +6.2667854     1951.718     2608.671     2784.276     80.99485     145.2359     272.0363      1.482     3.96     1168.122     62.78859     346.6412        14     1.322     0.668  -8.25  24
        18    428.1688   1023.4432 307.7254012  +6.2621022     856.5436     1515.983      1578.66     80.21227     145.2359     271.9899      2.017     4.71     1168.829     62.78859     144.8053         9     1.150     0.724   9.92  24
        19    262.2724    997.1854 307.7951968  +6.2674114     845.1672     1460.262     1158.982     88.72542     177.9478     356.0728      1.987     3.53     1170.854     62.78859      123.958         7     1.012     0.502 -23.87   0
        20    906.2402    993.8271 307.5278243  +6.2902277     8067.702      13302.1     14264.55     88.86749     177.9478     356.0374      1.737     4.68     1157.976     62.78859     1152.861        36     1.782     0.890 -41.12   0
        21    537.6303    993.1765 307.6809593  +6.2782466     6760.758     12166.54     13435.99     88.72542     178.0187     356.0019      1.916     4.73     1167.298     62.78859     862.9203        42     1.859     1.062 -41.34   0
        22    879.8227    989.9550 307.5389283  +6.2909502     11203.41     19680.63     21718.68     88.72542     178.1604     356.0374      1.893     4.76     1157.927     62.78859     1435.833        50     1.931     1.065 -38.56   0
        23    592.3902    990.6411 307.6582993  +6.2811162     1222.075     2342.711     2598.665     88.58311     177.9478     355.8956      1.933     6.45     1166.279     62.78859     163.6458        17     1.459     0.986 -45.99   0
        24   1001.5446    989.3824 307.4883855  +6.2952230     4474.058     7409.825     7236.252     88.72542     178.0895      355.931      1.775     4.53      1157.38     62.78859     657.4578        29     1.769     0.852 -40.16   0
        25    524.1938    989.0549 307.6866799  +6.2795012     3378.074     6122.217     6548.244     88.72542     177.8769     355.8601      1.898     4.87     1167.368     62.78859     404.2146        31     1.775     1.060 -34.07   0
        26    633.5220    988.4896 307.6412869  +6.2833730     1257.221     2066.797     2117.195     89.00934     178.4434     356.3561      1.726     5.91     1164.637     62.78859      180.972        17     1.535     0.861 -48.26   0
        27    477.2197    985.5314 307.7063108  +6.2793917     1791.429     3421.037     3539.965     88.86749     178.0187     356.1082      2.064     5.57     1168.033     62.78859     243.5575        23     1.666     0.983 -36.44   0
        28    911.5645    977.5303 307.5261619  +6.2971340     40772.34     67217.45     71547.23     89.15096     178.2312     356.3207      1.808     4.56     1157.188     62.78859     5679.579        66     1.884     1.049 -38.93   0
        29    218.9220    976.0268 307.8139204  +6.2747010     1429.141     2515.943     2054.666     89.15096     178.0895     356.1436      1.827     5.23     1170.518     62.78859     204.0481        20     1.576     0.903 -34.18   0
        30    617.6890    974.3102 307.6483428  +6.2887016     647.5238     915.8704     814.5186     89.29236     178.7259     356.3207      1.559     4.82     1164.759     62.78859     114.7206         7     1.314     0.501 -20.97   0
        31    757.6872    969.2683 307.5903599  +6.2954377     5622.957     10040.23     11379.45     89.43353     178.4434     356.2499      1.941     4.84     1160.662     62.78859     681.8348        40     1.868     1.057 -42.37   0
        32    809.4344    971.2968 307.5687961  +6.2963187     2122.245     3458.791     3494.574     89.29236     178.0187     356.3915      1.763     4.69     1158.923     62.78859      256.671        21     1.540     0.852 -34.35   0
        33    544.6038    968.1541 307.6789092  +6.2888115     756.1637     1376.855      1564.01     88.58311     177.8769     355.8247      2.055     5.09     1166.141     62.78859     137.8453         8     1.418     0.786 -54.29   0
        34    227.2880    968.4081 307.8107041  +6.2781263     1096.814     1932.751     2108.255     88.86749     177.8059      355.931      2.066     5.34     1170.334     62.78859     149.8617        14     1.432     0.790 -35.35   0
        35    191.8394    967.9438 307.8254437  +6.2771340      746.952     1276.836     1222.042     89.29236     178.2311      356.179      1.711     2.93     1170.389     62.78859     132.7635         6     0.885     0.456 -54.56   0
        36     52.2686    966.6600 307.8834585  +6.2729984      2293.68      4139.87     4507.222     89.43353     178.0895     356.2145      1.923     5.16     1171.151     62.78859     278.0288        24     1.590     0.939 -41.98   0
        37    945.9136    964.3490 307.5123376  +6.3037164     6319.882     10291.86     10399.38     89.29236     178.0187     356.2853      1.721     4.63     1156.019     62.78859     922.2573        31     1.747     0.871 -37.06   0
        38    919.5427    956.0190 307.5235727  +6.3062817     1824.757     2955.741     3330.799     88.86749     178.0895     356.0019      1.945     5.11     1156.096     62.78859     238.2621        16     1.515     0.670 -43.00   0
        39    640.4163    951.8907 307.6396600  +6.2987155     3856.327     6464.267     6636.189     89.00934     177.9478     356.1082      1.817     4.78      1163.11     62.78859      482.611        28     1.727     0.923 -38.59   0
        40    252.6588    952.3218 307.8007117  +6.2856160     3436.775      6218.51     6936.433     89.43353     178.1604     356.1436      1.944     5.05     1170.001     62.78859     375.4213        33     1.784     1.086 -41.92   0
        41    779.5281    952.3569 307.5818581  +6.3031467     1070.324     1665.397     1525.249     89.15096     178.1604     356.2499      1.672     5.58     1159.172     62.78859     137.8274        12     1.372     0.640 -38.26   0
        42    990.5488    951.4190 307.4942316  +6.3105355     786.1222     1213.514     1744.283     88.72542     178.2312     355.9665      1.912     5.93     1153.677     62.78859     108.6334         9     1.525     0.649 -36.44   0
        43    462.8811    950.5109 307.7134522  +6.2933753       900.33      1345.05     1659.755     89.00934     178.3727     356.3207      1.887     5.86     1167.386     62.78859     124.6188        10     1.340     0.722 -51.84   0
        44     21.3816    950.0073 307.8968535  +6.2788413     1687.091     3186.447     3215.805     88.86749     177.8059     356.0374      1.987     5.23      1171.13     62.78859     242.5096        19     1.608     0.888 -35.47   0
        45    963.4322    946.7779 307.5056523  +6.3115532     439.3064     746.9225     415.5037     88.72542     177.9478     356.0019      1.428     4.52     1154.333     62.78859     92.11218         5     1.225     0.473 -32.56   0
        46    564.8681    944.8984 307.6712783  +6.2990892      1217.16     2171.328     2216.991     89.29236     178.3019     356.2499      1.935     5.04     1164.706     62.78859     151.3813        16     1.292     0.927 -43.21   0
        47    289.1190    945.7313 307.7857908  +6.2895545     526.0239     1047.579     1921.952     89.57449     178.4434     356.2499      2.238     3.48     1169.923     62.78859     111.4779         5     1.600     0.219 -27.58   0
        48    995.3240    945.3281 307.4924530  +6.3132091     607.6394     1412.009      1652.07     89.57449     178.4434     356.2145      2.203     3.50      1152.93     62.78859     99.18433         5     1.045     0.339 -21.08   2
        49    943.8981    945.4725 307.5138108  +6.3114446      667.226     977.6367     676.5352     89.00934     178.3019     356.2145      1.416     4.57     1154.925     62.78859     113.0763         7     1.134     0.523 -28.08   0
        50    604.2411    940.4672 307.6550730  +6.3022293     810.8815     1356.278     1451.474     89.29236     178.0895     356.2853      1.997     5.48     1163.532     62.78859     98.30688        10     1.278     0.662 -47.24   0
        51    284.5590    938.4022 307.7879335  +6.2924287      1281.21     2281.688     2540.084     88.58311     177.8769      355.931      1.840     7.05     1169.783     62.78859     129.1565        16     1.353     1.030 -27.94   0
        52    750.6130    934.5553 307.5944703  +6.3095372     646.0038     815.6267     378.3433     88.58311     177.9478      355.931      1.422     3.34     1159.469     62.78859     121.1094         5     1.002     0.323 -67.39   0
        53    888.5348    931.3084 307.5372865  +6.3154572     6335.165     10623.23      11081.8     89.15096     178.3727     356.2145      1.792     4.80     1155.128     62.78859     797.2367        33     1.767     0.934 -37.61   0
        54    424.7769    928.5543 307.7300235  +6.3011721     1625.674     2727.058     2733.445     88.86749     178.1604     356.0728      1.844     5.62      1168.36     62.78859     191.0659        16     1.350     0.843 -30.97   0
        55    326.2157    926.8375 307.7710224  +6.2985942     7216.693     13997.99     15510.75     89.00934     177.9478      355.931      2.096     5.28     1169.136     62.78859     906.1481        47     1.893     1.204 -35.50   0
        56    872.6573    947.9312 307.5433216  +6.3080661     900.2131     1304.596     1308.664     89.43353     178.0895     356.1436      1.672     4.65     1156.027     62.78859     136.6223         8     1.157     0.531 -32.29   0
        57    246.3211    925.8640 307.8042418  +6.2963296     5439.408     10225.23      11220.3     89.57449     178.2312     356.2145      2.026     4.91     1169.493     62.78859     739.1917        43     1.904     1.174 -36.21   0
        58    758.2762    920.6587 307.5917561  +6.3155303     544.2482     1210.955     1516.757     89.43353     178.2312      356.179      2.221     4.59      1158.47     62.78859     99.20117         6     1.654     0.362 -51.01   0
        59    574.4118    920.1458 307.6681510  +6.3096282     951.9169     1591.346     1164.054     88.58311     178.0895     355.8956      1.727     5.99     1163.383     62.78859     137.9802        13     1.582     0.639 -30.82   0
        60    904.1774    916.6154 307.5312837  +6.3220436     963.3288     1694.437     2747.896     89.00934     177.9478     356.1082      2.673     6.42     1154.233     62.78859     157.9462        13     1.714     0.675 -38.98   0
        61    971.1833    911.8101 307.5036103  +6.3262501     680.7202     1313.822     1730.359     89.00934     177.8769     356.0728      2.314     9.04     1151.437     62.78859     92.69312        11     2.214     1.031 -34.31   0
        62    861.6066    914.5627 307.5490374  +6.3214787     632.3016     901.3892     1223.717     88.29782     177.8769      355.931      1.538     3.48     1154.781     62.78859      134.323         5     1.015     0.345 -21.94   0
        63    740.9162    909.5278 307.5993434  +6.3195500     1204.401      2502.58     2603.645     89.43353     178.5141     356.2499      2.082     5.68       1158.3     62.78859     184.2057        14     1.447     1.063 -42.57   0
        64    564.4436    910.3254 307.6726239  +6.3133516     516.3366     770.6077     585.7722     89.15096     178.2312     356.2499      1.845     4.23     1163.214     62.78859     85.01843         6     1.152     0.443 -34.30   0
        65    971.8966    904.9311 307.5035458  +6.3291144     1217.082     2093.215     2877.529     89.15096     178.3019     356.2145      1.712     6.03     1150.927     62.78859     179.9229        12     1.493     0.684 -40.46   0
        66    604.6848    905.7549 307.6560622  +6.3165782     731.6574     1141.583     1242.209     89.29236     178.0895     356.2145      1.596     3.43     1162.024     62.78859     122.2627         5     1.115     0.304 -35.62   0
        67    526.1471    904.6839 307.6887231  +6.3144062     790.7099      1442.29      1283.63     89.29236     178.1604     356.3561      1.810     5.74     1164.028     62.78859     111.7577         9     1.340     0.693 -34.49   0
        68    659.2637    902.7325 307.6334920  +6.3196418     1865.218     3520.973     3551.545     89.29236     178.1604     356.2853      1.946     6.00     1160.419     62.78859     261.9326        21     1.678     0.835 -37.43   0
        69   1010.3090    901.8920 307.4876908  +6.3316426     552.5315     1109.452     654.8135     89.29236     178.7259     356.2853      1.959     4.26      1148.87     62.78859     105.5948         5     1.043     0.497 -51.81   0
        70     55.8619    898.9939 307.8842660  +6.3010595     2150.167     4220.871      4739.09     88.58311     177.9478     355.9665      2.058     5.89     1169.898     62.78859     259.5068        27     1.766     1.009 -48.16   0
        71    199.7634    897.9776 307.8245272  +6.3062897     1727.886     3273.642     3456.307     88.86749     177.8769     355.9665      1.992     5.44     1169.132     62.78859     218.3301        23     1.496     1.093 -48.43   0
        72     73.2757    898.4250 307.8770521  +6.3018769     1461.815      3142.74     2494.232     88.86749     177.9478      356.179      2.174     7.25     1169.668     62.78859     185.3676        21     1.747     0.947 -29.61   0
        73    937.1833    898.4234 307.5181856  +6.3306507     743.3113     1166.078     771.2877     89.00934     178.0187     356.1082      1.316     4.29     1152.163     62.78859     163.8284         7     1.507     0.347 -33.07   0
        74    819.7430    898.8538 307.5669580  +6.3265760     631.6179     1078.713     345.1382     89.43353     178.1604     356.2145      1.632     3.44     1155.296     62.78859     99.18591         5     0.987     0.346 -46.34   0
        75    653.9141    891.8649 307.6360816  +6.3239516      5667.93     10024.66     10516.06     89.43353     178.3727     356.2499      1.878     4.81     1159.916     62.78859     708.8274        36     1.830     1.018 -40.63   0
        76    234.3120    894.5615 307.8102923  +6.3088543     697.1149     998.5978     1195.249     89.29236     178.0895     356.2499      1.514     4.14     1169.033     62.78859     107.9199         6     1.056     0.477  -8.35   0
        77    791.1400    892.7050 307.5790477  +6.3281653     501.5972     753.0287      1177.75     89.15096     178.1604     356.3207      1.481     3.93     1155.748     62.78859     108.3422         5     0.736     0.709  49.89   0
