#   1 NUMBER                 Running object number                                     
#   2 X_IMAGE                Object position along x                                    [pixel]
#   3 Y_IMAGE                Object position along y                                    [pixel]
#   4 ALPHA_J2000            Right ascension of barycenter (J2000)                      [deg]
#   5 DELTA_J2000            Declination of barycenter (J2000)                          [deg]
#   6 FLUX_APER              Flux vector within fixed circular aperture(s)              [count]
#   9 FLUXERR_APER           RMS error vector for aperture flux(es)                     [count]
#  12 FLUX_RADIUS            Fraction-of-light radii                                    [pixel]
#  13 FWHM_IMAGE             FWHM assuming a gaussian core                              [pixel]
#  14 BACKGROUND             Background at centroid position                            [count]
#  15 THRESHOLD              Detection threshold above background                       [count]
#  16 FLUX_MAX               Peak flux above background                                 [count]
#  17 ISOAREA_IMAGE          Isophotal area above Analysis threshold                    [pixel**2]
#  18 A_IMAGE                Profile RMS along major axis                               [pixel]
#  19 B_IMAGE                Profile RMS along minor axis                               [pixel]
#  20 THETA_IMAGE            Position angle (CCW/x)                                     [deg]
#  21 FLAGS                  Extraction flags                                          
         1      5.2379     78.2411 307.9362203  +6.6320103     721521.6      1857230      2119630     81.50719     163.2089     301.2727      2.516    12.24     941.6535     57.49646     61777.98       344     2.478     1.683  36.43  28
         2    256.8666     27.5835 307.8334277  +6.6613943     1274.083      2857.12     4307.719      81.2472     163.0793     326.0936      5.244    10.87     935.7715     57.49646     171.1708        31     3.159     1.042  33.16   2
         3    444.0420     22.8228 307.7558410  +6.6696486     14858.66     33179.68     36797.16      81.3773     163.0144     325.9638      2.253     7.42     920.6868     57.49646     1749.817        55     2.191     1.138  32.31   0
         4    264.6614     23.2192 307.8303381  +6.6634580     6194.299     13660.48      15025.5      81.3773     163.0793     326.0612      2.247     7.41     935.7614     57.49646      802.931        48     2.123     1.155  35.30   0
         5    624.8813     21.5439 307.6807657  +6.6762413     2311.808     5431.351     6731.145     81.76635     163.1441     326.2234      2.509     7.93     916.7221     57.49646     306.6492        36     2.172     1.172  49.48   0
         6    252.6634     19.7759 307.8354386  +6.6644758     1971.787      4219.12      4860.22      81.3773     163.1441     326.1261      2.296     7.57     935.7325     57.49646     250.7019        28     2.009     0.911  32.06   0
         7    942.4133     13.1651 307.5491448  +6.6903215     823.7682      1739.45     2444.408      81.2472     162.9495     326.0287      2.360     6.64     906.9032     57.49646     144.2998        14     1.798     0.687  36.33   0
         8    695.8159     13.5302 307.6515706  +6.6819251     1111.302     1599.481     1733.598      81.2472     163.0144     326.0936      1.644     6.49     914.8497     57.49646     143.5573        14     1.481     0.803  50.86   3
         9    692.3729     11.7754 307.6530602  +6.6825343     1095.948     1640.195     1738.969      81.2472     162.9495     326.0287      1.554     4.43     914.9401     57.49646     161.9494        10     1.122     0.683  76.57   3
        10    183.3376      5.6683 307.8647136  +6.6679666     6621.762     10251.76     10614.04     81.76636     163.0793     306.1491      1.680     4.01     935.5326     57.49646     769.3785        24     1.377     0.964  54.75  19
        11    180.5096      4.4651 307.8659292  +6.6683680      6276.58       8759.7     9169.758     81.63688     163.3385      292.254      1.511     3.14     935.5214     57.49646     833.9747        23     1.247     0.968  89.83  19
        12    927.7488      3.0362 307.5555782  +6.6940130     2885.313     6041.845     6103.673     81.63687      152.694     272.5502      2.116     7.78     907.1228     57.49646     529.0972        27     2.071     0.817  29.72  24
        13    527.4962      3.9903 307.7218129  +6.6802227     1874.692     3208.921     3153.204     81.50719     160.6612     285.7383      1.796     4.47      916.999     57.49646     252.9211        19     1.497     0.896  51.78  19
        14    524.6749      2.3012 307.7230421  +6.6808253     1504.305     2180.536     2690.143     80.46218     143.8469     261.3351      1.449     4.45     916.9719     57.49646     271.3157        10     1.248     0.584  75.55  19
        15    464.8995      2.3411 307.7478710  +6.6788034     1224.168     2462.004     2806.537     80.98637      144.434     262.0224      2.095     8.21     918.7544     57.49646     173.7894        19     1.666     1.131  28.51  24
        16    729.0056      2.0373 307.6381719  +6.6877804     1309.073     2294.706     2284.105     78.46529     139.8949     256.8438      1.810     6.45      913.074     57.49646     192.7874        16     1.745     0.670  26.04  24
        17    994.2510      1.2259 307.5280131  +6.6969807     633.7474      585.144     537.5886      69.4542     128.1333     243.5679      0.864     1.95      902.814     57.49646     189.2409         5     0.701     0.408   9.26  24
        18    736.8192    999.8143 307.6012417  +6.2761537     782.5767     1095.301     1682.281      81.3773     162.8845     326.0936      2.667     4.51     948.5035     57.49646     112.4416         7     1.024     0.564  21.17   0
        19    967.3205   1023.2466 307.5047768  +6.2741805     473.6382      1009.69     1472.048     76.41624     136.1392     252.4821      2.797     4.86     943.6389     57.49646     84.65417         5     1.328     0.503  26.51  24
        20    576.5529   1011.0590 307.6673836  +6.2661479     2902.484     6642.382     9591.476     81.76635     163.1441     326.3206     10.300    29.70      951.676     57.49646     1216.987       102    10.036     2.441  33.54  19
        21    588.6642   1016.3208 307.6621789  +6.2643814     51283.33     74353.19     77838.88      82.0247     163.2089     326.1585      1.566     3.34     951.5388     57.49646     6724.016        30     1.297     0.952  55.38  19
        22    585.6552   1014.3110 307.6634957  +6.2651103     46499.76      56211.8     58652.83     81.76636     163.0144     326.3206      1.286     3.68      951.558     57.49646      6710.71        16     1.100     0.763  60.15   3
        23    586.9853   1023.4936 307.6626334  +6.2613642      94632.3     117210.2     118191.7     73.01824     132.0367     248.2143      1.296     3.72     951.7068     57.49646     13941.31        19     1.172     0.867  24.98  27
        24    583.7327   1021.3714 307.6640551  +6.2621313     90951.94     104135.9     105136.8     81.50719     158.3399     281.2229      1.162     2.56     951.7242     57.49646     15549.42        25     1.020     0.831  88.76  19
        25    218.2420   1023.6978 307.8156727  +6.2489081     1374.132     1711.255     1915.561     70.66219     129.0382     245.0402      1.134     4.39     953.9556     57.49646     340.0491         8     1.219     0.450   4.60  24
        26    367.8806    997.8806 307.7544405  +6.2645913     1088.763     1489.441     1969.782      82.0247     163.4033     326.3531      1.321     5.69     954.8861     57.49646     200.5485        11     1.382     0.660  49.53   3
        27    364.4555    995.9772 307.7559266  +6.2652620     981.7737     1338.879     1153.047      81.3773     163.1441     325.9963      1.478     5.52     954.8636     57.49646     181.6779        11     1.493     0.576  70.16   2
        28    441.1391    999.4620 307.7239806  +6.2663964     630.3325     1068.956      1057.77     81.76636     163.1441     326.2234      1.649     3.23     954.8406     57.49646     119.2938         6     0.733     0.640 -52.14   0
        29    978.3694    996.0321 307.5011064  +6.2857837     453.2491     521.7962     331.9543     81.24719     162.8845     325.8989      1.307     4.61     941.9943     57.49646     69.60504         5     1.054     0.572 -17.92   0
        30    548.7416    987.2122 307.6797329  +6.2750603     2874.108     6555.316     7520.861     81.11689     163.0793     325.8989      2.281     8.49     951.8646     57.49646     439.4108        30     2.064     0.975  34.29   2
        31    545.9009    979.4012 307.6811760  +6.2781895     5810.721     12614.39     14291.88      81.2472     162.8196     325.8989      2.215     8.25     951.8154     57.49646     965.6957        35     2.046     0.930  33.69   2
        32    520.5856    989.3667 307.6913467  +6.2732274     743.6741     1090.515     1164.963      81.3773     162.8845     326.0936      1.964     5.32     952.9938     57.49646     112.5112         9     1.299     0.616  33.40   0
        33    754.6432    987.3405 307.5942641  +6.2818991     5317.458     7438.409     7135.195     81.63688     163.1441     326.2882      1.495     3.26      948.081     57.49646     768.6536        20     1.156     0.901  49.98   3
        34    751.4580    985.5057 307.5956481  +6.2825500     4995.805     6268.939     6433.546     81.63688     163.1441     326.3855      1.298     2.92      948.088     57.49646     761.4341        17     1.019     0.896  27.22   3
        35    300.0145    986.7983 307.7829840  +6.2668874     10247.93     16036.94     17640.44      81.3773     162.8196     325.9638      1.676     5.34     954.5212     57.49646     1339.747        40     1.468     1.455  25.87   3
        36    296.8040    984.9238 307.7843800  +6.2675534     8866.536     10786.22     11397.12      81.3773     162.6245     326.0287      1.232     2.14     954.4881     57.49646      1713.72        18     1.135     0.714 -78.30   3
        37    814.3000    985.8080 307.5695533  +6.2845259     878.7479     1841.198     1469.042     81.50719     162.7546     326.0287      1.963     6.82     947.3127     57.49646     126.9295        15     1.918     0.681  31.03   0
        38    421.3553    985.2231 307.7326738  +6.2716106     602.8698     1167.583     1317.574      81.2472     163.1441     326.0287      1.076     3.05     954.3519     57.49646     130.7432         6     0.954     0.419 -74.38   0
        39    271.7328    984.1099 307.7948135  +6.2670472     786.2772     1275.449     1624.642     81.89563     163.2737     326.1909      1.754     2.66     954.3163     57.49646     132.0571         7     0.822     0.560  60.77   3
        40    268.2047    982.3964 307.7963359  +6.2676360     712.9114      1053.37     1363.218     81.11689     162.6896     326.0287      1.614     4.45     954.2728     57.49646     118.4749         7     1.165     0.484  28.39   3
        41    914.5447    980.0673 307.5281367  +6.2902441     6208.312     13290.02     14101.48     81.76635     163.0144     326.1585      2.235     8.67     944.5778     57.49646     854.2805        42     2.188     0.960  32.41   0
        42    888.1301    976.3145 307.5392274  +6.2909113     8763.523     19164.78     20755.61     81.89563     163.4033     326.2234      2.232     9.05     944.9964     57.49646     1348.117        51     2.155     1.078  32.55   0
        43    599.4036    975.6832 307.6590940  +6.2815165     799.0944      1429.04     1674.002      81.2472     162.7546     325.8665      2.474     5.09     950.5549     57.49646     156.5913         8     1.389     0.570  52.36   2
        44   1009.8927    975.6633 307.4887068  +6.2952438     3537.183     7769.375     8301.318     81.76635     163.3385     326.2558      2.226     7.77     939.5217     57.49646     461.9163        34     2.221     0.870  32.45  16
        45    532.4196    975.2262 307.6869128  +6.2794612     2908.991      6617.96     7549.079      81.2472     162.8845     326.0936      2.308     8.81     952.2466     57.49646     441.2972        36     2.225     0.973  28.13   0
        46    641.8453    974.5750 307.6415149  +6.2833950     964.2523     2056.201      2360.65      81.2472     163.2089     326.0612      2.406     7.46     949.9553     57.49646     151.4297        19     2.005     0.777  30.44   0
        47    486.6378    972.3337 307.7060133  +6.2791207     1516.145     2154.545     1791.412     81.63688     163.0793     326.2882      1.531     3.52     953.7357     57.49646     233.4458        12     1.111     0.760  30.07   3
        48    483.7845    970.9404 307.7072447  +6.2796002     1452.255     1795.185     1804.726      81.2472     163.0793     325.9314      1.269     2.71     953.7968     57.49646      224.092         9     0.856     0.670 -76.53   3
        49    919.9081    963.8139 307.5264577  +6.2971327     30958.66     66723.68     72694.81     81.50719     162.8845     325.9638      2.195     9.32     943.7456     57.49646     4460.582        71     2.194     1.105  33.90   0
        50    227.4602    962.1692 307.8139328  +6.2746165      1143.23     2475.815     2361.286     81.50719     163.1441     326.1585      2.201     7.41     953.9578     57.49646     198.4232        20     1.973     0.778  31.81   0
        51     68.5130    974.7961 307.8794753  +6.2640579     578.3127     878.2083     944.6006      81.2472     162.8196     325.8989      1.639     3.08     953.4574     57.49646     104.8958         5     0.737     0.449  67.96   0
        52    817.7410    957.6242 307.5690750  +6.2962755     1755.816     3631.765     3896.078      81.3773     163.1441     326.0287      2.096     7.23     945.9633     57.49646     253.6599        22     1.898     0.772  34.43   0
        53    766.1443    955.3298 307.5905697  +6.2954979     4461.836     9972.776     11284.77     81.76636     163.0793     326.1585      2.245     8.51     946.9847     57.49646     735.5959        37     2.133     0.949  32.66   0
        54    554.4974    955.4727 307.6784164  +6.2883553     557.2944     905.6395     1156.337      81.3773     163.2737     326.1585      2.319     4.67       951.27     57.49646     92.70746         7     1.211     0.510  45.79   0
        55    235.6147    954.6642 307.8108026  +6.2779886      1101.48     2170.555      1996.31      81.2472     163.0144     326.0612      1.998     6.30     953.9891     57.49646     162.7715        15     1.925     0.579  34.44   0
        56    199.9786    954.3879 307.8256031  +6.2769047     609.2029     1446.314     1672.136      81.3773     162.8845     326.0612      2.492     7.52     953.9161     57.49646     96.74756         9     2.034     0.779  47.48   0
        57     61.7909    953.2326 307.8829975  +6.2727327      1799.81     2656.388     2955.338      81.2472     162.9495     326.0287      1.538     4.39     953.3703     57.49646     259.8979        15     1.261     0.761  50.62   3
        58     58.5306    951.4700 307.8844106  +6.2733505     1640.154     2065.462     2339.704     81.76636     163.2737     326.1585      1.349     3.92      953.333     57.49646     266.0528        13     1.130     0.854 -78.90   3
        59    955.6915    951.3429 307.5120240  +6.3034753     4896.899      6926.62     7273.878     81.63688     163.0793     326.2882      1.502     3.55     941.5996     57.49646     680.5836        20     1.164     0.902  31.56   3
        60    952.4763    949.4788 307.5134214  +6.3041375     4526.175     5747.052     5739.461      82.0247     163.4033     326.2882      1.351     3.00     941.7225     57.49646     665.6108        20     1.053     1.002  71.62   3
        61    212.1210    947.6169 307.8207928  +6.2801080     417.3158     718.7516     907.5726      81.3773     162.8845     326.0936      1.422     3.90      953.929     57.49646     109.6855         5     0.902     0.483   4.35   0
        62    927.8766    942.2684 307.5238755  +6.3062930     1478.097     3207.363      3161.66     81.89563     163.2737     326.1585      2.103     7.31     942.5801     57.49646     258.8842        22     2.141     0.698  33.27   0
        63    788.7509    939.4706 307.5817207  +6.3028005     905.9366     1513.592     1765.327     81.76636     163.0793     326.2234      1.977     5.21      945.897     57.49646     142.6204         9     1.366     0.561  25.43   2
        64    649.9878    938.9861 307.6393367  +6.2983589     3147.792     4570.485     4907.027     81.63687     162.8196     326.1261      1.507     3.94     948.9329     57.49646     429.2145        20     1.301     0.852  33.86   3
        65    646.7689    937.0413 307.6407385  +6.2990539     2741.615     3350.872     3644.982      81.2472     162.9495     325.9963      1.187     2.06     948.9266     57.49646      561.272        11     0.944     0.638 -75.53   3
        66    260.8752    938.3280 307.8008716  +6.2855809      2960.63     6506.456     6975.857      82.0247     163.4033     326.1909      2.204     8.38     953.9945     57.49646      490.825        32     2.126     0.922  34.15   0
        67    471.0042    936.5196 307.7137137  +6.2933807      809.067     1433.147     696.0505      81.2472     162.6896     325.9314      1.866     6.45     952.5403     57.49646     141.8522        14     1.868     0.625  39.75   0
        68     31.3081    936.6319 307.8962133  +6.2785589     1435.515     1782.235     2372.904     81.89563     162.9495     326.2234      1.593     4.24     952.9846     57.49646      200.547        13     1.070     0.853  46.28   3
        69     28.2668    934.7007 307.8975411  +6.2792537       1452.8     1888.698     1880.721     81.76636     163.2737     326.1585      1.421     2.77     952.9473     57.49646     263.6894        10     0.903     0.738  84.24   3
        70    880.6561    934.7820 307.5437289  +6.3078068     616.2872     1390.091     1219.593      81.2472     163.0793     325.9314      2.101     5.50     943.2839     57.49646     128.0788         9     2.232     0.383  26.88   0
        71    953.1580    932.2924 307.5137169  +6.3112550     562.6561     907.7338      756.788     81.76636     163.1441     326.2882      1.795     4.67      941.004     57.49646     94.08673         8     1.108     0.559  53.35   0
        72    295.3959    930.7902 307.7867986  +6.2898522     633.1849     1097.254     1732.601      81.2472     162.8196     326.0612      2.189     4.43     953.9324     57.49646     93.68719         6     1.167     0.479  19.87   2
        73    574.8712    931.6552 307.6707644  +6.2988698     1216.765     1640.452     1654.091     81.63687     163.0793     326.1585      1.498     5.24     950.3414     57.49646     214.1283        11     1.216     0.637  49.34   3
        74    571.4565    929.4417 307.6722567  +6.2996692     991.1185     1397.603     1435.222     81.63688     163.0793     326.2234      1.644     4.54     950.4009     57.49646     179.9958        10     1.220     0.731  67.61   3
        75    613.9370    927.9271 307.6546746  +6.3017172     973.8844     1672.405     1753.048     81.89563     163.1441     326.2558      1.933     4.78     949.2408     57.49646     150.2069        11     1.246     0.682  42.66   2
        76     60.5084    926.8516 307.8844257  +6.2835793      740.131     1357.145     2201.533     81.63687     162.9495     326.3855      1.752     3.60     953.3591     57.49646     110.5981         6     0.784     0.499  86.88   0
        77    293.5365    925.5466 307.7877480  +6.2919543     991.5873      1905.28     2624.773     81.76636     163.0793     326.1585      2.062     4.90     953.8995     57.49646     160.5781        10     1.115     0.677  23.95   2
