#   1 NUMBER                 Running object number                                     
#   2 X_IMAGE                Object position along x                                    [pixel]
#   3 Y_IMAGE                Object position along y                                    [pixel]
#   4 ALPHA_J2000            Right ascension of barycenter (J2000)                      [deg]
#   5 DELTA_J2000            Declination of barycenter (J2000)                          [deg]
#   6 FLUX_APER              Flux vector within fixed circular aperture(s)              [count]
#   9 FLUXERR_APER           RMS error vector for aperture flux(es)                     [count]
#  12 FLUX_RADIUS            Fraction-of-light radii                                    [pixel]
#  13 FWHM_IMAGE             FWHM assuming a gaussian core                              [pixel]
#  14 BACKGROUND             Background at centroid position                            [count]
#  15 THRESHOLD              Detection threshold above background                       [count]
#  16 FLUX_MAX               Peak flux above background                                 [count]
#  17 ISOAREA_IMAGE          Isophotal area above Analysis threshold                    [pixel**2]
#  18 A_IMAGE                Profile RMS along major axis                               [pixel]
#  19 B_IMAGE                Profile RMS along minor axis                               [pixel]
#  20 THETA_IMAGE            Position angle (CCW/x)                                     [deg]
#  21 FLAGS                  Extraction flags                                          
         1    173.9084     27.4317 307.8653163  +6.6680676     5939.216     14612.19     16316.14     91.50516     182.0697      364.502      2.438     5.73      1191.58     64.24302     651.5273        56     1.933     1.648 -73.67   0
         2    703.4390     17.6584 307.6454224  +6.6897502      4559.96     9759.366     10637.28     91.36072     182.3597     364.5382      2.232     5.01      1159.04     64.24302      435.696        46     1.707     1.580 -76.05   0
         3    623.7430     17.0428 307.6785888  +6.6873548     2322.868     4917.849     4488.747     91.21604     182.2148     364.4658      2.182     5.61     1159.617     64.24302     230.2231        32     1.620     1.406 -43.49   0
         4    424.0048     13.3438 307.7617836  +6.6822317     3121.094     8181.245       9148.5     90.63504     182.0698     364.1395      2.469     6.43     1171.803     64.24302      324.326        46     1.930     1.589 -66.48   0
         5     25.0906     13.0587 307.9276916  +6.6690256      5046.94     11626.23     13727.46     91.21604     182.2872     364.6107      2.441     5.34     1192.672     64.24302     607.6829        53     1.938     1.554 -62.78   0
         6    320.5367      8.2334 307.8049874  +6.6808915      6999.86     17377.38     20453.13     91.21604     182.3597     363.8492      2.507     5.93     1183.182     64.24302     715.8148        66     2.068     1.696 -67.16  16
         7     94.4050      8.4559 307.8990225  +6.6732453     1484.794     3130.742     3782.276     90.63505     182.0698     364.1395      2.445     6.22     1192.664     64.24302     181.1382        20     1.558     1.084 -20.62  16
         8     86.2265      8.1398 307.9024344  +6.6731023     873.6768     1918.444     2927.229     90.92601     182.2872     363.2317      2.526     5.74     1192.583     64.24302     139.5737        10     1.391     0.667 -29.43  18
         9    386.7340      6.3324 307.7775212  +6.6838845     1169.254     2785.403     3297.065     91.36072     182.2872     349.3687      2.570     9.06     1176.112     64.24302     117.2451        24     1.652     1.388 -18.40  16
        10    647.3679      2.4390 307.6692559  +6.6941710     6294.779     11085.63     11399.95     90.92601     162.4421     294.2975      1.891     5.25     1159.019     64.24302     618.3312        33     1.609     1.223 -14.21  24
        11    525.6292      2.2978 307.7198920  +6.6901785      656.955     1104.005     1184.514     90.48921     160.3967     291.9094      1.816     5.80     1161.731     64.24302     99.22595         8     1.098     0.863  16.91  24
        12    811.5184      1.7421 307.6010076  +6.6999126     973.8535     1395.255     1734.878     85.38282     152.0267     281.9207      1.500     5.20     1152.975     64.24302     153.3877         8     1.016     0.752 -31.73  24
        13    246.6574      1.5573 307.8359385  +6.6811821     1250.239     1947.182     1547.411     82.55166     148.6001     278.4326      1.538     5.98     1189.837     64.24302     197.2904        14     1.471     0.702   0.97  24
        14    880.0157    997.7365 307.5390241  +6.2908804     11571.48     19294.17     20493.27     90.78064     182.1423     364.2845      1.766     3.60     1219.267     64.24302     1523.757        48     1.615     1.223 -59.98   0
        15    951.9836   1022.5572 307.5082819  +6.2830154     6529.753     9031.361      9042.13     90.78064     162.6047     294.2975      1.506     3.60     1220.573     64.24302     892.6206        28     1.408     0.954 -32.97  24
        16    711.7701   1020.9901 307.6081611  +6.2756954     2383.308     4017.926     3898.599     90.78064     179.9539     319.6799      1.785     4.09      1225.61     64.24302     315.1382        24     1.455     0.997 -57.89  24
        17    706.2346   1023.2889 307.6103841  +6.2745623      800.754     978.3983     1092.358     84.76185     151.2429     281.3111      1.304     4.69     1226.024     64.24302     119.9714         9     0.909     0.761  -1.02  25
        18    236.4784   1022.6876 307.8056141  +6.2591748     989.2661     1384.817     1129.642     90.34315      161.218     292.3615      1.510     4.28     1231.396     64.24302     162.1444         9     1.022     0.795 -43.91  24
        19    592.8002    998.0606 307.6583736  +6.2812114     1190.702     2221.483     2350.883     90.48921     181.9972      364.067      1.908     5.82       1226.1     64.24302     151.3373        17     1.344     1.001 -70.97   0
        20    524.2319    996.9624 307.6869054  +6.2793845     3473.876     6390.991     6914.439     90.92601     181.9972      364.212      1.890     4.16      1226.53     64.24302     406.8275        35     1.561     1.289 -59.19   0
        21   1001.7091    997.2215 307.4884673  +6.2951250     4722.497     7107.593     7006.875     91.36072     182.0697     364.3208      1.633     3.62     1217.346     64.24302     616.5461        26     1.427     0.952 -61.86   0
        22    633.8457    995.9370 307.6413877  +6.2834527     1129.417     2092.012     1946.643     91.21604     182.2148      364.502      1.760     4.94     1225.576     64.24302     187.0839        15     1.329     0.972 -69.68   0
        23    477.4528    993.4694 307.7064631  +6.2792704     2005.164     3561.496     3702.619     91.21605     182.1423     364.3933      1.896     4.64     1226.625     64.24302     236.0931        21     1.437     1.023 -57.41   0
        24     59.2448    995.9285 307.8801673  +6.2643068     830.0602       1467.9      2014.17     91.21604     182.2872     364.4658      1.957     4.52     1231.427     64.24302     120.7266         8     1.129     0.741 -52.16   0
        25    911.8044    985.3248 307.5262301  +6.2970597     41788.16     66573.24      70847.6     90.92601     181.7067     364.3571      1.713     3.54     1217.882     64.24302     5394.586        68     1.652     1.242 -61.27   0
        26    218.9867    984.2089 307.8141840  +6.2744808     1356.411     2211.263     2310.626     91.07114     181.9972     364.3571      1.731     4.79     1230.522     64.24302     166.3904        14     1.293     0.798 -55.27   0
        27    106.5768    982.9954 307.8609369  +6.2712289     668.1946     1031.699     1209.169     90.92601     181.9972     364.2845      1.840     5.10     1230.735     64.24302     108.4988         6     1.067     0.691 -30.70   0
        28    618.0042    981.9495 307.6484423  +6.2887024     709.9116     940.4751     275.5895     90.63504     181.9972     364.0307      1.254     4.17      1225.02     64.24302     101.5526         7     0.902     0.549 -42.10   0
        29    809.7882    979.2098 307.5688324  +6.2962023     2176.998     3659.469     3758.982     91.07114     182.0697     364.4295      1.806     4.05     1219.153     64.24302     285.0867        24     1.451     1.011 -52.63   0
        30    757.9466    977.0765 307.5904489  +6.2953630     5885.608     9925.914     10810.54     91.50516     182.2872     364.4658      1.839     3.70     1220.788     64.24302     763.7529        40     1.759     1.144 -61.66   0
        31    227.6080    976.2362 307.8108710  +6.2780607     1151.813     1922.795     2183.683     90.63505     182.0698     364.1758      1.818     3.90     1230.355     64.24302      177.786        13     1.085     0.984  77.60   0
        32    191.8577    975.6745 307.8257463  +6.2770996     757.3432     1367.598      1508.65     91.36072     182.2872     364.4658      2.029     5.21     1230.241     64.24302     107.6447         7     1.147     0.668 -44.09   0
        33     52.4134    974.3547 307.8837368  +6.2729871      2375.72     4395.407     4757.416     90.63505     182.0698     364.1758      1.994     4.31      1230.83     64.24302     296.8164        29     1.533     1.192 -55.63   0
        34    946.0898    971.9567 307.5124304  +6.3037163     6668.608      10290.5     10966.37     91.36072     182.1423      364.502      1.671     3.58     1216.178     64.24302     944.0212        35     1.478     1.160 -74.41   0
        35    919.8025    963.8951 307.5236260  +6.3061744     1989.431      3252.84     3165.479     90.92601     181.9246      364.067      1.749     4.27     1215.908     64.24302     301.4788        21     1.346     1.080 -44.00   0
        36    253.0824    960.2375 307.8008259  +6.2855172     3451.496     6207.956     6603.281     91.36072     182.2872     364.4295      1.944     4.31     1230.001     64.24302     357.6661        32     1.490     1.302 -83.02   0
        37    640.6976    959.6935 307.6397611  +6.2986474     3776.494     6691.023     6809.922     91.36072     182.9381     364.3571      1.888     4.12     1223.062     64.24302     440.2887        32     1.602     1.137 -57.83   0
        38    779.5026    959.9024 307.5820682  +6.3031706     1233.358     1925.453     2157.854     91.36072     182.8659     364.2845      1.749     4.05     1219.257     64.24302     160.5348        10     1.066     0.676 -43.28   0
        39    462.8448    958.1201 307.7137265  +6.2933817     683.9081     1267.533     1280.438     91.36072     182.2872     364.4658      1.917     7.52     1225.844     64.24302     89.82031        11     1.754     0.901 -57.15   0
        40     21.7023    957.7430 307.8970616  +6.2788201     1722.096     2925.781     2890.407     91.21604     182.2872     364.6831      1.774     5.23      1230.83     64.24302      222.874        18     1.466     0.822 -80.02   0
        41    989.8515    959.3596 307.4946661  +6.3103680     644.3082     619.5062      1002.69     91.36072     182.2872     364.4295      1.102     2.67     1214.533     64.24302     122.3105         5     0.725     0.447 -17.82   0
        42    872.2040    956.3630 307.5436609  +6.3077071     823.3502     1242.397      875.723     90.34314     181.9972     364.2483      1.718     4.89     1216.658     64.24302     155.7239         7     1.144     0.593 -32.85   0
        43    943.9896    953.1557 307.5139346  +6.3114108     649.9197      1197.47     921.6436     90.78064     182.1423     364.1395      1.612     5.32     1214.506     64.24302     98.35803         9     1.547     0.517 -65.48   0
        44    565.3446    952.2488 307.6713275  +6.2992167     1336.841     2419.501     1906.232     91.36072     182.2872     364.5382      1.798     5.11     1224.291     64.24302     164.0131        16     1.325     0.939  52.55   0
        45    996.5937    951.8077 307.4921175  +6.3137099     678.1039     1186.254     1189.264     90.63505     182.0697     364.2845      1.791     3.38     1213.906     64.24302     135.5709         5     1.049     0.315 -67.87   0
        46    604.2205    949.2186 307.6552734  +6.3017607     901.6353     1471.862     1039.566     91.07114     182.2148     364.3571      1.764     5.06     1223.691     64.24302     110.4789         8     1.150     0.629  81.40   0
        47    285.0172    946.6262 307.7880151  +6.2922031     949.6154     1696.907     1827.651       90.926     181.9972     364.3571      1.859     5.13     1229.713     64.24302     119.5754        11     1.032     0.826 -81.49   0
        48    888.7421    939.0917 307.5373681  +6.3153878     6482.719     10536.06     10469.94     91.21604     182.2148     364.5745      1.721     3.70     1214.912     64.24302     800.5774        35     1.571     1.109 -53.89   0
        49    751.1958    941.6948 307.5944449  +6.3097501     740.3686     768.4448     293.5193     91.07114     181.9246      364.212      1.291     3.29     1218.947     64.24302     126.2139         6     0.896     0.619  72.24   0
        50    424.6750    936.3595 307.7303234  +6.3010969      1519.47      2986.84     3194.536     91.21604     182.2872      364.502      2.113     5.32     1226.423     64.24302     198.4852        21     1.447     1.186 -33.39   0
        51    326.4983    934.7845 307.7711768  +6.2984761     7448.542     13503.98     15164.03     91.36072     181.9972     364.1758      1.985     4.17      1228.36     64.24302     835.7001        44     1.616     1.384 -67.01   0
        52    246.6155    933.8597 307.8044053  +6.2961941     5290.993      10338.1     11265.85     90.78064     182.2148     364.1758      2.083     4.30     1229.425     64.24302     620.6163        45     1.716     1.393 -67.66   0
        53    574.8323    927.8981 307.6682053  +6.3095880      1090.26     1686.517     1924.617     91.36072     182.1423     364.6107      1.717     4.14       1223.1     64.24302     154.0992         8     0.966     0.699 -66.03   0
        54    904.3807    924.3339 307.5313644  +6.3220006     1069.144     1835.095      1792.76     90.92601     182.2872     364.3571      1.968     6.26     1213.328     64.24302     145.1946        14     1.408     0.781 -60.06   0
        55    741.0137    917.1404 307.5995028  +6.3195520     1235.508      2166.61     2436.239     90.63504     182.2148     364.1395      1.955     4.66      1217.62     64.24302     158.7662        12     1.146     0.758 -74.56   0
        56    526.1693    912.2736 307.6889563  +6.3144216     899.7371     1781.359     2145.919     91.21604     182.2872     364.4658      2.138     4.80     1223.527     64.24302      129.343         8     1.090     0.598 -56.39   2
        57    605.0225    913.5145 307.6561432  +6.3165316     649.7968     1023.924      715.213     91.36072     182.0697     364.3571      1.652     5.05     1221.876     64.24302     80.22876         6     1.083     0.666  55.10   0
        58    972.1426    912.5640 307.5035971  +6.3291064     1243.718     2144.464     2776.688     91.21604     182.2872      364.502      1.856     3.77     1211.099     64.24302     168.9772        11     0.998     0.791 -54.10   0
        59    659.7612    910.5758 307.6334927  +6.3195644     2028.942     3617.661     4481.025     90.92601     182.0698     364.2483      2.012     4.80      1219.21     64.24302     269.8982        25     1.518     1.121 -65.77   0
        60   1010.5140    910.1207 307.4877313  +6.3313861      599.048     743.9142     949.6851     91.21604     182.6491     364.5745      1.666     4.19     1209.898     64.24302     85.42578         6     1.057     0.474 -31.74   0
        61     56.1926    907.0198 307.8844476  +6.3009186     2156.709     3986.447     4095.555     90.92601     181.9972     364.2483      1.940     5.08     1228.951     64.24302     272.3597        24     1.516     1.172 -75.20   0
        62    199.7540    906.2269 307.8248144  +6.3060412     1686.383     3422.088     3889.439     90.78064     182.3597     364.3571      2.103     5.15     1228.302     64.24302     199.0145        22     1.341     1.190 -89.12   0
        63     73.6943    905.9247 307.8772116  +6.3019558      1583.64     2803.323     3626.763     91.21604     182.5045      364.502      2.157     3.91     1228.559     64.24302     223.3516        16     1.253     0.861 -88.85   0
        64    937.2831    905.8282 307.5183114  +6.3307332     750.4202      1269.07     1240.628     91.21604     182.0698     364.3933      1.700     3.47     1211.648     64.24302     121.1594         7     0.839     0.623  62.96   0
        65    820.4567    906.4042 307.5668468  +6.3266221     716.3288     1179.733     1372.976     90.63505     182.1423     364.1395      1.682     3.36     1215.486     64.24302     105.5975         5     1.041     0.315 -22.31   0
        66    654.1301    899.7455 307.6361978  +6.3238497     5395.674     10034.21     10842.39     91.21604     182.1423     364.4295      1.991     4.37     1219.012     64.24302     635.5636        39     1.679     1.231 -64.16   0
        67     14.2571    899.2751 307.9021371  +6.3027147     904.4785      1667.91     1571.337     91.36072     182.2148     364.4295      2.082     5.59     1229.559     64.24302     116.5504         9     1.154     0.764  29.62   2
        68     26.9948    896.9696 307.8969219  +6.3040927     771.4205     1376.488     1423.458     90.78064     182.0697      364.212      1.914     4.58     1229.252     64.24302     155.5433         7     1.292     0.675  58.72   0
        69    891.7415    895.7416 307.5375782  +6.3333892       2486.7     3846.177     4667.958     91.36072     182.2872      364.502      1.563     3.59     1212.463     64.24302     347.0873        19     1.258     0.908 -45.08   0
        70    337.2012    893.1022 307.7681373  +6.3160455     11877.83     23476.71      26934.8     90.78064      181.852      364.067      2.126     4.30     1226.949     64.24302     1354.581        60     1.823     1.474 -60.87   0
        71     71.7977    894.0601 307.8784017  +6.3067918     1081.335     2022.834      2241.25     90.63504     181.9246     364.1395      1.931     6.80     1228.346     64.24302     146.4054        15     1.397     1.002 -31.53   0
        72    208.0973    893.0825 307.8217918  +6.3117475     1053.062     1777.108     1392.953     91.36072     182.7214     364.5382      1.826     6.13     1227.959     64.24302     120.4132        13     1.491     0.709 -46.12   0
        73    414.8810    883.2542 307.7361866  +6.3227006     773.4028     1797.081     1483.114     91.36072     182.2872     364.5382      2.355     6.34     1224.756     64.24302     109.3729         9     1.265     0.892  34.83   2
        74    100.4129    883.9075 307.8668538  +6.3119403     1218.198     2604.536     2680.067     91.07114     181.9972      364.212      2.109     7.26     1227.718     64.24302     162.4136        19     1.568     1.019 -80.39   0
        75    755.0276    884.0331 307.5947926  +6.3336893     3381.331     3593.455     3983.449     90.78064     181.9972      364.212      0.434     0.00     1215.616     64.24302     2726.641         6     0.344     0.279  55.18   0
        76    882.1949    877.5792 307.5421563  +6.3405732     1821.026     2933.559      2565.67     90.92601     181.9972     364.2483      1.669     3.94     1211.696     64.24302     230.5831        17     1.202     0.963 -79.55   0
        77    816.2976    876.7720 307.5695719  +6.3387211     2427.907     4255.913     4852.099     91.50516     181.9972     364.4295      1.921     4.45      1213.75     64.24302     335.4436        25     1.632     0.996 -52.09   0
