#   1 NUMBER                 Running object number                                     
#   2 X_IMAGE                Object position along x                                    [pixel]
#   3 Y_IMAGE                Object position along y                                    [pixel]
#   4 ALPHA_J2000            Right ascension of barycenter (J2000)                      [deg]
#   5 DELTA_J2000            Declination of barycenter (J2000)                          [deg]
#   6 FLUX_APER              Flux vector within fixed circular aperture(s)              [count]
#   9 FLUXERR_APER           RMS error vector for aperture flux(es)                     [count]
#  12 FLUX_RADIUS            Fraction-of-light radii                                    [pixel]
#  13 FWHM_IMAGE             FWHM assuming a gaussian core                              [pixel]
#  14 BACKGROUND             Background at centroid position                            [count]
#  15 THRESHOLD              Detection threshold above background                       [count]
#  16 FLUX_MAX               Peak flux above background                                 [count]
#  17 ISOAREA_IMAGE          Isophotal area above Analysis threshold                    [pixel**2]
#  18 A_IMAGE                Profile RMS along major axis                               [pixel]
#  19 B_IMAGE                Profile RMS along minor axis                               [pixel]
#  20 THETA_IMAGE            Position angle (CCW/x)                                     [deg]
#  21 FLAGS                  Extraction flags                                          
         1    191.8138     13.9115 307.8655398  +6.6681231     5837.651      14777.2     16799.43     90.41693     180.7619     361.7397      2.447     5.69     1168.695     63.78153     674.8113        62     1.918     1.765 -83.57   0
         2    536.0826     11.7275 307.7223539  +6.6805319     1549.493     3902.522     4145.652     90.99102     181.3371     361.8836      2.402     7.29     1143.301     63.78153     188.2052        33     1.732     1.471   6.85   0
         3    937.0391     11.2272 307.5555125  +6.6940877     3000.199     5772.421     6069.869     90.27284     180.7619     361.6677      1.985     5.09      1130.84     63.78153     367.2206        31     1.560     1.279  70.18   0
         4    738.1541      9.9651 307.6383223  +6.6879946     1222.013     2701.427     3298.492     90.27284     180.9058     361.7037      2.340     7.78     1135.453     63.78153      121.719        20     1.380     1.228  69.37   0
         5    475.8514     10.9930 307.7474432  +6.6788251     744.1884     1518.035     2257.578     90.12852     180.7619     361.4157      2.634     4.31     1145.483     63.78153     132.3312         7     1.012     0.601  89.26   0
         6   1001.8583      7.7283 307.5286552  +6.6976858     1581.935     2894.564     3063.196     90.84784     180.9778     358.5589      1.872     4.57     1120.808     63.78153     198.1953        20     1.376     1.048 -76.55  16
         7    721.4113      4.2139 307.6454843  +6.6898127     4683.772     10726.31     11589.81     90.41694     179.8232     320.4449      2.276     5.46     1136.027     63.78153     467.2365        46     1.802     1.504 -89.65  24
         8    641.5049      3.5702 307.6787591  +6.6874167     2290.842     5194.212     5712.217     90.84784     174.6822     310.7097      2.246     5.88     1139.624     63.78153     240.6012        34     1.622     1.430 -81.26  24
         9    441.8643      1.8169 307.7618975  +6.6814805     2350.335     3900.399     3923.758     85.07606     152.2229     281.2874      1.785     6.66     1148.761     63.78153     318.4196        20     1.574     0.905   1.74  24
        10     42.8392      1.6848 307.9279457  +6.6681812     3070.003     4237.369     3920.511       83.843     149.8961     278.9172      1.514     4.66     1172.966     63.78153     485.3234        18     1.459     0.787  -4.49  24
        11    376.4028   1005.3116 307.7551296  +6.2647850     1500.147      2639.26     2703.243     89.98397     180.6178     361.5237      1.986     6.16      1206.84     63.78153     166.4106        15     1.261     0.913  52.15   0
        12    904.1985   1023.4810 307.5350527  +6.2748559     1022.666     973.3688     720.1432     80.51646     146.2921     275.5362      0.989     2.50     1199.582     63.78153     242.1711         6     0.703     0.617 -46.09  24
        13    730.1376   1020.1435 307.6075428  +6.2704482     6933.795     10692.15     10871.95     90.84784     180.9058     329.5771      1.631     3.56     1203.485     63.78153     864.9077        32     1.414     1.122 -75.36  24
        14    597.2858   1022.8649 307.6626920  +6.2649010     60170.32     78440.09     80791.88     88.67239     157.1875     286.9687      1.437     3.59     1204.807     63.78153     7653.104        49     1.336     1.073  -6.10  24
        15    226.9695   1022.8186 307.8166695  +6.2525607     1821.313     2409.784     2209.041     88.52546     157.4358     287.7841      1.440     3.90     1207.613     63.78153     219.4452        13     1.042     0.863 -33.14  24
        16    627.6020    998.8931 307.6508960  +6.2758130      556.494     1161.627     1165.334     90.12852     180.6178     361.5237      1.737     4.10     1203.017     63.78153     122.6118         5     1.486     0.323 -50.65   0
        17    558.4467    995.4853 307.6797670  +6.2749166     3908.542     6436.924     7098.898     90.70443     180.9058     361.8477      1.849     4.10     1204.931     63.78153     426.2845        28     1.396     1.207 -75.91   1
        18    529.1059    996.8747 307.6919203  +6.2733647     967.0308     1434.962      990.189     90.41694     181.1935     361.8477      1.606     5.51     1205.626     63.78153     125.3722         9     1.102     0.777  87.17   0
        19    762.9062    994.8577 307.5947700  +6.2819833     7515.307     11885.09      12206.2      90.5608     180.9778     362.0275      1.661     3.67     1201.338     63.78153     920.9554        34     1.453     1.138 -75.92   0
        20    308.8431    994.2487 307.7835956  +6.2670983     12587.07     22567.08     25255.76     90.70443     180.9058     361.7757      1.970     4.15     1206.891     63.78153     1324.891        60     1.792     1.448 -50.29   0
        21    433.3669    994.4237 307.7318124  +6.2711839      760.265     1129.466     1229.666     90.12852     180.8339     361.6317      1.952     5.56     1206.194     63.78153     92.36853         8     1.300     0.670  78.27   0
        22    823.8510    993.3882 307.5694772  +6.2846168     979.9753     1478.023     1832.433     89.98397     180.8339     361.5237      1.668     4.82     1200.232     63.78153     145.4758        10     1.085     0.691  38.30   0
        23    279.8520    991.9249 307.7957288  +6.2670895     993.4557     1852.688     1634.136     90.70443     181.0497     361.8477      1.676     6.74     1206.877     63.78153     126.8248        14     1.298     0.982 -39.42   0
        24    924.2554    988.1451 307.5279027  +6.2901186      9511.75     14298.73     15206.74     90.99102     180.9778     361.8477      1.621     3.40     1196.292     63.78153     1322.775        34     1.473     1.069 -75.17   0
        25    555.6422    987.7220 307.6811956  +6.2780300     7237.905     12606.25     13056.55      90.5608     180.9778     361.9196      1.859     4.04     1204.667     63.78153     790.0424        38     1.482     1.311 -81.04   0
        26    897.8446    984.3685 307.5390124  +6.2908014     12686.86      19564.5     20442.11     90.27284     181.0497     361.7037      1.634     3.39     1196.832     63.78153     1644.373        43     1.483     1.172 -68.45   0
        27   1019.5423    983.8652 307.4884231  +6.2950494     5270.761     7108.005     6993.728     90.84784     180.9058     337.1914      1.454     3.33     1194.579     63.78153     716.2809        22     1.315     0.869 -75.87  16
        28    610.7194    984.6428 307.6583975  +6.2811371     1187.819     1912.887     1425.141     90.70443     180.9778     361.8117      1.588     4.40     1202.897     63.78153     209.0597        12     1.350     0.789  76.28   0
        29    542.2166    983.5566 307.6869190  +6.2793031      3571.69     6512.092     7150.799     90.12852     180.8339     361.5957      1.949     4.16     1204.836     63.78153     385.1528        30     1.451     1.228 -78.39   0
        30    651.7886    982.8014 307.6413823  +6.2832656     1245.377     1893.859     1680.503     90.27284     180.6178     361.6317      1.622     5.43     1201.558     63.78153     162.0345        14     1.159     0.931  55.74   0
        31     77.0542    982.0587 307.8803854  +6.2643806     814.3799      1502.16     1738.688     90.84784     180.9058     361.8477      2.140     5.01     1206.693     63.78153     105.2471         8     1.135     0.625  60.69   0
        32    807.5452    981.2448 307.5766671  +6.2890910     574.9996     897.5261     1112.907     90.70443     180.9778     361.8836      1.631     3.45     1199.774     63.78153     92.82446         5     0.745     0.463 -71.66   0
        33    495.3098    979.8755 307.7065481  +6.2792597     2101.969     3442.341     2735.732     90.70443     181.2653     361.8836      1.710     4.19     1205.139     63.78153     256.6488        22     1.244     1.179 -55.54   0
        34    929.6398    971.9396 307.5262095  +6.2969916     45437.27     67991.29     70795.52     90.70443     180.9778     361.9196      1.605     3.38      1195.04     63.78153     5585.823        59     1.478     1.191 -79.62   0
        35      2.9861    972.1622 307.9115180  +6.2659873       2807.2     4687.011     4808.506     90.27284     168.3833     301.3082      1.768     4.04     1206.481     63.78153     326.8591        25     1.417     1.052  80.88  24
        36    237.2182    970.5848 307.8141795  +6.2744792     1543.361     2477.608     2670.639     90.41694     180.6178     361.7397      1.848     4.94     1206.414     63.78153     161.7045        16     1.118     1.025 -76.01   0
        37    827.4493    965.7823 307.5689117  +6.2961399     2155.788      3762.26     3826.035     90.12852     181.0497     361.6317      1.847     4.50     1197.714     63.78153     272.9829        22     1.432     1.063 -70.54   0
        38    635.5521    968.2724 307.6486245  +6.2887264     800.3084     994.0696     698.7588     90.70443     181.0497     361.8836      1.439     3.62     1201.327     63.78153     124.0139         7     0.951     0.702 -40.55   0
        39    775.8408    963.6407 307.5904446  +6.2953086     6123.781     10390.03     11850.63     90.41694     180.9778     361.7037      1.858     3.64     1198.594     63.78153     767.0431        38     1.531     1.271 -78.51   0
        40     70.5093    961.0886 307.8838189  +6.2728233     2316.082     4002.606     3932.887     90.70443     181.5523     361.9556      1.882     4.75     1206.161     63.78153      270.428        23     1.495     1.027 -76.49   0
        41    563.2991    962.0773 307.6788786  +6.2888783     711.1592     1421.949     1331.443     90.27284     181.1935     361.8836      2.221     6.15     1203.271     63.78153     100.2949         9     1.739     0.612 -36.70   0
        42    245.7617    962.5914 307.8108981  +6.2780666     1245.822     1928.309     2185.921     89.83919     180.6898     361.5237      1.873     5.50     1206.317     63.78153     146.1309        12     1.096     0.780  61.74   0
        43    209.6160    962.1450 307.8259428  +6.2770424     789.7394     1616.848     2098.774     89.98397     180.9058     361.5237      2.016     6.72     1206.119     63.78153     85.76685        10     1.200     1.056  54.42   0
        44    963.9436    958.7083 307.5123902  +6.3035962     7210.894     10683.71     11852.03      90.5608     180.9058     361.9915      1.588     3.49     1193.571     63.78153     946.8816        30     1.360     1.044 -78.23   0
        45    220.6331    955.1236 307.8216000  +6.2803111      648.288     1047.452     1384.866      90.5608     180.9778     361.8117      1.573     4.24     1205.946     63.78153     103.8721         6     1.350     0.379 -76.71   0
        46    937.6691    950.1693 307.5236038  +6.3062511     2278.353     3001.505     3277.213      90.5608     180.9778     361.8117      1.447     3.34     1193.413     63.78153     324.2515        15     1.100     0.859 -80.16   0
        47    270.9164    946.8210 307.8009733  +6.2854216     3591.187     6573.102     6706.856     90.41693     180.6178     361.7037      1.885     4.51     1206.329     63.78153     400.5626        34     1.642     1.218  89.83   0
        48    658.4029    946.4468 307.6398597  +6.2985030     4073.529     6872.297     7090.902     89.98397     180.6178     361.4157      1.824     4.20     1199.253     63.78153     414.4602        28     1.433     1.119 -68.43   0
        49    797.3301    946.5368 307.5820853  +6.3030885     1255.229     2142.537     2412.477     90.70443     180.9778     361.9196      1.791     5.01     1197.016     63.78153     172.2574        12     1.036     0.928 -83.00   0
        50   1007.9388    945.8174 307.4945288  +6.3103813      795.498     1241.799     1605.945     90.27284     180.9058     361.6317      1.602     4.00     1191.786     63.78153     134.2069         7     0.980     0.616   3.33   0
        51    481.3327    944.9817 307.7135404  +6.2932071     829.1868     1356.708     768.4102     90.27284     180.9058     361.7397      1.917     5.71     1203.426     63.78153     115.8218         8     1.258     0.731 -84.53   0
        52     39.6044    944.2922 307.8972396  +6.2787261     1854.262     3211.122     3484.438     90.27284     180.6178     361.5957      1.803     4.54     1205.773     63.78153     262.9637        18     1.197     1.031 -61.59   0
        53    889.8171    943.1447 307.5437395  +6.3075636     896.8367     1398.832     768.9604     90.12852     180.9058     361.5597      1.561     3.59     1193.801     63.78153     168.6716         7     1.040     0.648 -57.77   0
        54    583.2604    939.0862 307.6713552  +6.2990405     1402.142     2663.788     2603.012     90.84784     181.1216     361.9556      1.952     7.21     1201.799     63.78153       157.36        20     1.526     1.116 -52.86   0
        55    307.9973    939.9131 307.7857886  +6.2895142     677.5149     1251.517     1699.348     89.98397     180.5457     361.5237      1.687     4.66     1206.455     63.78153     105.4667         6     1.265     0.487  76.05   0
        56   1014.8123    938.4806 307.4919174  +6.3136401     892.2815     1537.424     1608.498     90.27284     180.6178     361.6677      1.901     4.77     1191.019     63.78153     143.0323         9     1.176     0.604 -71.84   0
        57    622.2352    934.5560 307.6553012  +6.3022103     908.6646     1432.252     1138.329     90.41694     180.9058     361.7037      1.644     5.32     1200.442     63.78153     131.4565         9     1.068     0.747  51.20   0
        58    302.7023    932.9660 307.7882258  +6.2922069     1138.242     2069.863      2256.36     90.70443     180.8339     361.9915      2.030     7.00     1206.413     63.78153     138.2367        15     1.406     0.989  73.23   0
        59    769.3083    929.1119 307.5943258  +6.3093544     808.8275     1422.816     1112.582     90.70443     181.4806     361.9915      1.727     4.27      1195.55     63.78153     133.1355         7     0.973     0.665  61.66   0
        60    906.6478    925.5569 307.5373331  +6.3153879     7244.659     10704.44     11197.26     90.70443     180.9058     361.7757      1.623     3.34     1192.376     63.78153     910.1235        31     1.404     1.071 -76.33   0
        61    344.3497    921.4352 307.7712986  +6.2983612     7427.671     14047.58     14981.37      90.5608     180.9778     361.7757      1.989     4.48     1206.006     63.78153     777.4983        43     1.613     1.416 -84.49   0
        62    442.7102    922.7529 307.7303529  +6.3011007     1688.697     3133.537     3305.989     90.70443     180.8339     361.9915      1.974     5.71     1203.513     63.78153     201.5394        19     1.278     1.100 -48.13   0
        63    264.4544    920.2811 307.8045600  +6.2961684     5723.572     10817.25     11160.57     90.70443     180.9778     361.9196      1.987     4.58     1205.898     63.78153     580.4758        41     1.659     1.350 -75.29   0
        64    592.5772    914.6652 307.6683062  +6.3094387     936.3997     1569.512     974.2903     90.27284     180.9778     361.7397      1.711     6.49     1200.467     63.78153     145.4796        12     1.483     0.968  47.21   0
        65    776.6295    914.2652 307.5917822  +6.3157308     630.2222     948.0633     753.4923     90.41694     181.0497     361.7757      1.594     5.56     1195.012     63.78153      91.2229         8     1.368     0.638  -8.30   0
        66    922.2162    910.7355 307.5313582  +6.3220274     1181.894     1654.666     2018.031     90.12852     180.8339     361.7037      1.678     5.35     1191.748     63.78153     158.7856        10     0.957     0.845 -32.20   0
        67    878.8731    910.0640 307.5494054  +6.3208650     775.4456     1126.529     1136.218     90.70443     180.9778     361.8477      1.540     4.66     1192.317     63.78153     111.5981         9     0.958     0.702 -81.26   0
        68    989.3448    906.4216 307.5035873  +6.3260380     827.4436     1181.648     1231.501     90.12852     180.9778     361.6317      1.629     4.67     1189.194     63.78153     132.2725         8     1.123     0.550 -69.72   0
        69    758.5622    903.7509 307.5996502  +6.3194731     1539.084     2764.195     3032.369     90.41694     180.9778     361.7037      1.911     7.03     1194.957     63.78153     178.4509        17     1.359     1.020 -65.03   0
        70    623.5731    901.1943 307.6558720  +6.3160358     708.5114     1221.866      729.689     90.12852     180.7619     361.6317      1.913     4.45      1198.72     63.78153     91.06531         5     1.157     0.487  85.13   0
        71    990.0499    899.4779 307.5035278  +6.3289298     1293.192     1954.102     2371.861     90.70443     181.0497     361.8117      1.812     4.60      1188.64     63.78153     190.2675        15     1.252     0.944  84.51   0
        72    543.5109    900.0357 307.6892047  +6.3138465     865.9267     1560.642     1715.255     90.84784     180.9058     361.8477      1.958     7.21     1200.804     63.78153     111.4161        11     1.393     1.046 -41.51   0
        73    677.3762    897.1351 307.6336350  +6.3195042     2081.658     3780.323     4053.012     90.27284     180.9778     361.7397      1.906     4.30      1196.33     63.78153     265.3665        23     1.354     1.148  89.80   0
        74    967.5267    894.7846 307.5130525  +6.3301209      766.153     1193.657     1264.445     90.12852     180.6898     361.7397      1.686     5.14     1189.369     63.78153     120.0852         8     1.113     0.672 -87.32   0
        75    837.7206    894.7336 307.5670358  +6.3258301     675.6285     1044.703     1261.033     90.84784     181.1216     361.8117      1.698     5.93      1192.88     63.78153     119.1084         7     1.188     0.834 -53.90   0
        76    582.5689    904.2280 307.6728209  +6.3134165     551.1467     687.9648     569.3303     90.12852     180.6898     361.5957      1.515     5.19     1200.123     63.78153     86.23608         5     1.057     0.720 -14.40   0
        77    217.7720    892.5392 307.8249125  +6.3060667         1789     3579.704     3800.463     90.27284     181.0497     361.7757      2.113     6.31     1205.068     63.78153     189.0298        23     1.473     1.193 -78.75   0
