#   1 NUMBER                 Running object number                                     
#   2 X_IMAGE                Object position along x                                    [pixel]
#   3 Y_IMAGE                Object position along y                                    [pixel]
#   4 ALPHA_J2000            Right ascension of barycenter (J2000)                      [deg]
#   5 DELTA_J2000            Declination of barycenter (J2000)                          [deg]
#   6 FLUX_APER              Flux vector within fixed circular aperture(s)              [count]
#   9 FLUXERR_APER           RMS error vector for aperture flux(es)                     [count]
#  12 FLUX_RADIUS            Fraction-of-light radii                                    [pixel]
#  13 FWHM_IMAGE             FWHM assuming a gaussian core                              [pixel]
#  14 BACKGROUND             Background at centroid position                            [count]
#  15 THRESHOLD              Detection threshold above background                       [count]
#  16 FLUX_MAX               Peak flux above background                                 [count]
#  17 ISOAREA_IMAGE          Isophotal area above Analysis threshold                    [pixel**2]
#  18 A_IMAGE                Profile RMS along major axis                               [pixel]
#  19 B_IMAGE                Profile RMS along minor axis                               [pixel]
#  20 THETA_IMAGE            Position angle (CCW/x)                                     [deg]
#  21 FLAGS                  Extraction flags                                          
         1      2.3799     78.9664 307.9358577  +6.6321505       654249      1039932      1091229     76.92858     137.5583     249.7568      1.755     5.22     827.3741     54.70393      63114.2       258     1.973     1.435  88.79  28
         2    440.5105     23.3389 307.7556790  +6.6697588     28723.62     35865.85     36345.27     77.79507     155.3438       310.41      1.264     2.40     817.5579     54.70393     4356.373        42     1.178     0.998  64.06   0
         3    690.3085     12.9441 307.6522267  +6.6823686     2202.858     2716.949     2287.979     77.67188      155.097     310.4716      1.268     3.27      815.171     54.70393     375.1675        15     1.105     0.786  76.31   0
         4    939.0604     13.4903 307.5488401  +6.6904047     1208.213     1806.063     1655.189     77.67188     155.3438       310.41      1.552     3.16     813.0125     54.70393     177.6285        11     0.962     0.789  21.75   0
         5      7.0153      9.7541 307.9362583  +6.6608811     476.0758     678.4742      889.511     77.30112     155.0352     302.8523      1.432     4.72     822.3184     54.70393     67.60925         5     1.243     0.507  70.58  16
         6    201.2427      8.8413 307.8555857  +6.6677567     920.2932     1025.001     1366.803     77.54848     155.2204     310.2248      1.153     2.56      821.248     54.70393     154.9524         8     0.795     0.636  50.50   0
         7    256.1495      7.9181 307.8328019  +6.6699727     908.9827     1210.235     1264.809     77.79507     155.2821     308.5534      1.279     2.70     822.1079     54.70393      166.442         6     0.726     0.559 -59.67   0
         8    178.5724      5.8908 307.8651046  +6.6682170     13180.48     16565.49     17047.85     77.91806     154.9734     293.2784      1.291     2.43     821.1833     54.70393     2102.849        29     1.130     0.954  56.67  16
         9    924.2056      3.2510 307.5553541  +6.6941396     4822.849      6690.92     7167.795     77.30112     147.1119     261.9947      1.444     2.77     812.8476     54.70393     784.7076        24     1.216     0.945  72.12  24
        10    522.8358      3.8955 307.7221207  +6.6805303     3703.627     4611.641     4412.069     77.91806     152.4189     270.9783      1.285     2.30     815.7045     54.70393      698.751        21     1.056     0.895  72.49  16
        11    725.0929      2.0351 307.6381364  +6.6880293      2386.64     2647.701     2338.277     75.42004     133.3161     244.8781      1.242     2.78     815.1132     54.70393     419.7639        13     1.010     0.718  54.09  24
        12    461.0604      2.3635 307.7478419  +6.6791042     2461.156     2915.776     3053.208     77.30112     137.4887      249.565      1.198     2.35     816.6188     54.70393     483.1343        13     0.934     0.762  77.91  24
        13    989.3532      1.1412 307.5283518  +6.6971712     781.1622     988.5953     887.0956     64.91123     120.3288     230.3704      0.955     3.35      812.826     54.70393     276.8956         6     1.120     0.314   8.00  24
        14    241.6395   1002.1285 307.8055136  +6.2589976     1564.758     2094.002     1701.445     77.67188     155.2204       310.41      1.351     3.16     845.3954     54.70393      253.203        14     1.030     0.875  -3.44   0
        15    582.7415   1022.9012 307.6631955  +6.2617878     160275.9     204346.9     207997.8      75.5469     134.1752      245.698      1.376     2.95     847.2319     54.70393     23837.14        58     1.356     1.002   9.24  27
        16    584.4935   1016.1202 307.6626943  +6.2646459     79837.28     116672.7     123465.9     77.54848     155.4054       310.41      1.595     2.99     847.0536     54.70393     10755.09        85     1.487     1.319  56.26  19
        17    716.8455   1000.1721 307.6082725  +6.2756310      2806.92     4179.204     4648.737     77.30112     155.2821     310.2557      1.577     3.26      845.982     54.70393     374.1633        25     1.219     1.128 -81.90   0
        18    732.3770    999.2860 307.6018532  +6.2765129     969.5729     1485.206     1473.933     77.79507     155.0352     310.2248      1.687     6.40     845.7971     54.70393     122.2751        11     1.258     0.927  74.31   0
        19    363.5144    997.7682 307.7550579  +6.2648637     2060.361     2700.898     2713.717     77.79507     155.0352     310.2557      1.388     2.89     846.9777     54.70393     310.2036        16     1.112     0.818  69.44   0
        20    701.9860    994.8116 307.6146210  +6.2773506     512.3659     767.2823     1008.553     77.67188     154.9116     310.2865      1.294     4.62     846.0307     54.70393     101.3816         7     1.494     0.405  50.66   0
        21    211.5100    996.1905 307.8182218  +6.2604434     439.3879     526.8935     778.5449     77.54848     154.9116     310.1631      1.208     4.40      844.374     54.70393     90.86261         6     0.957     0.576  23.55   0
        22    516.0079    988.9484 307.6920370  +6.2735857     1085.675     1547.415     1224.245     77.30112     155.0352     310.0087      1.474     4.84     846.8991     54.70393     149.9318        11     1.081     0.787 -60.56   0
        23    750.3443    987.1713 307.5947964  +6.2821119     8081.894      12191.4     12430.94     77.54848     155.2821     310.2557      1.628     3.19     845.0615     54.70393     1073.303        34     1.323     1.155  61.94   0
        24    545.7991    987.8358 307.6797045  +6.2750368     4670.762     6823.911     7019.429     76.92858     155.0352     310.1631      1.542     2.93     846.6743     54.70393     721.6379        23     1.189     0.998  56.79   0
        25    296.0522    986.6127 307.7834413  +6.2672196     16829.89     23990.04      25787.6     77.17714     155.1587     310.0704      1.520     2.92     845.8306     54.70393     2449.502        55     1.594     1.261 -26.97   0
        26    811.4512    986.4622 307.5694472  +6.2844336     1225.299      1757.21     1349.514     77.79507     155.1587     310.3483      1.616     4.10     843.4492     54.70393     154.5529        12     1.090     0.853 -83.86   0
        27    420.5767    987.2137 307.7317185  +6.2711235     1109.844     1591.615     1183.062     77.54848     155.0352     310.2557      1.482     3.71     846.6348     54.70393     163.2783        10     1.135     0.612  81.56   0
        28    267.6825    984.2571 307.7952991  +6.2672456     1104.893     1555.796     1534.323     77.79507     155.2204       310.41      1.418     3.41     845.1727     54.70393     156.4482        10     0.916     0.826   1.75   0
        29    911.7263    980.5786 307.5280063  +6.2901899     8346.742      13889.1     14812.92      77.4249      155.097     310.2865      1.804     3.73     842.5427     54.70393     1001.593        40     1.472     1.287  66.20   0
        30    542.9874    980.0414 307.6811322  +6.2781614     9124.874     12944.16     13917.56     77.17715     155.0352     310.1013      1.480     2.90      846.468     54.70393      1397.78        33     1.245     1.104  65.01   0
        31    885.3462    976.7426 307.5390876  +6.2908989      12129.9     19824.52     21003.97     77.91806     155.2204     310.3483      1.799     3.64     842.8474     54.70393     1429.209        52     1.530     1.373  23.86   0
        32    598.1078    977.3489 307.6583353  +6.2811072     1557.942     2256.309     2275.291     77.67188      155.097     310.5333      1.540     3.55     846.0413     54.70393     217.6461        16     1.161     0.920  83.15   0
        33   1007.0245    976.0366 307.4885866  +6.2952240     4242.176     7393.742     7593.189      77.4249     155.0352     310.1013      1.831     4.05     840.3105     54.70393     472.1168        32     1.506     1.211  46.12   0
        34    529.7831    975.8727 307.6867540  +6.2794431     4453.444      6808.36     7402.991     77.30112     155.1587     310.2557      1.722     3.36      846.467     54.70393     636.7682        35     1.774     1.154  17.19   0
        35    639.1832    974.9993 307.6413585  +6.2834434      1499.01     2319.078     2381.664      77.4249     154.7879     310.0396      1.581     3.60     845.9219     54.70393     203.8376        14     1.161     0.824   9.03   0
        36     64.1910    974.6362 307.8801093  +6.2644201     913.7935     1164.796     1342.005     77.30112     154.9734     310.1322      1.305     4.09     840.5436     54.70393     140.2078         8     0.953     0.725 -59.52   0
        37    482.5372    972.3401 307.7064891  +6.2793287     2421.965     3358.589     3042.952     77.79507     155.1587     310.3791      1.483     3.18     846.8007     54.70393     323.6877        19     1.189     0.927  58.26   0
        38    795.1564    973.2861 307.5766519  +6.2893331     599.6054     787.8113     896.1177     77.79507      155.097     310.3483      1.360     4.08     843.6071     54.70393     82.15234         6     0.757     0.628 -74.94   0
        39    917.0125    964.2865 307.5263532  +6.2970922     42675.46     69541.09      73319.3      77.4249     155.0352     310.2248      1.742     3.51     842.1349     54.70393     5317.813        70     1.534     1.369  64.34   0
        40    518.9022    967.3803 307.6915554  +6.2825873     546.3021     645.9283     795.7073     77.67188      155.097     310.1013      1.371     3.77     846.3427     54.70393     86.78558         6     1.196     0.341  49.66   0
        41    322.5484    965.8536 307.7731347  +6.2766746     635.5675     694.3588     924.0795     77.91806     155.1587     310.3791      1.466     4.76     845.2542     54.70393     88.44977         7     0.986     0.651  64.58   0
        42    224.2894    962.8780 307.8140317  +6.2746242     1928.166     2581.385     2463.573     77.54848      155.467     310.4716      1.431     2.92     843.5594     54.70393     299.6202        13     0.976     0.841 -51.95   0
        43    111.9470    962.0439 307.8607038  +6.2712157     795.0101     1135.302     1250.898     77.79507     155.2204     310.3483      1.642     4.65     840.8395     54.70393     104.9888        11     1.065     0.757 -74.69   0
        44    623.0794    961.0178 307.6485114  +6.2886808     916.8381     1134.512     465.3588      77.4249     154.9116     310.2865      1.270     2.98     845.6358     54.70393      157.924         8     0.863     0.660   2.48   0
        45    815.0057    958.2227 307.5689115  +6.2962116     2418.483     3760.938      3904.87     77.30112     154.9734     310.1939      1.647     3.62     843.2956     54.70393     343.7162        23     1.321     1.066  51.68   0
        46    763.1664    955.9324 307.5905131  +6.2954361     7018.059     10669.94     11656.56     77.67188     155.2821       310.41      1.631     3.12     844.1911     54.70393     1007.937        39     1.431     1.178  76.29   0
        47    549.7927    955.4155 307.6791287  +6.2885557      1077.42      1459.42     1427.053      77.4249     154.9734     310.1939      1.531     4.10      845.717     54.70393     149.8255        11     0.992     0.828 -54.37   0
        48    232.7020    955.3768 307.8107900  +6.2780022     1673.218     2203.114     2172.062     77.91806     154.9734     310.1939      1.447     2.99     843.3917     54.70393     242.7358        14     0.983     0.881   2.86   0
        49    197.0586    955.1907 307.8255954  +6.2768889     1007.204     1288.839     1620.168     77.17714     155.1587     310.0704      1.374     3.63     842.5944     54.70393     179.1214        12     1.185     0.706  77.93   0
        50     57.4677    953.4547 307.8836113  +6.2729406     3036.332     4032.479     4331.579     77.79507     155.1587     310.2865      1.467     2.94     840.0401     54.70393     433.1821        19     1.117     0.934  82.40   0
        51    951.4109    951.0359 307.5125104  +6.3037038     6325.788     10612.52     10896.32     77.30112     155.0352     310.1322      1.796     3.77     840.9681     54.70393     698.1881        36     1.398     1.293  66.33   0
        52    207.3707    947.4073 307.8215746  +6.2804468     810.1491      1075.03     1344.218     77.30112     155.0352     310.1322      1.467     3.24     842.5775     54.70393     147.4208         9     0.987     0.657  88.11   0
        53    633.4648    945.5113 307.6447164  +6.2954286     784.1588     882.5825     781.0125     77.79507     155.4054     310.3483      1.345     4.94     845.3135     54.70393     125.9943         8     0.976     0.709 -51.59   0
        54    925.3759    942.6736 307.5235992  +6.3062934      2039.18     3164.839     3455.967      77.4249     155.0352     310.2865      1.739     4.06     841.5568     54.70393     242.0087        18     1.243     0.963  65.90   0
        55    645.8592    938.7867 307.6397942  +6.2986173     5225.994     7201.877      7094.45     77.17714     155.1587     310.0704      1.439     2.83     845.1519     54.70393        746.4        24     1.142     1.039  78.56   0
        56    784.6533    939.3058 307.5821448  +6.3030147     1388.962     2143.551     2254.082     77.67188     155.1587      310.595      1.592     3.42     843.5926     54.70393     215.4465        14     1.063     0.883  59.89   0
        57    257.9796    939.0739 307.8008405  +6.2855771     4921.691     6743.269     7165.364      77.4249      155.097     310.2865      1.417     2.74     842.9657     54.70393     791.3779        22     1.090     0.995  70.75   0
        58    468.0095    937.1255 307.7136977  +6.2933845     1191.223     1584.716     1328.305      77.4249     154.8498     310.2248      1.407     2.49      845.897     54.70393     232.3995        10     0.886     0.700  86.34   0
        59     26.7687    936.5989 307.8969229  +6.2788732     2401.422      3506.81     3534.512     77.17715     155.0352     310.1322      1.573     2.92     839.3529     54.70393     351.3824        21     1.198     1.046 -38.41   0
        60    877.4280    934.8397 307.5437698  +6.3079378     1030.962     1464.159     1289.595      77.4249     155.0352     310.2248      1.470     4.34     842.3945     54.70393     137.3572        11     1.067     0.768  57.52   0
        61    293.8451    932.6642 307.7861632  +6.2894204     954.2902     1367.533     1637.572     77.79507     155.1587     310.3483      1.414     2.66     843.0084     54.70393     201.7863         9     0.871     0.695  72.86   0
        62   1001.6422    931.0416 307.4923168  +6.3136241     785.5303     1503.732     1979.059     77.54848     155.2204     310.2248      2.242     6.93      838.535     54.70393     87.48669        12     1.305     1.032  42.33   0
        63    949.0372    931.9899 307.5141293  +6.3114892     616.4788     1004.364     753.2517     77.30112     155.0352     310.0396      1.715     5.16     840.5076     54.70393     84.96472         6     1.370     0.549  28.76   0
        64    570.3482    931.4935 307.6713920  +6.2991169     1899.426     2740.096     2404.139     77.67188     155.0352     310.5642      1.527     3.07     845.0377     54.70393     260.4072        17     1.061     0.975  80.87   0
        65    609.7400    927.6180 307.6551647  +6.3020276     1449.812       2033.2     1906.788      77.4249     155.1587     310.1013      1.480     2.89     844.9686     54.70393     255.5197        14     0.982     0.905  13.77   0
        66     59.0199    928.4415 307.8838060  +6.2833199     767.8646     988.1648     1738.335      77.4249     155.0352     310.1631      1.349     2.26     839.5259     54.70393     144.9103         6     0.747     0.495  -4.56   0
        67    289.5427    925.4733 307.7881904  +6.2922459     1592.365     2228.476     2063.843     77.79507     155.2204     310.3174      1.440     2.95      842.655     54.70393     261.1057        15     1.056     0.867  56.19   0
        68    557.5985    923.4933 307.6769532  +6.3019959     785.3552     1071.702     789.0591     77.30112     154.9116     310.0704      1.355     5.20     844.8779     54.70393     117.7862         8     0.966     0.792  60.96   0
        69    756.5322    921.4750 307.5944158  +6.3094431     910.6646     1263.143     1154.419     77.91806     155.3438     310.3483      1.564     4.18     843.8163     54.70393     134.4672        11     0.956     0.903  19.46   0
        70    894.0491    917.9430 307.5374302  +6.3154658     7260.636     10928.58      11315.7     77.79507     155.2204     310.4716      1.587     3.19     841.7441     54.70393     936.4788        33     1.394     1.111  60.90   0
        71    131.6269    919.0074 307.8539756  +6.2896423     520.5813     806.7294     323.4919     77.30112     155.0352     310.1631      1.485     3.90     840.4116     54.70393     87.63116         5     0.905     0.482  87.25   0
        72    429.8423    915.2303 307.7302774  +6.3011533      2399.55     3070.307     2970.291      77.4249     155.1587     310.1939      1.389     2.79     844.3758     54.70393     350.4754        17     0.996     0.952  66.71   0
        73    331.5499    913.7023 307.7711421  +6.2985074     11488.27     15067.69     15588.23     77.67188     155.1587     310.5025      1.395     2.61     843.4995     54.70393     1677.247        31     1.169     1.033  71.56   0
        74    251.6257    912.7194 307.8043612  +6.2962464     8267.266     10857.96     11288.47     77.67188     155.0352     310.3483      1.382     2.59     842.3743     54.70393     1244.681        27     1.137     1.013  82.50   0
        75    579.9934    906.9398 307.6682066  +6.3095759     1209.446     1710.635     1649.991     77.17715      155.097     310.1322      1.405     2.97     844.6006     54.70393     221.7408        10     1.036     0.591  62.45   0
        76    764.4697    906.5615 307.5916167  +6.3158644     798.6627     980.5992      923.886     77.67188     155.2204       310.41      1.496     5.33     843.6671     54.70393     103.3732         9     1.077     0.744 -23.21   0
        77    142.1876    903.0099 307.8501270  +6.2966002     733.7015     1093.664     1484.929     77.54848     155.0352     310.2865      1.568     3.15       840.33     54.70393     112.9935         7     0.813     0.676  33.33   0
