#   1 NUMBER                 Running object number                                     
#   2 X_IMAGE                Object position along x                                    [pixel]
#   3 Y_IMAGE                Object position along y                                    [pixel]
#   4 ALPHA_J2000            Right ascension of barycenter (J2000)                      [deg]
#   5 DELTA_J2000            Declination of barycenter (J2000)                          [deg]
#   6 FLUX_APER              Flux vector within fixed circular aperture(s)              [count]
#   9 FLUXERR_APER           RMS error vector for aperture flux(es)                     [count]
#  12 FLUX_RADIUS            Fraction-of-light radii                                    [pixel]
#  13 FWHM_IMAGE             FWHM assuming a gaussian core                              [pixel]
#  14 BACKGROUND             Background at centroid position                            [count]
#  15 THRESHOLD              Detection threshold above background                       [count]
#  16 FLUX_MAX               Peak flux above background                                 [count]
#  17 ISOAREA_IMAGE          Isophotal area above Analysis threshold                    [pixel**2]
#  18 A_IMAGE                Profile RMS along major axis                               [pixel]
#  19 B_IMAGE                Profile RMS along minor axis                               [pixel]
#  20 THETA_IMAGE            Position angle (CCW/x)                                     [deg]
#  21 FLAGS                  Extraction flags                                          
         1    977.1343     17.2175 307.5283753  +6.6978533     1856.834     2899.842     2737.656     80.30466     161.1874     322.2786      1.681     4.90     884.8333     56.82945      255.217        15     1.319     0.760 -40.89   0
         2    696.3342     13.7306 307.6451824  +6.6899065       7070.8     11177.47     11941.35      80.8178     161.3156     322.4069      1.715     4.37     894.5708     56.82945     911.9838        32     1.582     0.968 -40.91   0
         3    616.5989     12.9598 307.6783428  +6.6875543     3598.351     5992.032     6238.794     80.04687     160.9949     322.1503      1.752     4.50     895.4768     56.82945     473.3645        27     1.523     0.963 -44.97   0
         4    318.8992     12.2759 307.8020732  +6.6778467     775.5555      1313.02     1611.157     80.30466     161.3796     322.3427      1.774     4.33     910.0258     56.82945     146.6602         7     1.220     0.438 -48.80   0
         5    416.8212      9.2597 307.7614846  +6.6823815     6014.846     9651.117      9812.14     80.43326     161.1874     322.3107      1.699     4.40     902.3611     56.82945     773.4421        30     1.510     0.988 -40.37  16
         6    663.7473      7.9161 307.6589196  +6.6912161      875.354     1109.015       793.32      80.8178     161.2515     320.6068      1.499     4.83     894.8058     56.82945     133.4502         9     1.019     0.648 -31.20   0
         7    492.7245      5.7944 307.7300601  +6.6863597     767.3497     1320.913      1221.97     80.43326      160.738     303.8245      1.834     4.86     897.9971     56.82945     108.0927         9     1.171     0.572 -69.35  16
         8    313.3837      4.1465 307.8046394  +6.6810179     12196.76     20089.24     20920.67     80.30466     159.9646     284.4653      1.755     4.34      910.376     56.82945     1521.564        44     1.630     1.113 -45.59  24
         9     17.7417      8.7007 307.9273325  +6.6691856     8032.731     13119.22     14172.29     80.56165     161.2515     322.5351      1.747     4.36     909.2174     56.82945     963.2843        35     1.566     1.049 -47.17  16
        10     86.9199      4.2414 307.8987386  +6.6733581     2355.117     3884.109     4584.075      80.8178      160.545     286.0233      1.814     4.76     910.2452     56.82945     328.1533        20     1.408     0.925 -40.35  16
        11     78.1579      3.2555 307.9024127  +6.6734700     1473.322     2566.466     2976.119     80.68982     153.0307     272.6298      1.843     5.28     909.9808     56.82945     195.4702        17     1.492     0.793 -43.20  24
        12    781.6295      3.0618 307.6100955  +6.6971658     733.8047     991.6407     934.3566     80.56164     151.0595     269.8101      1.404     4.90     892.7342     56.82945      117.497         9     1.126     0.605 -29.70  16
        13    379.4748      2.2849 307.7772388  +6.6840071     2273.102     3194.848     2981.127     80.17587     141.9599     258.1434      1.588     5.24     905.7934     56.82945     278.7417        18     1.410     0.831 -31.00  24
        14    448.8145      1.6528 307.7484463  +6.6865963     482.1614     529.2275      533.956     74.00932     133.0149     247.6408      0.909     2.45     900.3292     56.82945     103.9741         5     0.724     0.440  18.43  24
        15    254.8124   1001.2131 307.7953419  +6.2673637     908.6196     1235.322     273.2852     80.68982     160.9307     322.3427      1.510     5.80     931.8807     56.82945     123.4104        12     1.228     0.772 -42.20   0
        16    186.2068   1023.1653 307.8230865  +6.2559939     458.1133      522.863     954.8997     75.80291     135.4784     250.5863      1.324     3.49     932.1086     56.82945      70.9035         5     1.030     0.342 -45.50  24
        17    898.9832    998.1103 307.5279723  +6.2902198     8065.904     13602.51     14383.67     80.56165     160.9949     322.3107      1.783     4.18     923.1492     56.82945     959.1768        39     1.655     1.113 -39.28   0
        18    530.3808    997.3616 307.6810522  +6.2782001     8045.452     12828.19     14018.16     80.43326     161.0591     322.1503      1.742     4.31     930.1124     56.82945     1036.124        34     1.576     0.979 -40.18   0
        19    872.6104    994.2360 307.5390531  +6.2909390     11605.27     19814.54     21381.74     80.30466     161.0591     322.1824      1.848     4.23     923.5125     56.82945     1375.875        50     1.753     1.173 -34.21   0
        20    585.5003    994.6022 307.6582580  +6.2811859     1302.475     2325.013     1959.348     80.30466     160.9949     322.1183      1.831     5.55     928.2314     56.82945      213.254        14     1.468     0.665 -42.82   0
        21    994.3678    993.5928 307.4885159  +6.2952683     4254.232     7515.844     7603.122     80.30466     161.1233     322.2145      1.885     4.34     920.0886     56.82945     496.6754        34     1.638     1.104 -32.45   0
        22    516.6558    993.1541 307.6868926  +6.2794775     4064.905     6579.507     7639.645      80.8178     161.2515     322.4069      1.825     4.51     930.2646     56.82945     507.4384        29     1.537     1.023 -37.38   0
        23    626.1845    992.6685 307.6414298  +6.2833466     1355.019      2110.45      1954.55     80.30466     161.1874     322.3107      1.624     4.31     927.1661     56.82945     199.2001        17     1.327     0.971 -63.98   0
        24    469.9532    989.7548 307.7063988  +6.2793156     2086.734     3146.534      3134.71      80.8178     161.1874     322.4389      1.573     4.48     930.8135     56.82945      269.296        20     1.473     0.869 -33.58   0
        25     51.4988    992.0545 307.8800662  +6.2643076      757.812     1442.004     1225.634     80.68982     161.2515     322.6312      1.598     4.66      929.512     56.82945     106.2552         8     1.385     0.446 -29.52   0
        26    781.8445    990.7209 307.5768602  +6.2893578     561.6133     979.0869     1405.973      80.8178     161.2515     322.4069      1.717     4.28     924.2556     56.82945     87.11859         7     1.640     0.318 -39.73   0
        27    904.4113    981.7927 307.5262648  +6.2971388     40546.66     68768.98     73076.84     80.43326     161.0591     322.3107      1.842     4.13     922.4114     56.82945     4869.493        75     1.739     1.281 -38.06   0
        28    211.4971    979.8850 307.8140457  +6.2747144     1792.994     2777.344     2528.487      80.8178     161.6356      322.471      1.614     4.62     931.6039     56.82945     237.6799        19     1.430     0.946 -30.98   0
        29    610.6754    978.1495 307.6483574  +6.2888224     917.0595     1193.854     1194.391      80.8178     161.3156     322.4069      1.470     5.37     927.1824     56.82945     151.3405        11     1.319     0.721 -47.56   0
        30     99.7764    978.9188 307.8604652  +6.2713561     701.1771     1113.307     1495.604     80.56164     160.9307     322.3107      1.785     5.14     929.6542     56.82945     105.9751         7     1.125     0.663 -28.38   0
        31    802.4010    975.6302 307.5688304  +6.2962760     2273.949     3579.769     4033.247     80.17587     161.0591     322.2145      1.632     4.32     923.6236     56.82945     310.2042        20     1.433     0.871 -42.11   0
        32    750.5767    973.4169 307.5904242  +6.2954576     6603.975     10786.13     12135.22     80.56165     161.1233     322.3107      1.820     4.33     924.6058     56.82945     807.8161        39     1.669     1.119 -46.20   0
        33    219.8175    972.6829 307.8108339  +6.2779678      1561.99     2468.635     2757.796     80.43326     160.9307     322.3427      1.714     3.80     931.5911     56.82945     245.2528        15     1.224     0.834 -40.61   0
        34    537.4376    973.1785 307.6789349  +6.2884219     755.3417     1008.637     1068.801     80.43326     160.9949     322.1824      1.584     4.27     929.6843     56.82945     121.3052         7     1.101     0.473 -40.13   0
        35    184.3701    971.9838 307.8255756  +6.2770648     750.6791     1294.264     1013.761     80.43326     160.9949     322.3427      1.539     4.98     931.3104     56.82945      110.947         9     1.521     0.461 -42.84   0
        36     44.8344    970.4576 307.8835627  +6.2730004     2643.413     4270.332     4298.166     80.68983     161.2515     322.4069      1.736     5.24     929.5038     56.82945     353.2653        25     1.612     0.895 -37.31   0
        37    938.7678    968.5829 307.5124408  +6.3037402     6283.075     10728.04     10578.75     80.43326     161.0591     322.2786      1.839     4.29     921.1151     56.82945     746.3043        36     1.603     1.124 -35.82   0
        38    195.2953    964.3505 307.8212968  +6.2805839     779.3533     1053.672     960.2381     80.68983     161.1233     322.5671      1.404     5.41      931.282     56.82945     121.9782        10     1.280     0.720 -39.78   0
        39    621.0563    963.0060 307.6445555  +6.2954229     675.8433     1028.058     957.1592     80.30466     161.1233     322.1183      1.867     4.20     926.9159     56.82945     123.4607         6     1.161     0.433 -55.58   0
        40    912.4606    960.4830 307.5236361  +6.3062067     1986.031     3424.434     3976.838     80.94558     161.2515     322.4389      1.875     4.60     921.4093     56.82945     242.2897        24     1.483     1.026 -46.49   0
        41    633.3179    956.1362 307.6396947  +6.2986700     4518.837     7121.271     7131.002     80.94558     161.3156     322.4069      1.668     4.18     926.6517     56.82945      563.304        31     1.565     1.009 -36.25   0
        42    245.5417    956.3168 307.8007047  +6.2855898     4334.768     6816.626     7243.936      80.8178     161.2515      322.471      1.708     4.45     931.4745     56.82945     541.3102        27     1.548     0.978 -41.30   0
        43    771.7535    956.7199 307.5821907  +6.3030600     1283.813      1999.08     2003.993      80.8178     161.2515     322.4069      1.559     4.89     923.8996     56.82945     180.8062        12     1.222     0.671 -42.86   0
        44    455.2317    954.7759 307.7136882  +6.2932649     1067.056     1667.476     1711.397     80.17587     161.1233     322.2145      1.642     5.79     930.0441     56.82945     154.3133        14     1.474     0.689 -47.10   0
        45     14.1103    953.7206 307.8968848  +6.2788764     2114.749     3670.522      4044.38     80.56165     161.5077      322.503      1.881     4.64     929.4615     56.82945     309.9223        23     1.567     0.923 -41.54   0
        46    864.9423    952.5418 307.5436342  +6.3078990      895.981     1442.882     1625.786      80.8178     161.1874     322.4389      1.757     5.27     921.8605     56.82945     113.2275        10     1.282     0.612 -35.46   0
        47    282.0323    949.8868 307.7857698  +6.2894707     699.1209     1300.785     1296.468      80.8178     161.0591     322.4069      1.996     5.47     931.4203     56.82945     108.1483         6     1.205     0.699 -66.99   0
        48    989.2711    949.3340 307.4921134  +6.3133736     618.3176     1240.884     1616.521      80.8178     161.3156     322.4069      2.432     5.89     918.6484     56.82945      118.776         7     1.502     0.651 -68.56   0
        49    936.6358    949.6135 307.5139612  +6.3115018     648.9647     1073.972     1071.616     80.30466     161.0591     322.1824      1.823     5.49     920.4891     56.82945     92.15253         7     1.179     0.721 -55.45   0
        50    557.9039    948.5634 307.6712640  +6.2992714     1829.115      2675.89      2470.37      80.8178     161.1233     322.5351      1.582     4.99     928.8559     56.82945     240.2593        16     1.358     0.806 -41.25   0
        51    596.9716    945.1360 307.6551567  +6.3019951      1069.13      1705.63     1780.363     80.43326     161.2515     322.3427      1.596     6.21      927.397     56.82945     177.1604        14     1.548     0.699 -35.93   0
        52     46.7048    945.7840 307.8836196  +6.2832509     779.2263     1395.952     2237.185     80.56165     161.0591     322.2786      2.542     5.13     929.5065     56.82945     88.67651         9     0.942     0.790   4.38   0
        53     42.0371    944.5236 307.8856002  +6.2836141     479.1888     1074.046     1826.316     80.68982     161.3156     322.4389      1.779     3.95     929.4997     56.82945     78.82983         5     1.325     0.336 -49.48   0
        54    276.9820    942.8183 307.7881050  +6.2922196     1471.913     2387.154     3171.985     80.56165     160.9949     322.3427      1.882     4.33     931.3571     56.82945     199.1064        15     1.355     0.725 -39.40   0
        55    743.9045    938.7833 307.5943566  +6.3095351     938.7217     1575.299      1255.76     80.68982     161.0591     322.2466      1.638     6.43     923.8473     56.82945     136.5237        13     1.485     0.782 -47.47   0
        56    881.4452    935.4904 307.5373526  +6.3154910     6846.367     11009.95     11531.35      80.8178     161.1874     322.5351      1.752     4.35     920.8522     56.82945      846.647        34     1.596     1.039 -43.69   0
        57    417.4070    932.5192 307.7301432  +6.3011862     2026.884     3279.592     3662.856     80.43326     160.8023     322.2466      1.685     4.84     929.8917     56.82945     285.6693        17     1.483     0.718 -32.57   0
        58    318.9659    931.0115 307.7710700  +6.2985047     9108.662     14606.59     15145.97     80.30466     161.0591     322.2145      1.668     4.29     931.1516     56.82945     1292.194        37     1.609     0.983 -41.04   0
        59    239.1096    929.8325 307.8042684  +6.2963090     6798.452     10752.84      11279.3     80.94557     161.0591     322.4069      1.689     4.35     931.2398     56.82945     917.1437        35     1.704     0.952 -35.63   0
        60    751.8245    924.1861 307.5915575  +6.3158274     733.3407     1160.267     1162.694     80.56164     161.0591     322.3427      1.453     4.67     923.4265     56.82945     161.6447         8     1.268     0.489 -63.65   0
        61    566.9212    924.7642 307.6683195  +6.3094004     1114.147     1659.841     1694.907     80.68982     161.3156     322.4069      1.519     6.13     928.2085     56.82945     151.5609        12     1.256     0.841 -30.42   0
        62    897.2066    920.7066 307.5313027  +6.3221218      973.178     1463.658     1199.677     80.43326     160.9307     322.2466      1.629     5.56     920.2075     56.82945     140.0936        14     1.394     0.912 -32.97   0
        63    853.7899    919.2228 307.5493818  +6.3212845     696.5918     1298.844      1238.85     80.43326     160.9949     322.2466      1.716     5.02     921.0403     56.82945     131.1075         9     1.360     0.525 -47.81   0
        64    130.6226    919.2479 307.8496718  +6.2970317     531.3238     510.7576     121.5787     80.43326     161.2515     322.2786      1.260     3.51      929.898     56.82945     86.36218         5     0.794     0.447 -73.35   0
        65    964.5914    916.2098 307.5034707  +6.3262278     649.2007      909.975     1053.196     80.30466     161.0591     322.3107      1.558     3.49     918.3939     56.82945     86.80676         5     0.785     0.448 -71.76   0
        66    733.3131    913.6304 307.5995987  +6.3195669     1580.142     2577.692     2983.377     80.94558     160.9949     322.3107      1.841     4.51     923.4853     56.82945     266.3551        17     1.390     0.892 -45.66   0
        67    597.6027    910.3275 307.6560642  +6.3163890     902.4414     1465.647      585.504     80.30466     160.8023     322.2466      1.642     5.37     926.7652     56.82945     119.2634         9     1.217     0.668 -26.30   0
        68     63.1932    911.9122 307.8779175  +6.2977914     1030.212     1007.183     1229.691     80.30466     160.9307     322.1503      0.548     0.83     929.4766     56.82945     617.6599         5     0.653     0.281   2.80   0
        69    964.8606    909.1135 307.5035965  +6.3291669     1156.766     1964.574      2688.33     80.94557     161.3796      322.503      1.981     5.14     918.1989     56.82945     173.7535        15     1.423     0.768 -50.24   0
        70    518.4211    909.3878 307.6889760  +6.3141244     1175.573     1777.383     1378.192     80.43326     160.9307     322.2786      1.672     5.76      928.701     56.82945     154.5383        13     1.325     0.706 -37.31   0
        71    652.1178    906.8403 307.6335436  +6.3196541      2519.03     3975.773       4249.9      80.8178     161.3156     322.3427      1.633     4.37     925.1223     56.82945       327.84        21     1.356     0.928 -41.37   0
        72    942.3098    904.6316 307.5131113  +6.3302650     688.3906     995.3143     978.7651     80.94558     161.0591     322.4389      1.475     4.43     918.7785     56.82945     107.2358         7     1.012     0.552 -58.35   0
        73     48.6943    903.0761 307.8842362  +6.3009516      2727.27     4438.719     4861.888     80.56165     161.4437     322.4069      1.737     4.88      929.438     56.82945     352.3099        24     1.651     0.871 -44.90   0
        74    812.7850    903.6207 307.5669327  +6.3263569     930.9063     1495.991     1390.892     80.56165     160.9949     322.3107      1.912     4.95     921.9292     56.82945      139.171        11     1.293     0.722 -30.90   0
        75    929.8423    902.4642 307.5183612  +6.3307439     753.9948     1398.861     1340.987      80.8178     161.1874     322.4389      1.959     5.87     919.0364     56.82945     92.86395         9     1.428     0.680 -63.03   0
        76    192.2667    902.0347 307.8246563  +6.3062121      2190.66     3525.592     3281.001     80.68982     161.3156      322.471      1.733     4.49     930.4428     56.82945     304.3196        18     1.478     0.814 -36.79   0
        77     66.0746    902.4302 307.8770414  +6.3018034     1896.026     2859.777      3107.17     80.68982     161.2515     322.4389      1.663     5.84     929.4486     56.82945     245.3162        16     1.377     0.753 -36.55   0
