#   1 NUMBER                 Running object number                                     
#   2 X_IMAGE                Object position along x                                    [pixel]
#   3 Y_IMAGE                Object position along y                                    [pixel]
#   4 ALPHA_J2000            Right ascension of barycenter (J2000)                      [deg]
#   5 DELTA_J2000            Declination of barycenter (J2000)                          [deg]
#   6 FLUX_APER              Flux vector within fixed circular aperture(s)              [count]
#   9 FLUXERR_APER           RMS error vector for aperture flux(es)                     [count]
#  12 FLUX_RADIUS            Fraction-of-light radii                                    [pixel]
#  13 FWHM_IMAGE             FWHM assuming a gaussian core                              [pixel]
#  14 BACKGROUND             Background at centroid position                            [count]
#  15 THRESHOLD              Detection threshold above background                       [count]
#  16 FLUX_MAX               Peak flux above background                                 [count]
#  17 ISOAREA_IMAGE          Isophotal area above Analysis threshold                    [pixel**2]
#  18 A_IMAGE                Profile RMS along major axis                               [pixel]
#  19 B_IMAGE                Profile RMS along minor axis                               [pixel]
#  20 THETA_IMAGE            Position angle (CCW/x)                                     [deg]
#  21 FLAGS                  Extraction flags                                          
         1    696.9648     18.6713 307.6450224  +6.6897960     6916.988     11231.16     12170.26      78.2191      156.314     312.5348      1.763     4.17     827.4328     55.08934      1038.55        35     1.680     0.992  36.16   0
         2    372.2307     15.9555 307.7800653  +6.6800235     628.9078      1013.58     515.2678     77.97039     156.3761     312.4105      2.015     5.51     834.7607     55.08934     94.26752         8     1.522     0.562  48.45   0
         3    417.3214     14.0758 307.7613905  +6.6823141     5892.541     9452.719     9876.836     78.59069     156.5623      312.628      1.708     4.23      829.372     55.08934     759.1297        37     1.705     1.024  38.01   0
         4    664.3945     13.0924 307.6587457  +6.6910079     752.5822     1463.456     927.8177     77.97039      156.003     312.3172      1.872     5.97     827.3823     55.08934     102.6884        10     1.260     0.795  46.61   0
         5    492.4617     10.9711 307.7302689  +6.6861184     779.5579     1405.495     1019.015     78.09484      156.314     312.5037      1.909     6.26     827.4181     55.08934     104.6094        12     1.451     0.759  35.88   0
         6    313.9303      9.0470 307.8045262  +6.6809154     11740.74     19561.23     21171.93     78.34316     156.2518     312.5348      1.777     4.12      837.053     55.08934     1578.795        46     1.754     1.096  33.36  16
         7     87.5063      9.3209 307.8986092  +6.6731803     2214.471     3876.442     4361.181     78.09485     156.5003     312.5969      1.888     4.57     833.8406     55.08934     266.9152        23     1.511     0.993  45.13  16
         8     18.2571     13.6207 307.9272399  +6.6690709     7783.983     13091.19     13716.14     77.97039     156.2518     312.3483      1.791     4.03     833.4968     55.08934     993.6578        38     1.665     1.094  34.70   0
         9     78.7433      8.0329 307.9022942  +6.6734166      1457.79     2552.029     3147.591      78.2191     156.3761     311.2894      2.030     5.02     833.6851     55.08934     166.1224        20     1.518     0.876  29.48  16
        10    781.8217      7.5004 307.6101326  +6.6972476     792.7661     1001.374     305.1206     78.34316     156.0653     308.1853      1.413     3.61     826.9692     55.08934     131.9686         6     0.973     0.616  50.37   0
        11    379.9725      6.8468 307.7771555  +6.6840433     2279.412     3507.681     3019.084     77.97039     156.3761     303.8695      1.653     3.86     833.7645     55.08934     311.4545        21     1.426     0.861  43.49  16
        12    640.8878      2.6751 307.6688654  +6.6945202     10211.71     15619.95        16383     78.34316     142.4675     256.1838      1.685     4.65     826.9284     55.08934     1492.236        33     1.621     0.923  30.42  24
        13    974.6964      3.9319 307.5300946  +6.7051676     703.8986     943.5647     1019.245      78.2191      153.935     273.2431      1.368     5.09     821.7811     55.08934     118.0566         8     1.107     0.668  59.54  16
        14    805.6340      2.2591 307.6004125  +6.7002077     1538.698     2187.884     2479.113     77.34512     137.3306     249.8118      1.593     6.26     826.9199     55.08934     225.2663        16     1.485     0.743  35.60  24
        15    518.0718      2.2855 307.7199187  +6.6905629     1294.471     1990.862     1797.639     77.72089     137.6131     250.2002      1.590     5.12     826.8903     55.08934       181.31        16     1.333     0.863  28.60  24
        16     58.5056      2.3155 307.9108975  +6.6750942     664.7626     1160.095     1078.586     77.47057     138.1062     250.6656      1.860     4.19     833.0338     55.08934     92.33496         6     1.080     0.463  78.87  24
        17    876.3719      1.1116 307.5710528  +6.7030468     669.8456      648.636     195.9536     65.07075     120.3724     231.4067      0.998     3.25     826.5912     55.08934     158.1386         5     0.987     0.312  -2.71  24
        18    241.9163      1.2337 307.8347166  +6.6817181     1532.869     2201.008     2175.051     66.98283     122.6898     233.7035      1.340     4.16     836.1387     55.08934       366.71        12     1.522     0.423   0.69  24
        19     51.3116    996.3301 307.8802633  +6.2645630     811.2697      1360.72     2140.169     78.34316     156.5623     312.5348      2.306     5.65     854.6632     55.08934     113.6077        11     1.403     0.641  17.85   0
        20    944.3774   1023.3351 307.5085173  +6.2833630     3888.732     5185.494     4861.132     72.01337     129.1678     240.3815      1.334     3.95     856.1334     55.08934     642.8716        19     1.358     0.783  10.66  24
        21    720.4099   1021.7753 307.6015727  +6.2765212     918.0718     1553.546     1932.213     77.97039     147.9515     263.6564      1.782     6.29     857.6065     55.08934     135.5182        13     1.221     0.911  71.23  24
        22    704.5468   1022.4437 307.6081374  +6.2757145     2560.594     4153.398     4879.952     78.34316      140.753     254.1667      1.837     4.46     857.5391     55.08934     373.4058        25     1.511     1.068  31.94  24
        23    427.4091   1023.3027 307.7231875  +6.2660729     686.2413     977.0514      905.583     72.14811      129.318     240.8255      1.363     4.27     859.7683     55.08934     115.4769         7     0.953     0.545  34.75  24
        24    228.5742   1023.4462 307.8057445  +6.2593352     742.1215     1084.517     1210.036     70.23837     127.4268     238.5972      1.371     2.45     857.9074     55.08934     154.8621         7     0.774     0.633  13.95  24
        25    904.9529    986.9110 307.5261092  +6.2970818     37177.64     67263.23     73016.72     78.34316     156.1897     312.6901      1.950     4.46      856.062     55.08934     4523.094        78     1.913     1.303  36.48   0
        26    212.3982    985.2629 307.8137496  +6.2745522     1576.656     2583.264     2564.192     77.72089     156.1275     312.2861      1.757     5.60     857.6973     55.08934     193.7744        22     1.711     0.883  30.72   0
        27    751.0786    978.6339 307.5902856  +6.2953552     5805.918     10232.04      11675.1      78.2191      156.314     312.5037      1.968     4.41     857.2413     55.08934     724.9034        43     1.701     1.405  52.01   0
        28    100.0498    983.5694 307.8604573  +6.2714712     610.4825     1039.647     660.3334     77.97039     156.3761     312.4415      1.732     5.14     855.5104     55.08934     114.3472         6     1.066     0.701  76.99   0
        29    802.8889    980.9062 307.5686943  +6.2961499     1890.128     3296.476     3210.217     78.34316     156.7483     312.5969      1.885     5.06      857.226     55.08934        273.1        22     1.607     0.912  35.36   0
        30    717.9487    979.2598 307.6040222  +6.2939885     398.7231     827.5343     981.3843     78.34316     156.2518     312.5348      2.368     3.88     857.2895     55.08934     98.42596         5     1.189     0.362  12.61   0
        31    537.7190    978.1414 307.6789018  +6.2884140     860.1708     1216.344     1021.733     78.34316     156.3761     312.5348      1.415     4.45     859.7075     55.08934     117.8331         9     1.022     0.697  45.49   0
        32    220.6337    977.5020 307.8105918  +6.2780325     1279.975     2146.912     2670.343     78.34316     156.1897      312.659      1.882     4.94     857.7178     55.08934     154.2849        18     1.413     0.880  45.75   0
        33    184.4954    977.2635 307.8256058  +6.2769156     765.0865     1109.852     1585.141      78.2191     156.4382     312.5659      1.694     4.98     857.4331     55.08934     125.2438         8     0.956     0.733  29.42   0
        34     45.3034    975.5336 307.8834610  +6.2729446     2373.971     4433.438     4399.554     78.34316     156.3761     312.5659      1.992     4.33     854.5092     55.08934     328.3193        31     1.596     1.219  40.89   0
        35    939.3638    973.6512 307.5122637  +6.3037044     5796.124     10353.86     11162.88      78.2191      156.314     312.4726      1.943     4.66     854.7944     55.08934     680.1998        43     1.818     1.165  34.32   0
        36    621.5957    968.0571 307.6444104  +6.2953870     779.1492     1369.175     950.8653     77.72089     156.1897      312.255      1.729     5.49     858.7621     55.08934     105.3611        10     1.219     0.699  54.84   0
        37    195.3787    969.3696 307.8213531  +6.2805400     495.2943     842.4129     689.8088     77.84574     156.1275     312.4105      1.394     4.06     857.4069     55.08934     94.29462         5     1.237     0.381  37.78   0
        38    912.9409    965.4119 307.5235126  +6.3062231     1788.282     3041.785     3465.567     77.72089     156.2518      312.255      1.887     4.87     855.1897     55.08934     214.8896        22     1.537     0.956  35.94   0
        39    245.9748    961.3854 307.8006130  +6.2855369     4026.594     6694.198     7186.699     78.09484     156.1275     312.4726      1.781     4.36     858.0823     55.08934     516.5701        33     1.709     1.028  34.33   0
        40    772.3250    961.3861 307.5820415  +6.3031854     1105.764     1960.238     1746.029     77.84574     156.0653     312.3483      1.779     6.56     857.0354     55.08934     160.1807        15     1.533     1.195  33.89   0
        41    633.6512    961.2073 307.6396344  +6.2986182      4121.69     6786.086     7050.805     77.84574     156.1275     312.1617      1.770     4.08     858.3095     55.08934     547.7217        32     1.662     0.999  37.88   0
        42    983.2086    960.4989 307.4944966  +6.3105971     641.0076     1078.372      1777.11     78.09485     155.9408     312.3483      1.643     4.11     853.1559     55.08934     110.9238         7     0.994     0.486   7.88   0
        43    455.3918    959.3041 307.7137226  +6.2934288       1135.6     1537.666     1242.035     78.09485     155.9408     312.3172      1.458     3.36       859.48     55.08934      181.177        10     1.057     0.645  54.40   0
        44     14.7583    958.6736 307.8967141  +6.2788748     2012.799     3627.881     3846.072      78.2191     156.3761     312.5659      1.962     6.05     854.0745     55.08934     230.8433        26     1.852     1.033  33.65   0
        45    865.6077    957.6111 307.5434304  +6.3078619     903.6747     1560.859     1100.416     77.97039     156.1275     312.4726      1.642     5.73     856.1588     55.08934     119.5673        11     1.510     0.612  43.49   0
        46    281.9213    954.8397 307.7859071  +6.2894470     827.2016     1522.874     2749.962      78.2191      156.314     312.5348      3.022     6.18     858.5796     55.08934     108.5826        12     1.156     1.030  73.79   0
        47    558.3262    953.7590 307.6711646  +6.2991692     1467.169     2503.101     2408.516      78.2191     156.3761     312.5659      1.809     5.11     859.2464     55.08934     221.9571        19     1.422     0.953  43.54   0
        48    989.6042    953.5561 307.4920732  +6.3136764     754.5019     1500.052      1752.89     77.72089     155.9408     312.2239      1.876     5.06     852.8292     55.08934     113.9357         8     1.377     0.525  41.66   0
        49    597.6694    950.2609 307.6549443  +6.3019315     1086.412     2018.884     1950.867     78.46703      156.314     312.5659      1.952     5.97     858.7045     55.08934     153.1755        14     1.512     0.725  34.17   0
        50     47.2097    950.7595 307.8835069  +6.2832346     728.7345      1393.51     1639.526     77.72089     156.1275      312.255      2.663     5.26     854.4827     55.08934     98.00458         9     1.288     0.607  32.32   0
        51    277.2214    947.7172 307.7880989  +6.2922290     1475.712      2580.07     3105.329     78.09484      156.003     312.4415      2.049     5.09     858.4026     55.08934     191.7072        16     1.518     0.726  36.00   0
        52    545.1759    946.1777 307.6768804  +6.3018578     654.0754     981.0905     1072.274     77.84573     156.1275     312.5037      1.559     3.94     859.2899     55.08934     103.2797         6     0.802     0.554  45.99   0
        53    744.9523    943.7311 307.5940013  +6.3095575     764.3959     1538.437     1873.079     78.34315     156.2518     312.5348      2.134     7.84     856.8845     55.08934     112.5861        16     1.725     0.996  34.84   0
        54    881.8777    940.4974 307.5372475  +6.3154698     6263.004     10938.56     10986.16     77.97039     156.5003     312.5659      1.856     4.33     855.2397     55.08934     764.4917        40     1.756     1.122  35.19   0
        55    417.7292    937.4651 307.7300977  +6.3011796     1920.079     3172.938     2904.702     78.34316     156.3761     312.5348      1.811     4.72     859.0004     55.08934     247.6743        22     1.535     0.969  41.53   0
        56    319.4361    935.9486 307.7709660  +6.2985051     8972.626     14742.05      15688.9      78.2191      156.314     312.4726      1.786     4.05     858.7632     55.08934     1106.925        44     1.684     1.129  35.03   0
        57    239.5536    934.9095 307.8041726  +6.2962494     6453.734     10404.73     11590.26     78.34315     156.2518      312.659      1.773     3.78     857.8619     55.08934     818.6848        37     1.621     1.059  39.69   0
        58    567.1622    929.0873 307.6683250  +6.3096492     940.5587     1446.151     1385.294     78.34315     156.2518     312.5348      1.558     4.07     858.6904     55.08934      166.493        11     1.195     0.706  50.77   0
        59    129.5852    924.9961 307.8501717  +6.2966423     454.2157     793.3288     838.2906     77.97039     155.9408     312.3794      1.677     4.74     855.3549     55.08934     81.40283         7     1.297     0.492 -88.67   0
        60    201.2522    925.0258 307.8204109  +6.2990412     470.3413      668.769     802.1012     77.97039     156.4382     312.4415      1.436     3.70     856.9669     55.08934     78.25903         5     0.809     0.491  32.54   0
        61    854.4494    924.2309 307.5491835  +6.3212679     623.1553     1086.748     834.9484     77.97039     156.3761     312.4415      1.791     4.96     855.5175     55.08934      86.1416         7     1.017     0.684  33.24   0
        62    395.7681    923.1232 307.7397005  +6.3063624     537.9077     804.8412     944.0587      78.2191      156.314     312.4726      1.697     4.39     858.9137     55.08934     88.32587         6     1.071     0.546  64.88   0
        63    964.9503    921.4019 307.5033885  +6.3261263     586.6225     871.7955     1207.651     77.72089     155.9408     312.1306      1.455     4.74     852.5215     55.08934     83.52368         7     1.134     0.561  30.05   0
        64    733.9849    918.5248 307.5994021  +6.3195952     1386.776     2377.986     2947.036     77.84573     156.0653     312.4105      1.796     4.90     856.5735     55.08934     202.0589        15     1.468     0.659  36.84   0
        65    897.9428    925.9760 307.5310628  +6.3220007     716.3519     1041.242     1273.954     77.97039      156.314     312.3483      1.385     5.19     854.4094     55.08934     127.0416         9     1.307     0.582  40.10   0
        66    810.2546    917.1212 307.5677755  +6.3227255     428.5859     697.3203     842.5938     78.46702      156.314     312.5659      1.696     4.65     856.2122     55.08934     69.09399         7     1.813     0.339  25.36   0
        67    965.1889    914.0748 307.5035349  +6.3291588      956.761     1821.721      1869.19     77.97039     155.9408     312.3483      1.998     6.28     852.2632     55.08934     117.0891        16     1.560     0.811  47.93   0
        68    597.9894    915.3464 307.6559853  +6.3163541     823.1983      1071.14     1178.121     77.72089     156.2518      312.255      1.596     6.34      857.853     55.08934      114.693        12     1.542     0.733  38.20   0
        69    609.1962    914.7939 307.6513499  +6.3169576     661.2089     1026.176     1303.832     77.72089      156.003     312.4415      1.810     5.19     857.6496     55.08934     91.58356         9     1.026     0.743  44.31   0
        70    518.8480    914.4599 307.6888807  +6.3140675     1120.393     1597.471     1762.256     78.34316      156.314     312.5969      1.678     4.87      858.905     55.08934     164.7608         9     1.329     0.505  38.03   0
        71    652.5325    911.9694 307.6334481  +6.3195749     2224.984      3505.82      3842.31     78.09484      156.314     312.5037      1.689     4.54     857.0998     55.08934      294.226        22     1.568     0.887  37.74   0
        72    813.8929    908.6275 307.5665496  +6.3263531     760.0428     1145.808     1361.637     78.46702     156.0653     312.4105      1.611     4.62      855.968     55.08934     128.3496         8     1.231     0.635  48.21   0
        73    192.6849    906.8780 307.8245811  +6.3062438     2084.073     3476.432      3724.63     78.34315     156.6243      312.628      1.802     4.27     856.4609     55.08934      268.109        25     1.498     1.061  44.17   0
        74     49.2474    908.0301 307.8841051  +6.3009403     2673.464     4726.611       4704.3     77.97039     156.3761     312.4415      1.829     4.20     854.0801     55.08934     357.1235        27     1.552     1.046  31.18   0
        75    930.3959    907.4473 307.5182063  +6.3307329     588.4576      940.012     404.0237     77.72089     156.0653     312.2239      1.822     4.53     852.9955     55.08934     87.34186         7     1.130     0.517  43.32   0
        76     66.6635    907.2376 307.8768999  +6.3018540     1948.655     3095.545     3611.014     78.34316      156.314     312.5659      1.709     4.42     854.3399     55.08934     229.7165        21     1.418     0.931  42.78   0
        77    226.2750    903.6449 307.8107416  +6.3087080     797.4449     1504.824     1946.457      78.2191     156.3761     312.5659      2.062     5.00     857.3454     55.08934     104.2474         9     1.147     0.618  34.72   0
