#   1 NUMBER                 Running object number                                     
#   2 X_IMAGE                Object position along x                                    [pixel]
#   3 Y_IMAGE                Object position along y                                    [pixel]
#   4 ALPHA_J2000            Right ascension of barycenter (J2000)                      [deg]
#   5 DELTA_J2000            Declination of barycenter (J2000)                          [deg]
#   6 FLUX_APER              Flux vector within fixed circular aperture(s)              [count]
#   9 FLUXERR_APER           RMS error vector for aperture flux(es)                     [count]
#  12 FLUX_RADIUS            Fraction-of-light radii                                    [pixel]
#  13 FWHM_IMAGE             FWHM assuming a gaussian core                              [pixel]
#  14 BACKGROUND             Background at centroid position                            [count]
#  15 THRESHOLD              Detection threshold above background                       [count]
#  16 FLUX_MAX               Peak flux above background                                 [count]
#  17 ISOAREA_IMAGE          Isophotal area above Analysis threshold                    [pixel**2]
#  18 A_IMAGE                Profile RMS along major axis                               [pixel]
#  19 B_IMAGE                Profile RMS along minor axis                               [pixel]
#  20 THETA_IMAGE            Position angle (CCW/x)                                     [deg]
#  21 FLAGS                  Extraction flags                                          
         1    172.9963     16.1795 307.8648554  +6.6682910     11112.92     16927.91     17119.62     77.66525     155.3925     311.0949      1.558     4.23     835.3758     54.87374     1632.806        35     1.574     0.881 -39.54   0
         2    918.6024     13.6469 307.5550856  +6.6942345     3883.716     5898.893     6261.486     77.41672     155.3925       310.94      1.619     4.40     824.9575     54.87374     598.7904        24     1.539     0.784 -42.47   0
         3    517.1986     14.1821 307.7218845  +6.6806336     3005.177     4447.402     4795.337     77.66525     155.2684      311.033      1.523     4.18     824.8743     54.87374     444.6027        20     1.463     0.751 -40.09   0
         4    455.4146     12.5342 307.7476153  +6.6792497     2018.125     3096.505      3606.09     77.54108     155.5784     311.2497      1.674     4.62     827.2737     54.87374     321.9771        19     1.521     0.750 -37.35   0
         5    719.4377     12.4477 307.6378960  +6.6880980     1959.813     2670.386     2700.671     77.91299     155.7022     311.2188      1.524     4.45     823.8796     54.87374     289.4881        14     1.302     0.651 -40.51   0
         6    983.3543     10.0886 307.5282935  +6.6978569     1900.588     2781.816      2669.09     78.03655     155.5784     311.3426      1.541     4.10     820.4993     54.87374     279.5923        18     1.415     0.797 -47.84   0
         7    702.8024      6.5093 307.6450075  +6.6899956     7588.517      11389.7     11550.41     77.41672     155.3925     299.7051      1.589     4.38     823.7295     54.87374     1146.479        31     1.550     0.870 -42.61  16
         8    622.9365      5.7669 307.6782232  +6.6876385     3928.933     5688.729      5669.42     77.91298     155.7641     293.0402      1.521     4.22     823.5839     54.87374      574.881        19     1.405     0.736 -38.98  16
         9    324.7208      5.7423 307.8021547  +6.6776828     1009.048     1594.756     1806.369     78.03655     155.7022     292.7441      1.646     5.96     835.3818     54.87374     135.2962        14     1.455     0.686 -42.62  16
        10    378.7975      3.7531 307.7797488  +6.6803136     784.0348     1219.133     1214.608     77.41672     151.6264      269.577      1.531     5.90     832.6927     54.87374     128.8743        11     1.576     0.622 -49.46  24
        11    423.1023      2.2049 307.7613888  +6.6824346      6517.11     8711.745     9127.515     76.79187     135.8743     247.8641      1.422     4.47     829.5528     54.87374     996.5107        21     1.407     0.733 -32.03  24
        12     23.9706      2.0603 307.9272566  +6.6691213      8252.87     11166.06     10915.04     75.52668     134.1615     245.7952      1.443     4.60      836.492     54.87374     1184.525        24     1.422     0.798 -26.01  24
        13    669.2355      1.3820 307.6591285  +6.6909936     653.3584     847.3887     1233.294     68.00803     124.2427     234.8493      1.389     4.41     823.4661     54.87374     149.6321         7     1.152     0.479  -4.37  24
        14    805.9320    996.8204 307.5691748  +6.2844965     1140.467     1983.846      1809.16     77.66525     155.6404     311.2188      1.818     6.52     852.7394     54.87374     147.3291        16     1.660     0.718 -31.17   0
        15    711.8456   1022.5463 307.6073881  +6.2707404      6467.63     9861.207      10160.8     78.03655     139.1674     251.8364      1.668     4.35     856.5791     54.87374     795.7579        29     1.550     0.988 -24.97  24
        16    704.2222   1022.3288 307.6105609  +6.2705763     1079.188     1821.531     2080.648     77.66525       141.57     254.9167      1.832     6.57     856.5252     54.87374     129.2344        14     1.460     0.830 -43.14  24
        17    579.6843   1023.7047 307.6622285  +6.2658565     9452.723     11601.16     13297.37     67.43891     123.4647     233.7389      1.071     2.49     857.2676     54.87374      3108.01        26     1.478     0.608   2.52  24
        18    567.8881   1021.9227 307.6671862  +6.2661989     3846.938     6377.939     7093.006     78.03655     146.2568     260.8945      1.813     4.19     857.2024     54.87374     460.9825        29     1.542     1.021 -35.92  24
        19    426.7986   1022.6325 307.7257479  +6.2611957     3596.072     5474.958     6146.335     76.91725     137.7057     250.2628      1.664     4.85      857.191     54.87374     485.3653        24     1.611     0.853 -31.87  24
        20    414.2815    997.0651 307.7317993  +6.2713350      853.961      1385.14     1707.421     78.28312     155.8878     311.3116      1.762     5.44     856.8868     54.87374      134.555        10     1.294     0.646 -38.06   0
        21    261.6174    994.3057 307.7952832  +6.2673700      898.849     1285.567     1323.086     77.91298     155.5165     311.1878      1.579     5.77     856.7454     54.87374     141.4036        13     1.565     0.599 -37.65   0
        22    905.9597    990.8986 307.5278341  +6.2902694     7401.326     13721.74     14546.25     78.03655     155.5784     311.5282      1.970     4.40     851.6624     54.87374     839.3862        45     1.779     1.264 -41.48   0
        23    537.1793    990.3212 307.6809919  +6.2782235     7848.448     12625.34     13616.37     77.66525     155.3925     311.3116      1.712     4.24     856.7808     54.87374     949.4439        36     1.665     0.986 -40.74   0
        24    879.4890    987.0405 307.5389547  +6.2909823     10504.73     19234.05      20766.5     78.03655     155.6404     311.3426      1.957     4.65     851.7178     54.87374     1206.168        50     1.797     1.254 -40.76   0
        25   1001.3240    986.4214 307.4883812  +6.2952876       4008.1     7741.424     8133.893     77.66525     155.5165     311.2497      2.042     4.71     847.9722     54.87374     458.9722        40     1.754     1.315 -42.27   0
        26    592.5040    987.1979 307.6581224  +6.2813589     1436.849     2283.818     2349.593     77.54108     155.3925      311.002      1.780     4.75     856.5267     54.87374     172.0535        16     1.227     0.872 -55.40   0
        27    523.6417    986.2230 307.6867501  +6.2794640     3973.135     6592.257     7088.833     77.66525     155.5165     311.0949      1.792     4.26     856.7904     54.87374     514.6012        31     1.614     1.049 -27.53   0
        28    633.4578    985.2498 307.6411811  +6.2835291     1408.879     2562.022     2616.489     78.03655     155.7022     311.3426      1.925     4.70     856.1581     54.87374     178.5134        20     1.456     0.896 -37.20   0
        29     58.3026    984.8267 307.8800224  +6.2644741     815.4359     1086.443     767.6332     78.15993     155.4545     311.2497      1.500     4.33     852.6305     54.87374     128.3231         8     1.040     0.593 -30.75   0
        30    789.2829    983.8101 307.5765213  +6.2893147      606.688     957.5524     699.8392     77.66525     155.4545     311.1568      1.571     4.15     853.2917     54.87374     88.17493         6     0.757     0.649  34.43   0
        31    476.4865    982.6699 307.7064498  +6.2793570     2083.482     3386.585      3596.05     78.15993     155.9496     311.3426      1.742     4.28     856.9316     54.87374     318.6679        24     1.629     0.914 -35.16   0
        32    911.2696    974.5902 307.5261710  +6.2971803     37658.94     68017.36     73675.02     77.54108     155.5165     311.1568      1.939     4.37      851.504     54.87374     4460.208        80     1.855     1.346 -42.67   0
        33    317.0260    975.3569 307.7729092  +6.2770480     396.6207     562.3065     370.6097     77.66525     155.7022     311.2188      1.169     3.86     856.4997     54.87374     74.58875         5     1.338     0.320 -50.54   0
        34    218.4758    973.1362 307.8139054  +6.2746674     1708.032     2971.106     2652.424     78.28312     155.7022     311.2807      1.748     4.88     855.3649     54.87374      211.379        20     1.535     0.864 -33.93   0
        35    106.6502    972.2159 307.8603699  +6.2713020      681.485     983.1629     772.1995     77.54108     155.7641      311.033      1.641     4.87     852.8062     54.87374     94.36621         7     1.078     0.624 -59.79   0
        36    617.5334    970.9453 307.6482706  +6.2889049     680.0057     984.2641     787.0622     78.03655     155.6404     311.3116      1.544     4.26     855.9979     54.87374      112.094         7     0.968     0.590 -31.89   0
        37    809.1757    968.2861 307.5687771  +6.2963874     2064.465     3521.294     3642.321     78.03655     155.5165     311.1568      1.784     5.06     852.6898     54.87374      235.243        22     1.499     1.005 -48.31   0
        38    757.3571    966.2630 307.5903630  +6.2954977     6134.256     10448.72     11121.75     78.03655     155.6404     311.3426      1.836     4.32     854.1196     54.87374     784.4468        37     1.691     1.097 -39.89   0
        39    544.1929    965.9061 307.6788939  +6.2885393     801.2765      1278.59     1187.578     77.66525     155.3925     311.1259      1.595     5.24     856.4492     54.87374     140.4319         8     1.332     0.597 -43.85   0
        40    226.8303    965.4208 307.8106945  +6.2781330     1521.632     2409.048     2222.059     77.54108     155.5165     311.1878      1.671     4.20     855.2037     54.87374     209.3253        20     1.532     0.858 -44.24   0
        41    191.2705    964.9266 307.8254768  +6.2771465      753.869     1232.622     1026.699     78.15993      155.826     311.3116      1.650     5.75     854.1949     54.87374     112.7953         9     1.471     0.633 -27.53   0
        42     51.6989    963.5073 307.8834791  +6.2730559     2628.085     4518.731     4248.113     78.03655     156.2582     311.2497      1.790     4.53     851.8948     54.87374     366.0312        25     1.600     0.945 -38.87   0
        43    945.6218    961.2552 307.5123486  +6.3038289     5759.063     10685.44     11237.09     77.54108     155.7022     311.1259      1.957     4.36     850.4662     54.87374      712.877        43     1.714     1.270 -46.25   0
        44    201.4816    957.9906 307.8214690  +6.2803525     606.6385     788.4141     268.7326     77.66525     155.3305     311.1568      1.466     4.77     854.2474     54.87374     95.66406         7     0.968     0.666 -30.91   0
        45    919.2221    953.2043 307.5235793  +6.3062758     1698.005     3178.249     3111.503     77.66525     155.4545     311.0949      1.854     5.22     851.2232     54.87374     236.0073        24     1.672     1.033 -44.26   0
        46    627.7607    955.9588 307.6445231  +6.2954344     708.9022     953.0274      1333.25     77.78921     155.7641     311.1878      1.877     3.90     855.5648     54.87374     100.6202         8     0.965     0.606 -26.91   0
        47    640.0783    949.0049 307.6396398  +6.2987165     4456.643     7336.995     7513.164     77.66525     155.2064     311.0949      1.680     4.32     855.3105     54.87374     563.0742        30     1.631     0.953 -40.21   0
        48    252.1999    949.3162 307.8006988  +6.2856321     4219.257     6587.585     6550.293     77.29215     155.2064      310.971      1.641     4.36     854.6335     54.87374     552.5444        29     1.599     0.934 -34.97   0
        49    778.9313    949.3961 307.5819653  +6.3031810     1188.375     2032.848     2266.146     77.41672     155.3305     311.0949      1.814     4.13     853.2703     54.87374     177.9459        16     1.308     0.833 -46.32   0
        50    989.6272    949.1462 307.4944764  +6.3102915     514.3163     1035.327     838.8317     77.78922      155.826     311.2188      1.866     3.41     848.4955     54.87374     77.57721         5     0.766     0.439 -71.12   0
        51    462.2907    947.4971 307.7135188  +6.2934068     1062.244      1542.75      1185.28     78.03655     156.1348     311.3116      1.662     5.34     856.4825     54.87374     137.4213        12     1.093     0.760 -46.43   0
        52     20.9316    946.7880 307.8968151  +6.2789277     1940.929     3300.764     3497.538     77.54108     155.5165     311.2188      1.717     5.00     850.9382     54.87374     262.7493        23     1.635     0.854 -33.48   0
        53    871.6136    945.4657 307.5436073  +6.3078882     859.9985     1532.241     1660.117     77.54108     155.5165     311.2497      1.972     6.69     851.6823     54.87374     107.7147        14     1.481     0.847 -47.72   0
        54    287.6846    943.4310 307.7861607  +6.2892495     786.9645     1430.637     1475.416     78.03656     155.5165     311.1878      1.632     5.28     854.7919     54.87374      107.722        10     1.436     0.548 -38.07   0
        55    943.6500    942.4146 307.5137935  +6.3115434     609.6444     1256.483     867.6512     77.41672     155.7022      311.033      2.040     5.63     850.3707     54.87374     90.32703         7     1.360     0.657  27.11   0
        56    995.6620    941.1089 307.4922372  +6.3138109     755.1529     1520.956     1846.361     78.03655      155.826     311.4045      2.201     6.68     848.2469     54.87374     106.3015        12     1.337     0.936  75.88   2
        57    564.8069    941.5825 307.6711450  +6.2992711     1669.375     2570.925     2384.887     77.66525     155.4545     311.1568      1.678     5.54     855.9089     54.87374     216.9928        19     1.499     0.852 -23.84   0
        58     53.3826    938.6820 307.8836121  +6.2833631     746.3936     1169.662     1998.275     77.66525     155.3925     311.2497      2.696     5.45     851.1177     54.87374     104.6672        10     1.200     0.845 -17.61   2
        59    603.9279    937.9714 307.6550197  +6.3020672     1261.521     2080.476     1924.507     77.91298     155.7022     311.2807      1.521     4.52      855.364     54.87374     164.6326        14     1.261     0.750 -37.63   0
        60    283.7656    935.7244 307.7880458  +6.2923006     1587.543     2744.507     3687.201     77.91298     155.7022     311.2807      1.796     4.87     854.4667     54.87374     231.9293        22     1.596     0.860 -41.93   0
        61    552.3496    933.9389 307.6765731  +6.3020118     510.9685     803.7687    -11.45535     78.03655     155.6404     311.3735      1.450     3.87     855.9496     54.87374     100.2622         6     1.361     0.316 -47.34   0
        62    751.0140    931.5451 307.5941528  +6.3096228     861.7806     1496.899     1310.154     77.41672     155.6404      311.033      1.692     5.36     853.3852     54.87374     110.4662        11     1.383     0.752 -17.93   0
        63    888.2982    928.1692 307.5372536  +6.3155856     6248.168     10945.11     11069.86     78.03655     155.4545     311.3735      1.861     4.35     851.4133     54.87374     753.7001        40     1.696     1.176 -42.22   0
        64    126.9434    930.0598 307.8533557  +6.2893891     606.8245     898.2062     910.2075     78.15993     155.7022     311.3426      1.448     5.16     852.2804     54.87374     99.60522         7     1.091     0.690 -65.88   0
        65    325.7597    923.9665 307.7710007  +6.2985605     9522.298     14861.24     15714.73     77.78921     155.6404     311.1568      1.654     4.25     854.7231     54.87374     1292.991        37     1.605     0.981 -38.43   0
        66    245.8809    922.9134 307.8042062  +6.2963229     7182.266     11237.99     11652.44     77.78922     155.9496     311.4354      1.649     4.17     853.5646     54.87374     964.2762        33     1.597     0.934 -38.44   0
        67    758.5626    916.6543 307.5915137  +6.3160231     726.5565     1426.273      1404.17     77.91299     155.7022     311.3426      2.118     5.00     853.1786     54.87374     110.6666         8     1.233     0.665 -61.01   0
        68    573.9051    917.1678 307.6681811  +6.3096563     1101.058     1681.033      1468.64     78.15993     155.5784     311.3735      1.679     5.87     855.2883     54.87374     179.1757        15     1.513     0.722 -29.28   0
        69    904.2495    913.1854 307.5311274  +6.3223034     859.4131     1376.434     1414.514     77.41672     155.6404      311.033      1.779     4.62     851.0215     54.87374     147.4708         8     1.088     0.558 -35.49   0
        70    208.0055    912.7896 307.8202729  +6.2992354     542.2543     784.6455     800.6592     77.54108     155.4545     311.2188      1.474     3.68     853.1147     54.87374     89.99286         6     0.897     0.476 -36.36   0
        71    424.1186    925.6372 307.7301002  +6.3011583     2185.546     3482.778     3350.311     78.03655     155.7641     311.2807      1.643     4.81     855.9039     54.87374     320.2341        18     1.471     0.758 -35.79   0
        72    402.5043    911.9180 307.7395342  +6.3061012     622.6578     771.3395     1189.511     77.78921     156.0114     311.4354      1.541     4.78     855.1376     54.87374     109.2027         6     1.145     0.566 -25.98   0
        73    860.7396    911.2734 307.5492601  +6.3216459     629.2366      922.706     720.8049     78.15993     155.7022     311.3426      1.707     4.58     851.6459     54.87374     92.19977         7     1.161     0.513 -36.54   0
        74    740.4188    906.2861 307.5993938  +6.3197003     1602.013     2348.839      2684.54     77.66525     155.4545     311.2188      1.580     4.52     853.2717     54.87374     224.3374        16     1.390     0.756 -43.26   0
        75    604.2269    903.5065 307.6560447  +6.3163090     723.4242     1240.585     1107.436     78.15993     155.4545     311.1568      1.839     6.66     854.8217     54.87374     130.5511        10     1.805     0.690 -63.59   0
        76    972.1033    901.8632 307.5033244  +6.3292343      1092.12     2000.639     2615.793     77.91298      155.826     311.3735      1.967     5.29     848.6512     54.87374      168.338        18     1.349     1.122 -52.63   0
        77    616.4973    902.5894 307.6509796  +6.3170969     610.1211       885.81     739.5837     77.78922     155.3305     311.1568      1.825     5.39     854.7101     54.87374     107.0638         8     1.296     0.633 -51.96   0
