#   1 NUMBER                 Running object number                                     
#   2 X_IMAGE                Object position along x                                    [pixel]
#   3 Y_IMAGE                Object position along y                                    [pixel]
#   4 ALPHA_J2000            Right ascension of barycenter (J2000)                      [deg]
#   5 DELTA_J2000            Declination of barycenter (J2000)                          [deg]
#   6 FLUX_APER              Flux vector within fixed circular aperture(s)              [count]
#   9 FLUXERR_APER           RMS error vector for aperture flux(es)                     [count]
#  12 FLUX_RADIUS            Fraction-of-light radii                                    [pixel]
#  13 FWHM_IMAGE             FWHM assuming a gaussian core                              [pixel]
#  14 BACKGROUND             Background at centroid position                            [count]
#  15 THRESHOLD              Detection threshold above background                       [count]
#  16 FLUX_MAX               Peak flux above background                                 [count]
#  17 ISOAREA_IMAGE          Isophotal area above Analysis threshold                    [pixel**2]
#  18 A_IMAGE                Profile RMS along major axis                               [pixel]
#  19 B_IMAGE                Profile RMS along minor axis                               [pixel]
#  20 THETA_IMAGE            Position angle (CCW/x)                                     [deg]
#  21 FLAGS                  Extraction flags                                          
         1    622.4906     25.8704 307.6807127  +6.6763400     3094.168     5423.504     6698.387     77.93045     155.9227     311.3814      2.046     6.03      816.085     54.88604      556.817        29     2.285     0.819  62.18   0
         2    939.5400     16.7429 307.5493462  +6.6906638     953.9845     1701.008     1673.965     78.17746     155.6752     311.4124      1.866     6.96     814.3624     54.88604     131.0596        15     1.655     0.819  51.73   0
         3    691.3165     16.7391 307.6524361  +6.6824048     1832.936     2878.077     3677.253     78.17746      155.799     311.4124      1.731     4.76     815.5746     54.88604     286.4695        19     1.515     0.764  41.48   0
         4    256.6155     11.4674 307.8331424  +6.6700636     830.4051     1268.578     1554.133     77.55846     155.6133     311.2885      1.692     5.43     823.8672     54.88604     119.4045        10     1.208     0.688  44.41   0
         5    179.4230      9.4914 307.8652656  +6.6682946     10622.98     16727.62     17330.21     78.05405     155.5513     311.2266      1.748     5.12     822.7303     54.88604     1649.319        39     1.732     0.904  42.11  16
         6    523.6589      7.5125 307.7223749  +6.6806231      2947.02     4519.217     4823.411     78.05405      155.799     307.4246      1.682     5.62     816.9804     54.88604     435.0197        23     1.618     0.781  46.29  16
         7    924.9708      6.9380 307.5557257  +6.6942283      3774.88     6279.072     6323.431     77.80666     155.7372     303.3525      1.716     5.18      814.345     54.88604     647.1374        28     1.665     0.898  43.08  16
         8    461.8792      6.0042 307.7480827  +6.6791830     1729.646     2879.854      2805.24     77.68266     155.2412     295.3991      1.704     5.11     819.8766     54.88604     254.8231        18     1.650     0.750  41.25  16
         9    725.7680      5.6082 307.6385020  +6.6881489      1856.79     2869.803      2933.68     77.55846     155.5513     291.4568      1.654     5.36     814.6619     54.88604     290.7774        16     1.516     0.680  39.98  16
        10     80.4526      5.9583 307.9064848  +6.6664362     471.5443     659.5419     270.0474     78.05405      155.799     294.9745      1.592     4.03     824.3573     54.88604     123.9891         5     1.410     0.329  39.54  16
        11    989.9443      3.2933 307.5288631  +6.6978923     1844.154     3356.158     3862.476     77.93045     148.1232     263.9283      1.946     5.16     811.5474     54.88604     237.4884        23     1.485     1.075  61.85  24
        12    783.6906      2.0059 307.6145670  +6.6915652     509.5967     718.8453     421.3569     75.15982     133.3268     244.9861      1.414     5.01      814.177     54.88604      85.0061         5     1.256     0.566  39.62  24
        13    710.1248      1.2964 307.6451437  +6.6894082     3530.056       4007.3     4029.488      67.1676      123.258     233.7089      0.889     1.68     814.7446     54.88604     1237.125        10     0.881     0.526   6.26  24
        14    630.5969      1.0782 307.6781796  +6.6868477     770.1649     920.3451     1118.346     63.93223     119.5256     229.7569      0.839     2.15      815.328     54.88604       252.08         5     0.851     0.266   2.77  24
        15    546.6633    991.6025 307.6797373  +6.2750277     3747.517     6874.771     8088.764     77.43407     155.5513     311.1646      1.995     4.82     849.6794     54.88604     460.3635        31     1.704     1.054  46.69   3
        16    794.1774   1022.9099 307.5759754  +6.2703437     4740.351     7222.852      7337.12      75.7984     134.4786     246.2029      1.645     5.54     845.9775     54.88604     696.3738        26     1.579     0.910  20.08  24
        17    574.4348   1015.4259 307.6674129  +6.2661162     3574.117      6497.95     8197.115     77.43407     155.4894     311.1646      2.155    11.16     849.8771     54.88604     423.3117        43     3.146     1.104  47.73  19
        18    582.2552   1023.9224 307.6638824  +6.2628684      13227.1     15526.27     16275.07     64.53255     119.8478     230.1761      1.034     2.61     849.9235     54.88604     4186.822        13     1.311     0.381   2.67  27
        19    585.3268   1019.7719 307.6627472  +6.2646847     62284.02     112955.6     121733.4     77.93045     155.6752      287.628      1.937     4.69     849.7491     54.88604     7932.045        80     1.923     1.260  47.43  19
        20    543.7881    983.7101 307.6811956  +6.2781909     7526.491     13081.69     14453.71     77.80666     155.4274     311.1956      1.871     4.71     849.4246     54.88604     977.0885        39     1.803     1.042  48.89   3
        21    517.1500    993.1336 307.6919331  +6.2734111     958.3214     1637.023      1040.53     77.93045     155.6133     311.3505      1.731     6.09     849.7479     54.88604     119.1507        14     1.423     0.734  44.01   0
        22    296.9110    990.1740 307.7834240  +6.2672787     12767.57     22759.35     25741.47     78.17746     155.4894     311.2266      1.953     4.70     848.0385     54.88604      1647.36        65     1.792     1.597  21.20   0
        23    751.0815    990.7793 307.5949361  +6.2821777     6480.764     11881.72     12563.34     77.80666     155.4274     311.3195      1.954     4.81     847.4218     54.88604     864.8068        40     1.864     1.082  45.81   0
        24    812.5724    990.3096 307.5694341  +6.2844175     910.8143     1621.607     1910.712     78.17746     155.4894     311.2576      1.962     6.79     845.5921     54.88604     127.1244        12     1.552     0.844  53.83   0
        25    421.3061    990.7054 307.7317869  +6.2712152     856.6821     1640.337     1392.175     78.05405     156.2932     311.3505      1.933     6.64     848.2189     54.88604     133.7865        13     1.535     0.805  34.31   0
        26    267.7666    988.1440 307.7955861  +6.2671426     888.0162     1393.038     1537.839     77.93045     155.7372     311.3814      1.779     5.67     847.1826     54.88604     129.9428        10     1.115     0.812  64.27   0
        27    912.4902    984.2412 307.5281728  +6.2902451      6730.36     13116.75     14513.38     78.05405     155.7372     311.4124      2.110     4.93     844.6343     54.88604     821.3941        48     1.925     1.256  45.96   0
        28   1007.8632    979.8682 307.4887400  +6.2952185     3437.616     7249.518     8303.749     78.05405     155.7372     311.4434      2.222     5.59     840.1022     54.88604      390.745        44     2.064     1.267  48.63   0
        29    886.0742    980.3555 307.5392652  +6.2909718     9841.093     19345.58      21233.4     77.93045      155.799     311.4124      2.108     4.88     844.9708     54.88604     1132.694        61     2.000     1.364  42.49   0
        30    598.9121    981.0594 307.6584094  +6.2811233     1167.241     2182.705     2570.798     78.05405     155.7372     311.4743      1.850     6.18     848.6061     54.88604     147.5322        15     1.512     0.742  41.89   0
        31    530.2606    979.4386 307.6869527  +6.2795036     3793.752     6752.764     7594.593     78.05405      155.799     311.3814      1.978     4.78      849.249     54.88604     528.4731        31     1.693     1.099  44.80   0
        32    639.5875    978.6829 307.6416098  +6.2834601     1196.693     2143.947     1994.941     77.68266     155.4894     311.2266      1.923     6.96     848.3287     54.88604     137.5644        18     1.670     0.837  43.18   0
        33     63.8132    977.7047 307.8805692  +6.2646265     597.1089     1219.831     1373.932     77.80666     155.4894     311.2266      2.604     5.22     842.9341     54.88604     113.1493         8     1.286     0.599  26.92   2
        34    483.4702    976.1523 307.7064799  +6.2792996     1817.354     3239.419     2864.033     78.05405     155.6752     311.4124      1.852     4.94     849.1582     54.88604     254.7035        23     1.746     0.877  45.26   0
        35    980.7311    972.7661 307.5002372  +6.2972504     407.7279     696.3285     1005.773     77.93045     155.7372     311.4434      2.334     5.22      841.541     54.88604     79.83081         5     1.192     0.646  66.00   0
        36    917.7919    967.9366 307.5265183  +6.2971541     34186.05     66307.09     72219.84     77.55846     155.4894     311.1956      2.056     4.86     844.3876     54.88604      4006.73        76     1.991     1.314  47.70   0
        37    225.0482    966.5267 307.8140409  +6.2746402     1479.529     2464.005      3021.43     78.05405      155.799     311.4124      1.815     6.26     845.0177     54.88604      192.804        16     1.584     0.695  46.21   0
        38    624.1242    964.6371 307.6484982  +6.2887449     726.2142     960.4392     554.1273     77.93045      155.799     311.4124      1.513     5.31     848.0836     54.88604     128.4974         8     1.060     0.751  39.31   0
        39    113.0017    964.8381 307.8605925  +6.2715871     482.2542     895.6465     554.9739     77.18468     155.5513     311.1646      1.706     5.42     843.3299     54.88604     100.7685         7     1.596     0.520  49.37   0
        40    815.8472    961.6342 307.5690359  +6.2963677      1899.08     3424.317     3887.001     77.80666     155.7372     311.3195      1.852     4.81     845.4846     54.88604     255.3847        25     1.643     0.948  51.14   0
        41    763.8836    959.6056 307.5906684  +6.2954766     5573.137     10294.74     11459.93     77.55846     155.3653     311.1337      1.973     4.89     846.4639     54.88604     681.0276        39     1.817     1.132  52.04   0
        42    550.6505    959.0981 307.6791747  +6.2885829     931.3564     1632.504     1645.628     78.05405     155.7372     311.5362      1.803     6.07     848.4845     54.88604     130.3703        12     1.428     0.726  55.41   0
        43    233.5869    958.9648 307.8107525  +6.2780483     1323.637     2269.877     2264.449     77.55846     155.5513     311.2266      1.677     6.45      845.087     54.88604     178.8428        16     1.670     0.708  44.49   0
        44    198.0735    958.6658 307.8254994  +6.2769836     872.1763      1452.98     1313.597     78.17746     155.7372     311.3814      1.727     4.76     844.4943     54.88604     126.8823        11     1.216     0.746  43.81   0
        45     58.1378    956.9131 307.8836260  +6.2730216     2343.814     4369.249     4413.412     78.05405     155.9227     311.3814      1.905     4.93     842.6101     54.88604     290.5171        26     1.682     0.995  40.93   0
        46    952.0963    954.6407 307.5127270  +6.3037842     5226.224     9921.625     10606.31     78.05405     155.6133     311.5362      2.009     4.83     842.9698     54.88604     575.7338        42     1.876     1.193  47.66   0
        47    634.2087    949.1341 307.6448336  +6.2954827     658.5376     1078.059     1013.552     77.55846     155.4894     311.2576      1.742     6.68     847.6265     54.88604      105.291        10     1.598     0.783  44.10   0
        48    925.9401    946.5619 307.5238522  +6.3062514     1788.016     3231.694     3507.956     78.05405      155.799     311.4124      1.895     4.95     844.0904     54.88604     188.3892        27     1.592     1.106  44.36   0
        49    258.7558    942.6934 307.8008564  +6.2856090     3917.358     6590.133     6903.857     78.05405     155.6752     311.5052      1.769     5.12     845.3682     54.88604     493.5183        27     1.697     0.878  47.12   0
        50    785.6138    942.8625 307.5822117  +6.3031136     1169.682     1764.104     2123.356     77.55846     155.5513     311.1956      1.751     6.27      845.859     54.88604     141.0829        14     1.267     0.872  49.79   0
        51    646.6849    942.4091 307.6398818  +6.2986754      4089.65     6855.446     7204.433     77.68266     155.4274     311.2266      1.811     4.48     847.2891     54.88604     535.0084        32     1.727     0.980  45.96   0
        52    468.9915    941.1684 307.7136644  +6.2932625     920.3438     1751.336     1388.218     77.55846     155.5513     311.1956      1.799     6.58     847.8772     54.88604     129.6212        16     1.653     0.964  33.03   0
        53    996.0469    941.2403 307.4949355  +6.3107774     519.5995     912.0599      880.125     77.93045     155.7372     311.1956      1.752     5.99     840.7628     54.88604     92.68158         6     1.307     0.772  79.77   0
        54     27.6241    940.2273 307.8968512  +6.2788888     1779.588     3058.425     3237.097     77.55846     155.6133     311.2266      1.852     5.17     842.1696     54.88604     227.6178        20     1.466     0.968  50.23   0
        55    878.1807    938.9839 307.5439262  +6.3077935     742.4042     1296.687     905.4125     77.80666     155.4894     311.2885      1.499     5.66     844.5264     54.88604      93.1991        11     1.388     0.650 -14.96   0
        56    295.6228    937.5265 307.7857316  +6.2889753     698.6987     1143.004     1519.556     77.68266     155.5513     311.3505      1.890     4.00     846.2037     54.88604     112.1237         6     1.329     0.344  74.57   0
        57    971.0944    937.1367 307.5054283  +6.3116433     547.1268     875.1226     728.5968     77.93045     155.8609     311.4434      1.722     5.18       841.96     54.88604      87.3598         5     1.178     0.643 -83.65   0
        58    571.3528    934.5367 307.6714084  +6.2994155     1559.191     2745.153     3154.371     77.93045     155.6133     311.4434      1.877     5.58     847.6609     54.88604     194.2121        21     1.675     0.849  51.89   0
        59   1002.7830    934.1679 307.4923765  +6.3139215     619.1654     1288.149     1422.916     77.68266     155.5513     311.2576      1.978     5.79     840.4338     54.88604     96.94037         8     1.693     0.558  19.80   0
        60    610.4115    931.2480 307.6553098  +6.3020755      1004.35     1559.866     1194.912     77.43407     155.6133     311.0717      1.703     6.01     847.5704     54.88604     132.3311        14     1.498     0.686  43.26   0
        61    290.3767    929.3053 307.7881855  +6.2921947     1386.008     2250.804     2471.947     78.05405     155.4894     311.2576      1.797     6.37     845.7599     54.88604      167.354        17     1.431     0.839  49.12   0
        62    557.8004    927.2087 307.6772788  +6.3019896     651.9986      1047.09     582.2745     77.43407     155.4274     311.1646      1.702     4.48     847.4296     54.88604     128.2416         5     0.847     0.673  55.90   0
        63    757.4800    925.6534 307.5944641  +6.3092837     771.5481     1340.501     1308.397     78.05405     155.7372     311.4434      2.059     5.42     846.0128     54.88604     126.0602         9     1.315     0.631  44.13   0
        64    894.8798    921.6866 307.5375751  +6.3154913     5797.055     10549.27     10267.47     77.80666     156.0463     311.5052      1.906     4.71     844.1136     54.88604     722.8887        36     1.773     1.097  42.77   0
        65    430.7386    918.9052 307.7302875  +6.3011787     2075.841     3273.285     3457.069     77.93045      155.799     311.4124      1.715     4.39     847.1481     54.88604     255.1365        20     1.476     0.810  39.73   0
        66    332.3343    917.3221 307.7711774  +6.2985454     8648.155     14578.96     15296.37     78.17746     155.7372     311.3505      1.815     4.98     846.0852     54.88604     1159.036        38     1.738     0.981  45.93   0
        67    252.4365    916.3455 307.8043665  +6.2962775     6562.898     11027.67     11570.22     77.93045     155.7372     311.4124      1.795     4.93     844.5035     54.88604     832.4708        33     1.678     0.984  47.37   0
        68    580.4451    910.6290 307.6684381  +6.3095910     1070.545     1898.289     1748.465     77.68266      155.799     311.2885      1.912     6.49     847.1104     54.88604     153.4536        16     1.562     0.806  46.90   0
        69    910.8327    906.7605 307.5314541  +6.3221851     832.9055     1272.767     1487.603     77.68266     155.5513     311.2266      1.730     5.58     843.6437     54.88604     118.0016         9     1.275     0.689  48.06   0
        70    142.7760    906.6055 307.8502016  +6.2966296     472.1103     780.2879       1065.2     77.55846     155.4894     311.2266      1.962     4.45     842.8493     54.88604     83.08386         7     1.281     0.439  41.31   0
        71    409.4982    906.0090 307.7395359  +6.3057947     604.6724     897.6655     1348.931     77.80666     155.3653     311.1646      1.802     3.72     846.5365     54.88604     93.72662         6     0.796     0.500 -88.97   0
        72    571.3950    901.3159 307.6725067  +6.3131349     654.3771     808.5799       614.47     77.55846     155.3653     311.0717      1.350     4.93     846.9041     54.88604     93.43823         8     0.853     0.810  -2.58   0
        73    746.9248    899.9376 307.5997067  +6.3195515     1405.828     2385.796     2564.077     78.30067     155.7372     311.3814      1.810     5.05     845.9377     54.88604     205.4946        20     1.483     0.935  41.61   0
        74    610.8593    896.3801 307.6562946  +6.3164886     751.3923     1279.716      965.688     77.68266     155.6133     311.2576      1.780     5.61     846.7109     54.88604     124.7609        11     1.404     0.631  36.22   0
        75    978.1238    895.4831 307.5039044  +6.3290774     1134.682      1759.64     2265.443     78.17746     156.0463     311.5052      1.740     6.31     841.2722     54.88604     146.6567        15     1.322     1.017  15.38   0
        76    532.1860    895.7834 307.6889645  +6.3141119     957.1887      1716.33     1707.768     77.80666     155.4274     311.3195      1.949     5.85     846.8573     54.88604     151.6571        12     1.438     0.671  37.23   0
        77    665.6022    892.9873 307.6336897  +6.3197137     2281.111     3881.134     4294.126     77.68266     155.4274     311.2266      1.823     4.75     846.2346     54.88604     319.2291        25     1.685     0.942  46.87   0
