#   1 NUMBER                 Running object number                                     
#   2 X_IMAGE                Object position along x                                    [pixel]
#   3 Y_IMAGE                Object position along y                                    [pixel]
#   4 ALPHA_J2000            Right ascension of barycenter (J2000)                      [deg]
#   5 DELTA_J2000            Declination of barycenter (J2000)                          [deg]
#   6 FLUX_APER              Flux vector within fixed circular aperture(s)              [count]
#   9 FLUXERR_APER           RMS error vector for aperture flux(es)                     [count]
#  12 FLUX_RADIUS            Fraction-of-light radii                                    [pixel]
#  13 FWHM_IMAGE             FWHM assuming a gaussian core                              [pixel]
#  14 BACKGROUND             Background at centroid position                            [count]
#  15 THRESHOLD              Detection threshold above background                       [count]
#  16 FLUX_MAX               Peak flux above background                                 [count]
#  17 ISOAREA_IMAGE          Isophotal area above Analysis threshold                    [pixel**2]
#  18 A_IMAGE                Profile RMS along major axis                               [pixel]
#  19 B_IMAGE                Profile RMS along minor axis                               [pixel]
#  20 THETA_IMAGE            Position angle (CCW/x)                                     [deg]
#  21 FLAGS                  Extraction flags                                          
         1    166.3606     22.2559 307.8654783  +6.6681096      5821.15     14041.34     16728.66     91.50043     182.6386     364.9869      2.573     5.84     1187.962     64.34127      697.182        62     2.126     1.662 -36.32   0
         2    911.4468     19.7017 307.5557080  +6.6940230     2637.977     5812.753     7078.251     91.50043     182.4208     365.2408      2.440     6.90     1148.039     64.34127     309.2614        39     2.024     1.327 -49.31   0
         3    510.8026     20.4491 307.7223018  +6.6803715     1529.035     3563.715     4630.654     90.77365     182.1301     364.5511      2.534     6.20     1159.211     64.34127     204.6134        30     1.753     1.289 -56.64   0
         4    712.8854     18.8724 307.6383146  +6.6877596     1037.764      2483.67     2580.692      91.6451     182.9285     365.0594      2.556     8.03     1154.152     64.34127     135.9349        17     1.731     1.041 -23.13   0
         5    448.7971     19.1621 307.7481316  +6.6788328     836.4586     1983.268     1599.562     90.48131     182.2755      364.769      2.213     7.43     1164.407     64.34127     100.0936        12     1.534     1.007 -55.54   0
         6    976.3027     16.0286 307.5288599  +6.6976942     1427.212     2848.405     3191.287      91.6451     182.2755     365.0232      2.125     6.86     1142.359     64.34127     181.6135        23     1.534     1.152 -17.94   0
         7    695.9073     12.4909 307.6455927  +6.6898290     4122.996     9785.663     11534.05     91.50043     183.1456     365.0594      2.523     5.94     1153.868     64.34127     439.3976        53     2.036     1.586 -34.36  16
         8    616.3531     11.5771 307.6787087  +6.6875553     2076.012     5011.341     5552.952     91.06506      182.566      364.878      2.457     7.00     1155.641     64.34127     247.9354        37     1.920     1.459 -20.62  16
         9    416.6073      8.0648 307.7618971  +6.6823396      3306.72     7935.093     9488.683     90.91947     182.2755     363.4593      2.529     6.26     1168.831     64.34127     367.0896        55     2.133     1.593 -33.20  16
        10     17.6289      7.8400 307.9278207  +6.6690762     4741.972     10802.22     12600.03     91.06506     182.2755     362.3642      2.471     5.66     1191.289     64.34127     563.0693        58     2.246     1.501 -37.06  16
        11    313.0438      3.3983 307.8051247  +6.6808048     6539.873     15428.84     17996.34     90.77365     174.5535     310.5918      2.418     6.22     1180.542     64.34127      751.231        56     2.220     1.472 -26.00  24
        12     86.4922      3.5499 307.8993315  +6.6731567     1507.695     3343.886     4252.116     91.35555     176.2152     313.3942      2.632     8.19     1188.366     64.34127     181.0482        26     1.771     1.508 -15.02  24
        13     77.8551      3.0447 307.9029405  +6.6730758     845.7469     2104.405     2658.521     91.50043     171.0268     305.3005      2.520     8.80     1188.589     64.34127     125.4553        17     2.247     0.962 -27.82  24
        14    378.9796      1.8563 307.7777571  +6.6836458     1137.929     1984.033     1441.917      86.4379     153.9895     284.2224      1.667     6.53     1172.061     64.34127     158.3687        16     1.582     0.757 -12.80  24
        15    530.3314    996.0517 307.6809352  +6.2781946     6170.549     11573.48     13903.08     91.35554     182.4208     364.9506      2.137     4.90     1222.365     64.34127     793.5944        46     1.993     1.178 -35.56   0
        16    737.0344   1023.3378 307.5941127  +6.2738123     853.8289      1197.51     1163.809     84.42202     150.9485     280.8937      1.624     4.96     1220.615     64.34127     156.2122         9     1.264     0.551 -27.83  24
        17    898.8510    996.4872 307.5277810  +6.2902787     7263.859     12787.17     13424.12     91.50043     182.4208      365.132      1.930     5.22     1213.885     64.34127     1035.724        44     1.955     1.029 -32.14   0
        18    872.5430    992.6457 307.5388439  +6.2909909     10147.46     18489.69     20591.89     91.50043      182.566     365.0594      1.996     5.46      1215.07     64.34127     1294.889        49     2.033     1.112 -32.33   0
        19    585.0325    993.4280 307.6582937  +6.2811012     1045.313     2007.237     2307.989     90.91947     182.2755     364.8054      2.135     6.65     1220.805     64.34127     146.8586        14     1.465     0.888 -38.49   0
        20    994.2657    992.0489 307.4882806  +6.2952794     4292.771     7549.731     8420.716     91.35555     182.4208     365.0232      1.908     5.14     1209.592     64.34127     584.1248        35     1.986     0.957 -34.55   0
        21    516.8456    991.8387 307.6866826  +6.2794846     2885.661     5969.726     7042.407     91.21042      182.566     364.9143      2.228     5.49     1222.474     64.34127     336.2892        33     1.837     1.176 -30.49   0
        22    625.7252    991.1096 307.6414627  +6.2834141      1118.35     2157.333     2413.917     91.50043     182.7836     365.0957      2.093     7.21     1219.642     64.34127     136.9828        16     1.501     0.970 -27.26   0
        23     50.2927    991.2972 307.8805680  +6.2641159     624.8745     1408.739      1674.45     91.50043     183.1456     364.9506      2.017     4.51     1227.168     64.34127     83.30664         6     1.047     0.553  55.12   0
        24    469.7374    988.2664 307.7063798  +6.2793884     1558.527     2969.958     3630.749     91.50043      182.566     365.0232      2.146     6.19     1223.075     64.34127     209.6915        20     1.618     0.982 -47.26   0
        25    904.2839    980.2311 307.5260747  +6.2971715     36233.88     64792.38     71899.84     91.50043     182.3482      364.878      1.961     4.96     1212.797     64.34127     4881.744        75     2.081     1.171 -34.51   0
        26    211.4524    979.0121 307.8140224  +6.2745824     1184.672     2143.284     2051.925     90.77365     182.4934     364.6964      1.914     7.01     1226.291     64.34127     172.9266        18     1.514     1.044  -7.60   0
        27    801.9777    974.2838 307.5687915  +6.2962273     1997.918     3294.102     3835.862     91.35554     182.2028     364.9143      1.844     5.64     1215.422     64.34127     274.3312        21     1.703     0.884 -39.33   0
        28    750.4183    971.8063 307.5903019  +6.2955354     5101.472     9738.175     10831.73     91.06506     182.2028     364.8416      2.063     5.44     1216.793     64.34127     653.6042        45     2.040     1.159 -38.47   0
        29    220.0009    971.1394 307.8107392  +6.2781188     998.0265     2135.785     2418.436     90.62759     182.3482     364.6601      2.181     5.54     1226.061     64.34127     148.2985        11     1.406     0.615 -28.45   0
        30    184.4265    971.2049 307.8255192  +6.2769019     903.3286       1501.7      1706.46     90.91947     182.3482     364.8416      1.800     4.47     1226.139     64.34127     144.4209         7     0.914     0.736 -18.32   0
        31     44.8352    969.4811 307.8835820  +6.2729407     1928.011     3841.204     4661.976     91.35555     182.6386     365.0232      2.215     6.05     1226.767     64.34127     230.8699        28     1.893     1.039 -37.19   0
        32    938.5758    966.9811 307.5122735  +6.3037816     5709.487     10022.88     10618.22     91.21042     182.4208     364.9506      1.914     5.11      1210.75     64.34127     757.9519        37     1.932     1.006 -37.42   0
        33    912.2066    958.7488 307.5235111  +6.3063051     1846.781     3260.036     3592.626     90.91947     182.3482     364.5874      1.906     4.77      1211.44     64.34127     253.7505        21     1.560     0.943 -31.51   0
        34    245.1733    955.0137 307.8008298  +6.2856188     2973.666       5667.4     6102.104     91.21042     182.3482     364.9506      2.061     4.79     1225.669     64.34127     374.9243        32     1.744     1.177 -39.33   0
        35    771.4845    955.2269 307.5821108  +6.3030820     1181.748     1897.188     1836.392      91.6451     182.2755      364.878      1.688     5.61     1215.096     64.34127     155.2192        12     1.232     0.720 -35.33   0
        36    633.1147    954.6532 307.6396322  +6.2987134     3382.357     6211.475     6616.941     91.50043     182.4934     365.2046      2.017     5.33     1218.273     64.34127     415.7007        32     1.932     0.981 -32.88   0
        37    454.8699    953.3290 307.7137484  +6.2933182     764.8421     1390.771     1117.695     91.50043     182.7111     364.9869      1.901     7.09     1222.673     64.34127      100.307        11     1.695     0.830 -46.89   0
        38     13.9137    952.6400 307.8970068  +6.2788582     1686.281     3139.981     3586.936     91.50043      182.566     365.0232      2.020     6.68     1226.627     64.34127     191.7106        20     1.600     0.937 -41.67   0
        39    864.8586    950.9771 307.5434514  +6.3079411     682.8176      1324.78     1685.878     91.06506      182.566     364.8416      2.291     6.08     1212.525     64.34127     97.77991         9     1.618     0.643 -49.67   0
        40    557.7603    947.3041 307.6711967  +6.2992372     1117.031     1793.131     1579.149     91.50043     182.4208     365.1683      1.867     6.28     1220.038     64.34127     139.3306        12     1.414     0.783 -33.64   0
        41    989.4507    946.8765 307.4918128  +6.3137720     721.1611     1264.984     1422.877     91.35555     182.6386     365.0232      1.921     3.48     1207.875     64.34127     140.6715         6     1.009     0.449 -32.87   0
        42    596.4151    943.3283 307.6552685  +6.3021670     860.6097     1565.102     2038.768     90.91948     182.4208      364.878      2.264     5.87     1219.193     64.34127     102.9257         9     1.323     0.733 -32.87   0
        43    276.2209    941.9380 307.7883746  +6.2920556     962.1915     1885.688     2982.035     91.06506      182.566      364.878      2.104     6.12     1225.326     64.34127     142.4744        12     1.392     0.801 -16.43   0
        44    881.3309    933.9319 307.5371844  +6.3155266     5594.203     10180.13     10969.75     91.50043     182.7111     364.9869      1.974     5.03     1210.962     64.34127     726.9279        42     1.912     1.147 -36.26   0
        45    417.4086    931.4097 307.7300628  +6.3011186     1446.018     2708.421     3214.513     90.91948     182.3482     364.9143      2.122     7.91     1222.961     64.34127      171.557        20     1.897     0.922 -48.59   0
        46    319.0262    929.5648 307.7710092  +6.2985949      6592.75      13681.4     15477.49     90.77365     182.2755      364.769      2.255     5.24     1224.438     64.34127      778.801        54     2.165     1.294 -38.27   0
        47    239.1193    928.6542 307.8042457  +6.2963001     4921.519     10009.79     11486.85     91.50043      182.566     365.0957      2.241     5.10     1224.887     64.34127     587.3029        48     2.046     1.335 -29.02   0
        48    566.4921    923.6957 307.6683718  +6.3092762     807.0432     1313.718     957.4843     91.50043     183.1456     364.9869      1.657     5.47      1219.15     64.34127     127.4336         9     1.528     0.553 -52.60   0
        49    896.6094    919.5593 307.5313226  +6.3219689     872.5983      1489.45     1452.079     90.77365     182.3482     364.6964      1.984     5.44     1209.689     64.34127     138.5029        10     1.322     0.632 -53.70   0
        50    264.5051    918.7349 307.7940353  +6.3012445     3524.242     4699.088     4604.236     91.50043     182.7111     365.0594      1.466     4.55     1224.755     64.34127     1176.282        11     1.606     0.367  75.75   0
        51    395.5316    917.6253 307.7396240  +6.3060799     592.3555     882.4685     813.8238     91.06506     182.4208     364.9143      1.667     4.06     1222.873     64.34127     102.4303         5     0.948     0.496  86.23   0
        52    732.8511    912.6465 307.5996128  +6.3193787       1254.2     2473.349     2863.195      91.6451     182.4208     365.0957      2.233     7.87     1213.555     64.34127     161.8372        19     1.969     0.880 -57.11   0
        53    963.5352    915.3727 307.5036510  +6.3259202     764.7615     1105.197     1735.691     91.06506      182.566     364.9143      1.497     4.33     1207.158     64.34127     103.0502         7     0.988     0.540 -29.41   0
        54    964.5961    907.7641 307.5034681  +6.3290971     1030.199      1806.86     2626.573     90.48131     182.4208     364.8054      2.377     5.61     1206.607     64.34127     157.2229        12     1.562     0.567 -38.75   0
        55    518.7540    907.9997 307.6887448  +6.3141657     808.5571     1580.819      1359.34     90.62759     182.2755     364.5147      2.113     6.76     1220.002     64.34127      113.077        11     1.443     0.890 -22.85   0
        56    651.8430    905.6179 307.6335172  +6.3195842      1881.88     3705.569     4090.967     90.91947     182.4208      364.769      2.082     7.06     1215.392     64.34127     214.6144        24     1.825     1.015 -32.10   0
        57    192.1050    901.1037 307.8247236  +6.3061032     1586.588     3049.046     2787.561     91.50043     183.2179     364.8416      2.105     6.87     1224.647     64.34127     188.6722        24     1.680     1.187 -53.40   0
        58     65.5483    901.5327 307.8772996  +6.3016897     1222.546     2519.018      2714.96     91.35555     182.4934     364.9869      2.205     8.34     1225.258     64.34127     151.5236        22     1.716     1.132 -35.54   0
        59    646.6117    894.5795 307.6360667  +6.3239679     4907.413     9625.729     10424.86     91.06506     182.2029     364.9143      2.083     5.32     1215.125     64.34127     531.7573        38     1.898     1.115 -31.97   0
        60    226.5423    896.8591 307.8105580  +6.3090076     564.8691     927.6002     923.3302      91.6451     182.4934     365.0594      1.918     4.22     1224.464     64.34127     87.69568         5     0.924     0.549 -42.68   0
        61      6.1035    893.5219 307.9022756  +6.3030056     839.5671      1846.83     1395.852     91.21042     182.7836     347.5096      2.178     8.45     1225.291     64.34127     114.6914        17     1.632     1.223 -47.74  16
        62    883.9927    890.8530 307.5375401  +6.3334030     2081.369     3817.963     4669.738     90.91947     182.3482     364.6601      2.039     5.14     1207.972     64.34127     289.3632        24     1.685     0.980 -35.40   0
        63     19.2829    891.9404 307.8968531  +6.3041003     930.9376     1503.203     1741.571      91.6451     182.6386     365.0594      1.952     5.24     1225.188     64.34127     117.2361         7     1.045     0.743  -6.00   0
        64    329.7230    887.8196 307.7679885  +6.3161888     10642.72      22247.1     26607.05     91.06506     182.2755     364.9869      2.278     5.25     1223.751     64.34127     1192.303        65     2.162     1.383 -35.89   0
        65     64.1115    888.7759 307.8783330  +6.3069087     973.6153     1903.241     2004.978     91.50043     182.3482      364.878      1.908     6.27     1224.969     64.34127     137.6115        12     1.509     0.902   5.93   0
        66     48.6049    901.9352 307.8843265  +6.3009560     2033.914     4201.928     5299.394     90.77365     182.2028      364.769      2.412     5.79     1225.336     64.34127     218.0521        31     1.718     1.297 -35.45   0
        67     93.2114    879.0967 307.8665716  +6.3118798     1022.424     2000.268     1573.789     91.21042     182.2028     364.8054      1.786     5.95      1224.69     64.34127     183.2106        11     1.659     0.600 -40.28   0
        68    407.7698    878.3508 307.7358774  +6.3227050     833.0964     1467.148     1622.979     91.06506     182.6386     364.9143      2.038     5.31     1221.024     64.34127     131.8506         8     1.190     0.669 -27.31   0
        69    487.2425    875.7870 307.7029376  +6.3264155     656.8978     1238.134     1923.745     90.77365     182.3482     364.7327      2.507     4.83     1219.731     64.34127     91.00757         5     1.289     0.513 -64.13   0
        70    874.7243    872.5103 307.5420146  +6.3406690     1525.856     2957.362     3347.137     91.50043      182.856     365.0594      2.115     7.53     1206.982     64.34127     219.9299        22     1.882     0.877 -32.73   0
        71    845.2346    872.1825 307.5542817  +6.3398243     1723.102     2893.229     3512.575     91.06506     182.3482     364.8054      1.858     4.97      1207.88     64.34127     215.9178        21     1.487     0.967 -42.59   0
        72    808.7443    871.4232 307.5694728  +6.3389247     2369.738     4547.912     4934.681     91.06506      182.566     364.8054      2.073     5.51     1209.057     64.34127     277.9137        28     1.758     1.046 -28.59   0
        73     76.3926    872.0506 307.8738017  +6.3142258     1650.453     3371.073       4070.1     90.91947     182.3482     364.6237      2.348     7.37     1224.569     64.34127     214.5929        24     1.894     0.880 -36.21   0
        74    544.7783    862.9665 307.6794632  +6.3336279     220736.4     456682.8     526520.2     90.91947     182.3482     364.8054      2.263     5.31     1218.258     64.34127     24319.21       173     2.299     1.565 -34.27   0
        75    388.9671    865.6816 307.7441234  +6.3273083     5069.288     10721.24     12373.53     91.35554     182.4934     364.9869      2.331     5.55     1221.456     64.34127      594.217        54     2.174     1.337 -35.86   0
        76    332.2130    864.0549 307.7677646  +6.3260845     8149.673      17330.1      20655.6     90.77365     182.4934     364.7327      2.363     5.20     1223.424     64.34127     981.7432        61     2.155     1.394 -39.05   0
        77    632.6957    865.8199 307.6428284  +6.3353795     748.0377     1408.885     1567.616     91.35555     182.3482     364.8054      2.064     4.40     1214.384     64.34127     114.4893         5     1.223     0.451 -59.85   0
