#   1 NUMBER                 Running object number                                     
#   2 X_IMAGE                Object position along x                                    [pixel]
#   3 Y_IMAGE                Object position along y                                    [pixel]
#   4 ALPHA_J2000            Right ascension of barycenter (J2000)                      [deg]
#   5 DELTA_J2000            Declination of barycenter (J2000)                          [deg]
#   6 FLUX_APER              Flux vector within fixed circular aperture(s)              [count]
#   9 FLUXERR_APER           RMS error vector for aperture flux(es)                     [count]
#  12 FLUX_RADIUS            Fraction-of-light radii                                    [pixel]
#  13 FWHM_IMAGE             FWHM assuming a gaussian core                              [pixel]
#  14 BACKGROUND             Background at centroid position                            [count]
#  15 THRESHOLD              Detection threshold above background                       [count]
#  16 FLUX_MAX               Peak flux above background                                 [count]
#  17 ISOAREA_IMAGE          Isophotal area above Analysis threshold                    [pixel**2]
#  18 A_IMAGE                Profile RMS along major axis                               [pixel]
#  19 B_IMAGE                Profile RMS along minor axis                               [pixel]
#  20 THETA_IMAGE            Position angle (CCW/x)                                     [deg]
#  21 FLAGS                  Extraction flags                                          
         1     16.3577     84.0371 307.9361666  +6.6320582     747843.1      1447801      1546328     80.93173     161.9923     323.7592      2.028     7.71     931.4584     57.09052     62031.12       414     2.067     1.768  89.14   4
         2     21.3866     14.5148 307.9364319  +6.6609290     554.3059     910.3153     508.0304     80.80276     161.8635     323.7269      1.763     4.91     928.3141     57.09052     92.84271         6     0.975     0.699  68.30   0
         3    270.7798     13.2301 307.8328636  +6.6698555     813.7482     1362.554     1109.753     80.67358      161.799     323.7592      1.669     5.71     924.6318     57.09052     98.98413        10     1.174     0.782 -46.14   0
         4    216.0521     13.6950 307.8555852  +6.6678229     827.5262     1046.043     996.1614      81.0605     161.9279     324.1455      1.412     5.33     925.1514     57.09052     109.2364         9     1.123     0.715  82.11   0
         5    193.3737     11.0507 307.8650966  +6.6681516     12332.19     17067.33     17330.62     80.80276     162.0567     323.7914      1.452     3.00     925.0876     57.09052     1799.344        33     1.271     1.027  85.26   0
         6      6.8567     11.5094 307.9425701  +6.6616799       1164.7      1630.36     1021.159      81.0605     161.8635     315.0404      1.428     3.94      928.579     57.09052     187.9946        10     1.100     0.632  77.85  16
         7    939.0514      8.8614 307.5553531  +6.6940508     4847.982      6423.35      6775.46     81.18907     161.9279      323.888      1.345     2.91      896.837     57.09052     771.6378        25     1.219     0.909  61.41   0
         8    537.5556      9.1959 307.7221611  +6.6804784     3295.069     4364.983     4350.896     80.54419     161.6055     323.5658      1.400     3.18     907.0132     57.09052     509.0449        18     1.165     0.863  74.03   0
         9    475.9083      7.6573 307.7478263  +6.6790459      2076.74     2796.737     2791.441      81.0605     161.9279     320.6841      1.470     3.03     907.6353     57.09052     325.5488        17     1.181     0.859  81.12  16
        10    739.8900      7.4354 307.6381525  +6.6879825     2333.044     3117.888     3507.878     81.31743     161.9279     319.2825      1.481     3.69     902.3265     57.09052     317.0182        13     1.054     0.776  75.74  16
        11     94.8477      7.4199 307.9061527  +6.6663334     647.8687     670.5239     876.1761     80.67358     161.9923     319.0538      1.264     3.04     925.9914     57.09052     103.4756         7     0.848     0.587 -79.69  16
        12   1003.6477      5.1913 307.5286360  +6.6977222     2186.363     2974.742     2900.455     80.67358     161.8635     298.3776      1.437     3.24     894.3835     57.09052     350.4918        15     1.135     0.846  82.66  16
        13    798.9815      4.2269 307.6137080  +6.6912837     597.0317     660.0347     728.9332     80.80276     161.0884     286.9377      1.156     2.94     900.9778     57.09052     114.8579         6     0.872     0.467  40.03  16
        14    723.2381      2.0016 307.6452541  +6.6896687     7720.826      9116.01     9215.799     77.50867     138.5313     254.6212      1.204     2.60     902.5952     57.09052     1359.514        18     0.946     0.863 -40.22  24
        15    643.5210      1.5880 307.6783900  +6.6871705      2975.99     3504.778     3609.283     73.64456       132.45     247.8544      1.076     2.23     903.9326     57.09052     709.8278        11     0.911     0.661 -17.82  24
        16    345.7217      1.3903 307.8021274  +6.6772623     572.2512      674.502     770.8536     71.04961     129.4231     244.5074      1.063     2.49     920.3029     57.09052     120.5475         5     0.692     0.467 -15.93  24
        17    628.4944    997.5413 307.6511303  +6.2754733     630.2202     806.3934     474.1757     81.06051     161.9923     324.0168      1.358     4.23      941.188     57.09052     100.1814         6     1.095     0.466 -79.51   0
        18    905.9122   1022.0701 307.5351333  +6.2746193     1589.741     2352.666     2090.119     81.31743     150.5112     269.0412      1.503     3.80     936.4194     57.09052     233.1735        18     1.242     0.992  43.98  24
        19    807.5818   1023.7333 307.5759007  +6.2706487     2613.967     2736.629     2481.043     69.56615     127.6379     242.4513      0.880     2.08     937.5453     57.09052     778.9176        11     0.994     0.494   0.98  24
        20    598.6322   1021.2642 307.6627302  +6.2646791     84273.34     116005.1     119967.8     80.93173      158.016     280.4673      1.474     3.00      942.683     57.09052     12393.08        75     1.385     1.208  85.72  24
        21    764.4775    992.4995 307.5948442  +6.2821036     9280.683     13033.44     12896.06     80.80276     162.1853     323.9202      1.556     3.12     938.1519     57.09052     1194.799        37     1.377     1.080  75.05   0
        22    559.9428    993.1688 307.6797371  +6.2749831     5046.465      6946.21     6971.203      81.0605     161.9923     323.7914      1.454     3.22     942.6379     57.09052      781.976        25     1.303     0.937 -89.81   0
        23    530.2539    993.9877 307.6920351  +6.2736504     1203.314     1768.658     1632.244     80.54419     161.9279      323.598      1.428     3.81      943.149     57.09052     214.0974        11     1.034     0.811 -66.78   0
        24    310.0132    991.7538 307.7835433  +6.2671856     17368.89     24605.71     25943.39     80.54419      161.799     323.6625      1.484     3.52     944.7666     57.09052     2665.662        39     1.392     1.036 -88.97   2
        25    314.4609    988.9022 307.7817930  +6.2685123     1080.377     1868.026     2338.662     80.93173     161.9923     323.9846      1.813     5.14     944.7424     57.09052     148.9083         9     1.284     0.611 -88.35   3
        26    825.7589    991.9944 307.5694190  +6.2843601     1295.024     1811.554     1661.365     80.41459       161.67      323.598      1.484     4.13     936.3373     57.09052     205.5902        15     1.238     0.919 -83.91   0
        27    434.3891    992.0424 307.7318992  +6.2712401     1075.274     1826.581     1759.933     80.54419      161.799      323.598      1.855     4.06     943.6722     57.09052     173.0447        13     1.226     0.840  75.92   0
        28      6.6051    992.6448 307.9094679  +6.2566153     758.4587     1128.419     1000.986     80.54419       161.67     312.6476      1.511     4.18     946.2759     57.09052     133.2842         7     1.112     0.487 -87.73  16
        29    281.5046    989.3591 307.7954592  +6.2672169     1062.551     1440.542     1441.393     81.18907     161.9279     324.0168      1.476     3.59     944.8102     57.09052     140.4066         9     0.916     0.741  75.47   0
        30    925.7930    985.9560 307.5280898  +6.2901935     9398.266     14187.01     15002.62     80.67358     161.7345     323.5658      1.590     3.32     934.7557     57.09052     1309.192        38     1.416     1.141  87.11   0
        31    557.1399    985.2803 307.6811661  +6.2781461     9964.087     13307.28     14430.36     81.31743     161.9923     323.8558      1.426     3.00     942.4702     57.09052     1489.555        30     1.240     0.997  84.38   0
        32    899.4029    982.0931 307.5391759  +6.2909075     13512.67     19893.89     21145.04     80.93173       161.67     323.5658      1.560     3.24      934.875     57.09052      1813.18        42     1.343     1.251  82.01   0
        33     55.7917    984.8627 307.8893124  +6.2614841     571.4208     544.2415    -263.4601     80.54419     161.7345     323.6947      1.170     3.65     946.2164     57.09052     93.60828         5     1.132     0.339 -78.01   0
        34    612.0517    982.6941 307.6584557  +6.2810527     1496.233     2250.798      2860.33      81.0605     161.9279     324.1455      1.609     3.80     941.2411     57.09052     238.0198        13     1.150     0.824 -80.21   0
        35      9.1988    984.0344 307.9086824  +6.2602574     560.7937     603.6441     906.3898     80.28479      161.799     323.6625      1.206     3.93     946.2884     57.09052      85.2782         6     0.942     0.470  55.88   0
        36   1021.2165    981.4295 307.4886235  +6.2952457     5100.821     7664.423     7800.912     80.80276      158.148      281.173      1.630     3.46     928.7672     57.09052        628.6        31     1.340     1.131  61.91  24
        37    543.4496    981.1537 307.6869886  +6.2793912     4914.829      6759.42     7952.205     81.18907     161.8635     323.9202      1.464     3.03     942.6266     57.09052     711.7865        22     1.253     0.885  85.61   0
        38    653.1877    980.3091 307.6414576  +6.2834143     1558.627     2035.742     2202.822     80.93173     161.7345     323.6947      1.297     2.81      939.981     57.09052     245.2535        14     1.042     0.778  76.95   0
        39     78.4739    979.4894 307.8800780  +6.2644659     1039.187     1269.109     1413.282     81.18907     162.2496     323.9202      1.553     3.85      946.114     57.09052     173.8405         8     1.113     0.499 -88.56   0
        40    496.7134    977.4673 307.7065156  +6.2793471     2606.543     3367.888     3022.951     81.31743     162.2496     323.9202      1.409     3.15     942.9455     57.09052     393.2919        17     1.160     0.845  81.26   0
        41    808.7456    978.3768 307.5769393  +6.2894139     619.4756     777.7798     761.5093     80.67358     161.9923     323.6947      1.604     3.97     936.3615     57.09052     98.49384         6     0.879     0.512  43.24   0
        42    931.1452    969.6601 307.5264138  +6.2971003     48032.14     70235.98     72769.96     81.31743     161.9279     323.8558      1.585     3.25     933.7698     57.09052     6573.368        59     1.448     1.178  78.38   0
        43    336.6887    970.7982 307.7731755  +6.2767329     625.4344     897.0075     794.5026     80.41459     161.6055     323.6625      1.400     4.31     944.5589     57.09052     105.0981         7     1.104     0.479  59.84   0
        44      4.0999    969.3008 307.9112973  +6.2661684     3564.577       4724.5     4480.553     81.18907     160.8292     285.2973      1.403     3.21     946.3316     57.09052     535.3917        18     1.192     0.831  80.18  16
        45    238.7350    967.9910 307.8139356  +6.2746021      1884.43     2816.485     2817.417     80.67358      161.799     323.7592      1.518     3.28     944.6068     57.09052     310.8468        15     1.184     0.755  86.49   0
        46    126.4837    966.6687 307.8605806  +6.2713742     794.9272     1172.078     1335.104     81.44559     162.2496     323.9202      1.650     4.19     945.3359     57.09052     129.0798         6     1.018     0.493 -84.60   0
        47    777.2488    961.4075 307.5905856  +6.2953675     7610.297      10886.7     12001.44     80.67358      161.799     323.5013      1.579     3.22     936.8168     57.09052     1020.041        38     1.664     1.043 -82.36   0
        48    637.3142    965.9904 307.6485291  +6.2887948     819.1194     961.7434     1095.253     80.80276       161.67     323.7269      1.362     3.92     940.0743     57.09052     157.9318         6     1.010     0.435  79.71   0
        49    829.0341    963.5121 307.5690147  +6.2962290     2810.167     3932.379     4098.806     81.18907     161.8635      323.888      1.540     3.18     935.6281     57.09052     434.1559        18     1.158     0.928  70.27   0
        50    744.9583    962.1797 307.6039660  +6.2939692     558.9495     926.1572     676.6014     80.80276      161.799     323.7269      1.322     4.25     937.8272     57.09052     80.64526         7     1.188     0.434  57.72   0
        51    563.9715    960.8648 307.6791511  +6.2884553     1161.927     1543.893     1647.861     80.93173     161.9923     323.8236      1.484     4.27      941.631     57.09052     160.5862        11     1.143     0.695  80.43   0
        52    246.7111    960.3833 307.8108811  +6.2780110     1858.519     2501.902      2602.94     80.93173     161.7345     323.7592      1.495     3.84     944.5699     57.09052      269.842        15     1.253     0.842 -88.81   0
        53    211.4141    959.6856 307.8255581  +6.2771129     1053.933     1478.183     1037.158     80.80276     161.7345     323.7914      1.520     4.11     944.4861     57.09052     171.9171        11     1.064     0.889 -73.33   0
        54     71.6719    958.2296 307.8836202  +6.2730141     3126.636     4180.626     4091.506      81.0605     161.9923     323.8558      1.432     3.20     945.9106     57.09052     479.8287        20     1.195     0.869  79.73   0
        55    965.5045    956.4368 307.5125914  +6.3037064     7421.654      10857.1     11351.07     81.31744     161.8635     324.0168      1.624     3.46     931.4477     57.09052     951.9452        34     1.404     1.095  78.48   0
        56    222.0302    952.4180 307.8213961  +6.2804702     727.3765     975.2587     996.1418     80.80276      161.799     323.7914      1.385     1.74     944.3932     57.09052      170.555         6     0.706     0.492  -4.41   0
        57    647.9213    950.7864 307.6446363  +6.2954271      739.235     880.4905     794.5923     80.80276     161.7345     323.6947      1.267     3.51     939.4232     57.09052     113.5724         8     0.832     0.659 -46.52   0
        58    939.3164    947.9769 307.5237479  +6.3063254     2268.878     3369.796      3199.71      81.0605     161.7345     323.8236      1.519     3.57     932.3101     57.09052     331.0828        22     1.274     1.016  80.32   0
        59    659.9577    944.0687 307.6398648  +6.2986034     5457.594     7361.423     7174.556      81.0605     161.9279     323.9846      1.406     3.17     938.9822     57.09052     826.4937        25     1.215     0.961  76.10   0
        60    798.7932    944.3677 307.5822126  +6.3031228     1616.794     2318.916     2692.972     80.54419     161.8635     323.6947      1.566     3.58     935.6974     57.09052     234.4321        16     1.181     0.898  50.70   0
        61    272.1966    944.1274 307.8008491  +6.2855785     5175.504     7175.098     7066.201     80.67358      161.541     323.7269      1.407     2.87     944.5977     57.09052     751.7875        22     1.153     0.958  72.43   0
        62    482.1747    942.5690 307.7137263  +6.2932681     1235.135     1501.627     1530.726     80.67358     161.8635     323.7269      1.353     3.10     941.8392     57.09052     192.5283        10     0.981     0.754  76.16   0
        63     40.8778    941.5240 307.8969688  +6.2788744     2409.604     3272.281     3053.549     81.44559     162.2496     323.9524      1.523     3.26     946.0402     57.09052     351.4144        18     1.173     0.904  76.00   0
        64    891.8197    940.6163 307.5437148  +6.3077790     972.9379      1235.93      970.621     80.93173     161.7345     323.7914      1.482     5.58     933.5945     57.09052     132.9514        12     1.358     0.647  84.93   0
        65    584.7295    936.6096 307.6713487  +6.2991647     1989.766     2568.831     2383.341     80.67358     161.6055     323.7269      1.396     3.00     940.4645     57.09052      316.042        16     1.145     0.831  84.35   0
        66    308.1427    937.6529 307.7861441  +6.2894588     1036.341     1379.444     1481.788     81.18907     161.9923      323.888      1.348     3.14     944.5497     57.09052     176.7998         8     0.894     0.681 -75.52   0
        67   1016.5294    935.8746 307.4920949  +6.3138979     929.0983     1546.066     1278.965     81.44559      162.121      323.888      1.862     6.77     929.1991     57.09052     155.2355        12     1.736     0.740  87.85  16
        68    963.4611    937.1005 307.5140876  +6.3116217       806.69     1412.272     1477.663     80.93173     161.9279     324.0168      1.674     4.58     930.9979     57.09052     135.4136         7     1.229     0.484  52.64   0
        69    623.9494    932.9167 307.6551895  +6.3020025     1348.106      1711.27     1263.968     81.18907     161.9279     323.9846      1.304     2.94     939.4891     57.09052     226.3539        12     1.065     0.660  84.43   0
        70     73.7281    933.5478 307.8836008  +6.2832732     701.5937     863.6613     1001.947      81.0605     161.9923     323.9202      1.327     4.17     945.6379     57.09052     117.6741         7     0.998     0.665  86.25   0
        71    303.9201    930.4692 307.7881394  +6.2922828     1779.972     2450.833      2482.62     81.44559     162.2496     323.8558      1.468     2.98     944.5481     57.09052      287.749        13     1.080     0.738  83.02   0
        72    571.8871    928.9138 307.6769394  +6.3019119     765.6727     754.4917     536.7758     80.93173     162.1853     323.9846      1.370     4.71     940.5237     57.09052     113.2324         7     0.997     0.631 -80.51   0
        73    770.9383    926.5128 307.5943769  +6.3095636     946.4849     1140.711     1123.967     81.31743     162.1853     323.9202      1.373     3.19     936.0205     57.09052     174.5677         9     0.942     0.634  74.37   0
        74    146.2455    925.1558 307.8537788  +6.2891776     700.3972     1041.519      1248.03     81.18907     161.9923     323.8236      1.482     3.47     944.0836     57.09052     134.9832         8     0.929     0.604 -86.06   0
        75    908.2712    923.2849 307.5374653  +6.3154839     7965.625     11146.19     11818.17     81.31743     162.2496     323.9202      1.504     3.23     932.3846     57.09052     1108.873        31     1.285     1.049  71.24   0
        76    444.1397    920.6010 307.7302571  +6.3010626     2326.817     3248.745     3712.375     80.54419      161.799     323.5658      1.471     3.29     942.3199     57.09052     349.4491        18     1.259     0.831  80.24   0
        77    345.7435    918.8127 307.7711688  +6.2984996     11166.18     15036.65     15423.28     80.54419     161.9279     323.5658      1.407     2.89     944.1489     57.09052     1899.201        29     1.229     0.951  83.90   0
