#   1 NUMBER                 Running object number                                     
#   2 X_IMAGE                Object position along x                                    [pixel]
#   3 Y_IMAGE                Object position along y                                    [pixel]
#   4 ALPHA_J2000            Right ascension of barycenter (J2000)                      [deg]
#   5 DELTA_J2000            Declination of barycenter (J2000)                          [deg]
#   6 FLUX_APER              Flux vector within fixed circular aperture(s)              [count]
#   9 FLUXERR_APER           RMS error vector for aperture flux(es)                     [count]
#  12 FLUX_RADIUS            Fraction-of-light radii                                    [pixel]
#  13 FWHM_IMAGE             FWHM assuming a gaussian core                              [pixel]
#  14 BACKGROUND             Background at centroid position                            [count]
#  15 THRESHOLD              Detection threshold above background                       [count]
#  16 FLUX_MAX               Peak flux above background                                 [count]
#  17 ISOAREA_IMAGE          Isophotal area above Analysis threshold                    [pixel**2]
#  18 A_IMAGE                Profile RMS along major axis                               [pixel]
#  19 B_IMAGE                Profile RMS along minor axis                               [pixel]
#  20 THETA_IMAGE            Position angle (CCW/x)                                     [deg]
#  21 FLAGS                  Extraction flags                                          
         1     15.0606     84.7569 307.9363334  +6.6320493     735813.1      1990328      2420820     86.34818      172.286     344.6062      2.656     9.81     1065.984      60.7183     62196.98       434     2.688     1.797 -29.63  20
         2    192.1220     11.8009 307.8651998  +6.6681292     6424.506     14479.27     17167.17     85.52448     171.6686     344.2637      2.401     6.62     1056.664      60.7183     710.2799        53     2.257     1.310 -26.31  16
         3    937.5870      9.3834 307.5553909  +6.6940879     2851.895     6016.313     5752.078     86.07449     171.9433     344.4007      2.099     8.26     1021.947      60.7183     402.5023        31     2.028     0.941 -24.13  16
         4    535.9692      9.8439 307.7223323  +6.6804744     1704.042      3806.18     4494.208     85.93732      172.286     344.3322      2.373     6.99     1031.525      60.7183     239.8777        31     2.073     1.088 -21.20  16
         5    738.4043      8.2563 307.6382322  +6.6879030     1363.948     2780.534     3376.162     85.66232     172.0804     343.6463      2.193     8.20     1024.088      60.7183     205.8326        25     1.982     0.948 -27.65  16
         6    474.6931      8.6545 307.7478447  +6.6789126     1083.368     2365.409     2520.931     86.21144     172.2175     344.6747      2.293     8.29     1034.029      60.7183      119.391        21     2.276     0.844 -27.20  16
         7   1003.2742      5.5754 307.5282108  +6.6978504      1314.12     2483.258     2585.234     85.93732     172.0804     322.0612      2.131     4.72     1013.204      60.7183     178.0648        14     1.258     0.790 -49.73  18
         8    721.6666      2.4692 307.6453844  +6.6897331     4756.824     9277.136     9975.281     86.34818     154.1432     278.8286      2.083     7.13     1024.549      60.7183      561.614        38     2.105     1.064 -15.41  24
         9    641.4872      2.0996 307.6787283  +6.6872043     2229.606     4020.496     4016.076     84.13375     149.2436      272.711      1.937     7.10     1028.886      60.7183      293.588        25     1.894     0.907 -12.82  24
        10    255.6607   1007.3945 307.8052481  +6.2591734     956.0873      1659.26     1688.376     85.66232      172.149     344.2294      1.861     5.44     1086.131      60.7183     135.9386        10     1.275     0.655 -54.88   2
        11    905.7868   1022.1972 307.5347101  +6.2748079     1207.652     1956.776     2061.316     85.93732      158.073     284.0682      1.834     3.73     1070.639      60.7183     196.8861        10     1.183     0.575 -30.98  26
        12    808.6501   1023.7407 307.5750070  +6.2709301     1406.967     1608.184     1884.665     74.14597     135.7485     257.9949      1.056     2.89     1071.794      60.7183     372.9644         9     1.108     0.428  -5.37  24
        13    597.5128   1021.7590 307.6627739  +6.2646943      53713.6     106632.2     115577.9     86.34818     163.4304     291.1644      2.101     7.23     1080.278      60.7183     7570.787        71     2.190     1.070 -23.91  24
        14    967.7037   1008.6769 307.5094428  +6.2824548     3720.201     4198.066     4356.353     85.93732     172.4913     344.5377      1.141     2.73      1068.29      60.7183     673.3549        13     1.045     0.674 -44.67   3
        15    971.0083   1007.4982 307.5081095  +6.2830516     5284.816     7597.076     7558.262     86.07449     171.8746     344.2294      1.502     3.28     1068.055      60.7183     773.2124        20     1.325     0.795 -55.23   3
        16    727.2196   1006.8383 307.6093974  +6.2751907      1862.29     2983.695     4579.054     85.93732     172.0804     344.1609      1.974     4.84     1075.251      60.7183     296.3302        17     1.542     0.794 -37.43   3
        17    730.9688   1005.1288 307.6078974  +6.2760218     2181.869     3268.842     3539.233     86.21144      172.286      344.435      1.540     3.44     1075.098      60.7183     328.6599        14     1.309     0.716 -44.14   3
        18    745.6857   1005.2542 307.6017801  +6.2764616     715.8405     1134.439     742.2256     86.34818     172.2175     344.6404      1.682     5.52     1074.492      60.7183     128.5862         9     1.712     0.501 -21.15   0
        19    376.5848   1003.5912 307.7551495  +6.2647992     1362.179     2708.173     3022.209     86.07449     172.0119     344.3322      1.999     7.04     1082.807      60.7183     191.1758        18     1.762     0.788 -22.69   0
        20    558.7538    993.6103 307.6798177  +6.2750210     3048.823     6173.683     6830.893     85.79993      172.149     344.1266      2.115     6.86     1079.523      60.7183     416.4403        33     2.051     0.974 -26.00   0
        21    529.6506    994.7351 307.6918687  +6.2735826     754.2378     1194.332     636.9188     86.21144     172.2175     344.5035      1.767     5.53     1079.865      60.7183     105.1038         9     1.532     0.562 -29.62   0
        22    763.3160    992.8907 307.5948709  +6.2821555     5841.173     11688.25     12389.71     86.07449      172.628     344.6062      2.052     6.86     1073.193      60.7183     908.8348        36     2.074     0.901 -25.03   0
        23    309.1150    992.1233 307.7835595  +6.2672723     10633.75      22509.9     25609.71      86.4847      172.628      344.572      2.287     7.37     1085.144      60.7183     1535.989        58     2.428     1.101 -28.51   0
        24    824.5901    992.4535 307.5694331  +6.2843815     792.3265     1638.052     1994.285     85.66232     172.2175     344.1609      2.440     6.23     1070.689      60.7183     137.6066        11     1.800     0.606 -26.08   0
        25    433.2406    992.7435 307.7319814  +6.2711768     682.5089     1238.795     1230.182     86.34818     172.3544     344.5035      1.988     6.71     1080.906      60.7183     117.2739        11     1.881     0.672 -19.71   0
        26    278.0898    991.0000 307.7964839  +6.2666954     537.2595     907.5617     1345.034     85.52448     171.7373     344.0923      2.180     4.94     1085.809      60.7183     105.6992         5     0.948     0.729 -73.18   2
        27    281.3046    989.3312 307.7952047  +6.2674923     652.0657     861.2887     1058.344     86.21144     172.3544     344.5035      1.307     3.34     1085.764      60.7183     113.6898         5     0.752     0.471 -26.96   3
        28    922.3630    987.2916 307.5289919  +6.2897742     4680.154     5872.037     6121.802      86.4847     172.2175     344.5035      1.257     3.01     1069.143      60.7183     827.0259        17     1.186     0.786 -50.95   3
        29    925.5347    985.9852 307.5277181  +6.2904194     6929.842     10046.73     10470.33     85.79993      172.149     344.4007      1.544     3.52     1069.058      60.7183     1073.528        23     1.349     0.866 -46.33   3
        30    556.0038    985.7081 307.6812252  +6.2781920     5947.472     12097.85     13279.09     85.93732     171.9433     344.2294      2.112     6.83     1079.322      60.7183     879.6562        43     2.159     1.004 -24.40   0
        31    898.2441    982.5652 307.5391688  +6.2909217     9224.063     18783.24     20283.67     86.07449     172.2175     344.3322      2.098     8.42     1069.226      60.7183     1483.203        45     2.195     0.943 -22.76   0
        32    611.2015    983.0138 307.6583877  +6.2811509     1014.192     2130.677     1867.798     85.93732     171.9433     344.2294      2.131     6.90     1078.542      60.7183     161.5723        15     1.893     0.706 -30.03   0
        33   1019.8958    981.9791 307.4886547  +6.2952180     3652.554     7505.879     8086.336     86.21144     172.0804     316.4443      2.102     7.54     1064.643      60.7183     545.7994        32     2.052     0.936 -23.00  16
        34    540.3196    982.3275 307.6878536  +6.2790631     2515.283     3548.906     3572.536       86.621     172.5597     344.5035      1.433     3.97     1079.428      60.7183      369.006        13     1.219     0.651 -42.98   3
        35    543.3320    981.2996 307.6866368  +6.2795883     2943.169     4407.477     5000.945     86.34818     172.4229      344.435      1.637     3.51     1079.348      60.7183     461.5844        18     1.344     0.837 -42.18   3
        36    651.9066    980.9807 307.6415477  +6.2833513     1070.123     2313.546     2301.411     86.21144     172.0119     344.2979      2.188     6.44     1076.651      60.7183      181.448        16     1.915     0.608 -23.24   0
        37    493.4212    978.7651 307.7074536  +6.2789643     972.8651     1417.111     1269.129     85.79993     172.0804     344.1951      1.406     4.55     1080.269      60.7183     155.9684         8     1.130     0.527 -60.39   3
        38    497.0073    977.3167 307.7060127  +6.2796824     1334.152     1959.544     1403.273     85.93732     171.9433     344.2979      1.523     4.53     1080.178      60.7183      205.109        12     1.248     0.647 -41.68   3
        39     78.5426    980.1959 307.8797303  +6.2644552     493.8686     796.5409     654.8369     85.66232      172.149     344.1266      1.541     4.97     1086.351      60.7183     84.29456         5     1.139     0.613 -26.77   0
        40    929.9606    970.1040 307.5264106  +6.2971248     32868.39     66291.16     72377.25     86.34818      172.149     344.6062      2.118     7.22     1068.205      60.7183      5234.58        69     2.172     1.057 -25.23   0
        41      1.0000    970.9175 307.9122503  +6.2656787     1058.369      1374.98      1904.88     69.54831     130.7912     252.8216      1.125     4.09     1086.915      60.7183     275.6656         5     1.088     0.438 -76.31  27
        42      4.0287    969.5218 307.9110395  +6.2663569      2037.79     3144.071     3170.491     86.21144     170.2886     302.6867      1.644     4.03     1086.893      60.7183     303.8662        14     1.248     0.755 -46.65  18
        43    238.2301    968.2855 307.8138046  +6.2747370     1281.343     2102.545     2768.453     86.34818     172.0804     344.3322      2.000     4.95     1085.932      60.7183     198.3843        14     1.323     0.872 -14.51   2
        44    636.3932    966.3810 307.6484813  +6.2888613     605.4255     1167.122     864.6432     85.93732     171.9433     344.2637      1.858     5.85     1076.848      60.7183      125.399         9     1.771     0.543 -28.32   0
        45    825.6444    964.7095 307.5699239  +6.2958729     1113.219     1250.784     1495.338     86.34818     172.2175     344.6062      1.130     3.58     1070.064      60.7183     201.2174         7     0.826     0.607 -15.40   3
        46    829.1501    963.5768 307.5685055  +6.2964577     1759.454     2461.749     2703.064     85.93732     172.3544     344.3665      1.560     4.15     1069.977      60.7183     239.8552        14     1.271     0.696 -44.57   3
        47    776.2056    961.6630 307.5905626  +6.2954807     4601.989     9234.281     10615.07     85.66232     172.0119     344.1951      2.088     7.70     1071.625      60.7183     705.3804        36     2.235     0.850 -25.99   0
        48    245.6096    960.9907 307.8109850  +6.2779968     1118.181     2016.412     2448.796     85.93732     172.0804     344.3665      1.920     6.61     1085.799      60.7183     152.0929        15     1.496     0.819 -25.85   0
        49    563.6993    961.0003 307.6788579  +6.2886518      678.123     945.7857     1058.571     85.79993     171.8746     344.0237      1.473     3.59     1078.476      60.7183     119.4651         5     0.815     0.503 -32.66   0
        50    209.7319    960.6213 307.8258998  +6.2769450     620.8759     1353.869     1339.553     85.93732     172.2175     344.4007      2.140     4.97     1085.981      60.7183     97.38452         8     1.362     0.513 -32.22   0
        51     70.6532    958.9580 307.8837234  +6.2729593      1951.77     3987.426     4144.715     86.34818     172.3544     344.5035      2.061     6.85     1086.387      60.7183     287.6022        25     1.993     0.888 -22.56   0
        52    964.2762    956.8392 307.5125993  +6.3037460     5107.258     10503.74     11380.29     86.21144      172.286     344.5377      2.114     8.00     1066.057      60.7183     761.7766        36     2.184     0.867 -25.41   0
        53    935.7308    949.5677 307.5247004  +6.3057972     1213.266     1434.066     2003.775     86.21144      172.286     344.5035      1.215     2.68     1066.968      60.7183      268.199         9     0.964     0.579 -49.55   3
        54    939.1061    948.2808 307.5233413  +6.3064411      1659.83     2457.667     2345.349     86.07449     172.5597     344.5377      1.525     4.48      1066.74      60.7183     254.3177        10     1.178     0.606 -42.56   3
        55    797.9561    944.9638 307.5820867  +6.3031024     1096.174     2205.723     2869.225     86.07449     172.2175     344.3322      2.386     7.11     1070.253      60.7183     156.9125        15     1.829     0.775 -20.22   0
        56    658.9283    944.4868 307.6398546  +6.2986553     3222.926     6400.107     6817.069      86.4847     172.5597     344.4692      2.087     7.77     1075.332      60.7183     527.3116        28     2.014     0.838 -28.10   0
        57    270.9999    944.8088 307.8009834  +6.2855305     3144.019     6798.974     7860.871     85.66232     171.9433     344.2637      2.320     6.59     1085.409      60.7183     418.2178        34     2.121     0.988 -23.48   0
        58    482.3438    942.6115 307.7132693  +6.2935219      687.039     1209.305      995.152     85.66232     172.2175     344.1266      1.675     4.89     1080.458      60.7183     117.6555         7     1.651     0.410 -56.48   2
        59     40.9009    941.8857 307.8966570  +6.2790082      1416.66     2663.211     3434.868     86.34818     172.7646     344.5377      2.437     4.11     1086.614      60.7183     236.9434        16     1.323     0.842 -47.19   2
        60    891.7346    940.3876 307.5432837  +6.3081210     794.1799     959.3828     994.9301     85.79993     172.0804     344.3665      1.205     3.61     1067.902      60.7183     151.8551         5     0.743     0.713 -62.19   0
        61    583.5690    937.0390 307.6714084  +6.2992107     1139.386     2056.453     1852.689     85.93732     172.0119     344.2979      1.980     6.72     1077.285      60.7183     166.3483        16     1.799     0.704 -20.92   0
        62    307.3423    938.5316 307.7860989  +6.2893417     614.0837     1347.915     1803.304      86.4847     172.2175     344.4007      2.240     6.82     1084.772      60.7183     107.8341        11     2.034     0.642  -5.41   0
        63   1015.9463    937.0512 307.4917964  +6.3136386      637.894     1135.473     1181.995      86.4847     172.2175     344.5035      1.390     3.22     1062.865      60.7183     129.5996         5     0.971     0.354 -33.82   0
        64    623.6951    933.1168 307.6548717  +6.3021724     697.0506     1340.055     930.2715     86.21144     172.6964     344.6062      1.878     4.24     1076.089      60.7183     150.3335         7     1.334     0.385 -53.67   2
        65     72.8064    934.1638 307.8836653  +6.2832694     529.7241     798.0706      1309.69     85.38643     172.0119     344.2294      1.636     3.80     1086.345      60.7183     83.00378         5     0.953     0.435 -44.24   0
        66    303.1619    931.2109 307.7880817  +6.2922243      1062.72     2117.139     2650.763     85.66232     172.0804     344.1609      2.168     7.17     1084.789      60.7183      149.312        14     1.528     0.942 -23.96   0
        67    769.5120    927.1779 307.5944981  +6.3094971     677.6803     1333.781     1582.335     86.34818     172.0804     344.3665      2.035     5.89     1070.792      60.7183     103.1412        11     1.672     0.583 -27.24   0
        68    904.7136    924.6434 307.5384188  +6.3150551     3418.722     4301.091     4203.286     86.34818      172.149     344.4692      1.201     2.85     1066.932      60.7183      635.785        15     1.087     0.696 -48.01   3
        69    908.0316    923.4766 307.5370795  +6.3156476     5350.551     8102.305     8348.989     86.21144     172.3544      344.435      1.550     3.92     1066.745      60.7183     817.7681        24     1.453     0.836 -44.17   3
        70    442.6707    921.0281 307.7304742  +6.3011054     1421.502      3049.12     3463.006     86.07449      172.286     344.4007      2.183     7.04     1080.653      60.7183     209.0103        24     2.185     0.804 -21.59   0
        71    344.5864    919.3442 307.7712740  +6.2985135     6455.147      13381.6      14888.9     85.66232     172.2175     344.1951      2.162     6.66     1083.913      60.7183     828.0579        46     2.197     1.059 -26.26   0
        72    264.6773    918.3515 307.8045003  +6.2962430     4943.919     10381.01     11470.88     86.21144     172.3544     344.4692      2.200     6.40     1085.297      60.7183      637.592        42     2.084     1.095 -27.26   0
        73    593.6751    912.3395 307.6680391  +6.3097478     855.4771     1419.563     1452.738       86.621      172.286     344.4692      1.862     5.20     1076.279      60.7183     107.8059         9     1.240     0.616 -54.44   2
        74    924.4506    908.2280 307.5307688  +6.3224916     736.9163     1181.348     1355.637     85.93732     172.4229     344.3665      2.463     5.28      1065.54      60.7183     130.1769        10     1.420     0.555 -42.35   2
        75    758.9746    901.8256 307.5997247  +6.3196139     1055.175     2185.837     1958.708     85.79993     172.0804     344.3322      1.993     6.56     1070.098      60.7183     172.7058        16     1.922     0.720 -25.68   0
        76    623.3948    898.4557 307.6561592  +6.3164747     712.2456      1316.81     1220.812     85.79993     172.0804     344.1609      1.922     6.30     1074.948      60.7183     119.3397        11     1.707     0.653 -23.25   0
        77     10.3899    898.6184 307.9107901  +6.2958472      712.837     1207.545     1111.098     85.93732     171.9433     344.3322      2.064     6.09     1086.211      60.7183     134.9142        10     1.638     0.636 -18.27  16
