#   1 NUMBER                 Running object number                                     
#   2 X_IMAGE                Object position along x                                    [pixel]
#   3 Y_IMAGE                Object position along y                                    [pixel]
#   4 ALPHA_J2000            Right ascension of barycenter (J2000)                      [deg]
#   5 DELTA_J2000            Declination of barycenter (J2000)                          [deg]
#   6 FLUX_APER              Flux vector within fixed circular aperture(s)              [count]
#   9 FLUXERR_APER           RMS error vector for aperture flux(es)                     [count]
#  12 FLUX_RADIUS            Fraction-of-light radii                                    [pixel]
#  13 FWHM_IMAGE             FWHM assuming a gaussian core                              [pixel]
#  14 BACKGROUND             Background at centroid position                            [count]
#  15 THRESHOLD              Detection threshold above background                       [count]
#  16 FLUX_MAX               Peak flux above background                                 [count]
#  17 ISOAREA_IMAGE          Isophotal area above Analysis threshold                    [pixel**2]
#  18 A_IMAGE                Profile RMS along major axis                               [pixel]
#  19 B_IMAGE                Profile RMS along minor axis                               [pixel]
#  20 THETA_IMAGE            Position angle (CCW/x)                                     [deg]
#  21 FLAGS                  Extraction flags                                          
         1      2.9166     86.2290 307.9356071  +6.6323984     705333.3      1280550      1350272     78.11015     144.2022     258.5398      1.942    10.50     837.5622     54.92549     62453.74       275     2.099     1.465 -69.58  28
         2    690.9440     20.3285 307.6519705  +6.6825598     1652.533     2638.984     2659.668     77.98647     155.7871     311.5742      1.694     4.89     819.6465     54.92549     267.0707        17     1.619     0.720 -45.45   0
         3    179.0077     13.5476 307.8648897  +6.6682935     10660.99     16427.65     17037.15     77.61421     155.6631     311.3263      1.622     4.34     830.1617     54.92549       1517.2        37     1.668     0.912 -39.94   0
         4    924.6282     11.0552 307.5551866  +6.6941477     3843.897     6104.241     6540.825     77.86257      155.911     311.4503      1.657     4.29     819.3503     54.92549     526.4468        27     1.641     0.882 -39.85   0
         5    523.3431     11.5272 307.7218984  +6.6806162     2849.047     4416.028      4122.31     78.11015     155.7871     311.5742      1.612     4.25     820.8427     54.92549     448.2676        21     1.511     0.809 -39.69   0
         6    725.2834      9.9023 307.6380505  +6.6880055     2093.203     3309.504     3737.436     78.11015     156.2203     311.6672      1.756     4.44     819.3901     54.92549      315.839        21     1.627     0.778 -39.20  16
         7    461.3540      9.9381 307.7477063  +6.6792071     1900.767     2897.459     3457.315     77.98647     155.7251     311.6362      1.606     4.87     823.5617     54.92549     257.3102        16     1.462     0.739 -39.11   0
         8    989.2852      7.4687 307.5284412  +6.6977720     1805.657     3030.578     4054.393     78.23365     156.0967     307.3944      1.948     4.03     815.0612     54.92549     258.8147        19     1.319     0.935 -30.71  16
         9    708.7487      3.8855 307.6451209  +6.6899399     7357.102     11462.08     12432.32     78.11015       152.91     271.9694      1.661     4.15     819.1107     54.92549     1042.111        38     1.695     0.997 -35.29  24
        10    629.0234      3.2282 307.6782674  +6.6875600     3671.897     5718.623     6252.092     77.61421     147.6423     262.9457      1.612     3.92     819.0164     54.92549     553.6452        26     1.546     0.875 -36.98  24
        11    330.9683      2.7522 307.8021177  +6.6778254      1074.93     1610.418     1884.976     77.86258     142.5187     256.2143      1.572     4.70     829.2642     54.92549      181.321        11     1.311     0.680 -47.69  24
        12    384.5803      1.7235 307.7798780  +6.6800387     707.0876     714.5699     814.3978     72.20144     129.2326     240.7115      1.348     4.64       827.81     54.92549     123.7004         8     1.168     0.523 -22.99  24
        13    428.1334      1.0954 307.7618040  +6.6817503     1526.325     1704.795     1820.296     64.87721     120.2555      230.551      1.007     2.91     826.1685     54.92549     513.0983         7     1.039     0.288  -3.21  24
        14     29.2195      1.1284 307.9275355  +6.6684099     1454.444     1900.246     1634.849     64.72824     120.4961     231.0529      1.009     2.61     829.3356     54.92549     501.3396         9     1.149     0.334  -1.17  24
        15    750.7549    994.8418 307.5946854  +6.2822253     6797.623     12168.21     13666.56     77.98647     155.8491     311.4503      1.957     4.33     851.4046     54.92549     812.3184        43     1.809     1.173 -45.24   0
        16    892.0078   1023.7690 307.5350823  +6.2749697     620.6358     957.8285     1111.615     66.34854     122.0879     232.5107      1.567     4.23     848.6002     54.92549     144.9372         7     1.298     0.392  -7.13  24
        17    585.1722   1022.9728 307.6624904  +6.2651089     52568.05     78435.96     82423.59     75.21384     133.7117     245.3983      1.581     5.08     854.5034     54.92549     7811.435        62     1.736     1.068 -18.42  24
        18    214.9455   1022.8509 307.8161867  +6.2528237     1745.489     2754.832     2504.224     76.36026     135.3621     247.2794      1.710     5.36     853.4706     54.92549     259.7299        20     1.565     0.897 -32.87  24
        19    516.3317    996.8843 307.6919384  +6.2735890     1075.491     1697.555     1663.593     78.35695     156.0967     311.6362      1.654     5.26      854.194     54.92549     158.4055        13     1.364     0.762 -37.24   0
        20    296.4461    994.3115 307.7833074  +6.2673251     14034.24     23345.66     25613.72     78.11015     155.7252     311.6672      1.851     4.38     852.7299     54.92549     1698.369        52     1.999     1.068 -37.01   0
        21    546.2035    995.5919 307.6795803  +6.2751166     3645.541     6480.576     7967.606     77.48973     155.5391     311.4813      1.954     4.37     854.0836     54.92549      478.707        32     1.677     1.067 -38.92   0
        22    420.7606    994.9382 307.7316790  +6.2712101     934.8276     1451.956     1671.157     78.11015     155.8491     311.6672      1.609     4.29     853.8577     54.92549     158.2442        12     1.328     0.727 -42.69   0
        23    811.6064    993.8748 307.5694546  +6.2846444     1010.116     1977.339      1926.19     77.73849     155.3528     311.4503      1.901     6.39     849.5755     54.92549     142.9927        18     1.674     0.799 -19.58   0
        24    267.5768    991.9200 307.7953719  +6.2673493     885.4429     1338.926     1467.155     77.73849     155.5391     311.5742      1.711     4.50     852.6587     54.92549     111.4861        10     1.138     0.663 -36.27   0
        25    912.0963    988.2419 307.5279221  +6.2903031     6907.342     13427.01     14654.92     78.11015     155.7871     311.7601      2.114     4.53       847.74     54.92549     801.2069        54     1.875     1.383 -38.15   0
        26    543.4379    987.7303 307.6809905  +6.2782702     7648.217     12673.86     13889.42     77.98647     155.8491     311.7291      1.785     4.17     854.0072     54.92549     914.1902        41     1.717     1.094 -40.14   0
        27    885.7179    984.5125 307.5389973  +6.2909681     10042.01     19204.78     21594.95     77.86258     156.0348     311.6672      2.077     4.63     848.6382     54.92549     1136.015        58     1.886     1.392 -35.93   0
        28   1007.3706    983.7665 307.4885159  +6.2953078     3527.958     7387.623     8053.206     77.61421     155.6011     311.3573      2.198     5.07     845.2201     54.92549     389.6457        43     1.877     1.386 -41.70   0
        29    598.3963    984.9983 307.6582654  +6.2812262     1158.473      1955.86     2214.366     77.48973     155.4149     311.3573      1.927     5.14     853.9197     54.92549     152.1609        16     1.541     0.732 -25.80   0
        30    529.9517    983.6558 307.6867250  +6.2795035     3737.872     6493.883     7612.518     78.11015     155.8491     311.6982      1.960     4.27     854.0023     54.92549     462.1289        35     1.702     1.193 -25.68   0
        31    639.2125    982.9089 307.6413900  +6.2834458     1210.196     1969.815     2034.913     77.86258     155.6011     311.4193      1.758     5.57     853.1905     54.92549     150.0663        14     1.395     0.704 -33.47   0
        32     64.9189    982.0254 307.8798318  +6.2646661     830.6376     1269.806     1241.129     77.86258     155.6631     311.5742      1.739     4.70     848.1796     54.92549     123.0865         9     1.238     0.507 -32.57   0
        33    483.1279    980.0076 307.7062855  +6.2794511     1977.181     3311.268     2942.543     77.61421     155.3528     311.5123      1.697     4.22     854.0804     54.92549     281.8745        22     1.391     1.029 -42.30   0
        34    917.4393    971.9686 307.5262442  +6.2971987     34465.64     65643.91     72308.16     77.73849     155.6631     311.4503      2.044     4.40     847.4961     54.92549     4129.861        83     1.962     1.411 -39.87   0
        35    224.6006    970.7493 307.8139205  +6.2746551     1584.367     2583.775     2506.245     77.36505      155.477     311.1712      1.712     4.07     851.6699     54.92549     260.6951        18     1.470     0.779 -30.13   0
        36    112.7057    969.7377 307.8604057  +6.2713359     594.8714     874.8268     912.1187     78.11015      155.911     311.6672      1.453     4.15     848.5394     54.92549     97.85382         6     0.981     0.501 -47.30   0
        37    763.5570    963.7975 307.5904028  +6.2954668     5706.714     10204.09     11812.14     77.48973     155.4149     311.2953      1.972     4.38     850.6671     54.92549     708.5739        44     1.979     1.180 -46.43   0
        38    623.3762    968.9334 307.6484299  +6.2886891     783.3889     1253.834     806.5425     77.73849     155.8491     311.5433      1.782     5.27     853.3167     54.92549     126.3176        11     1.301     0.604 -26.16   0
        39    815.2727    965.9689 307.5688599  +6.2962870     2110.631     3762.271     4109.851     77.98647     155.8491     311.6052      1.965     4.48     849.4857     54.92549       299.51        25     1.595     0.983 -32.47   0
        40    232.8785    963.2188 307.8107358  +6.2780402     1382.308     2209.796     2065.654     77.61421     155.5391     311.5742      1.753     4.43     851.3455     54.92549     197.4457        19     1.398     0.976 -38.42   0
        41    550.2189    963.0728 307.6789970  +6.2886754     824.5924     1341.382     1237.583     77.73849     155.7871     311.5433      1.523     5.35     853.7269     54.92549      114.538        10     1.367     0.591 -19.37   0
        42    198.0593    962.3962 307.8252181  +6.2772175     697.2999     1243.677     1041.913     77.48973     155.7251     311.3573      1.842     4.67     850.4344     54.92549     114.6168         7     1.292     0.478 -44.67   0
        43    951.7645    958.7817 307.5124310  +6.3037806      5493.08     10460.36     11326.97     77.61421     155.6631     311.3883      2.032     4.52     846.3657     54.92549     612.7743        43     1.731     1.284 -37.75   0
        44     57.8677    961.0998 307.8834597  +6.2730690     2472.275     4041.536     4552.067     78.11015     155.9729     311.5742      1.734     4.29     847.5794     54.92549     323.1504        24     1.560     1.035 -29.09   0
        45    207.9554    954.8237 307.8213631  +6.2806741     612.8692     1103.706     1274.606     77.61421     155.8491     311.4813      1.917     3.94      850.473     54.92549     90.17175         6     0.916     0.484 -35.95   0
        46    925.4927    950.4915 307.5236137  +6.3063324     1667.816     3138.408     3609.792     78.11015     156.3438     311.6053      2.055     4.99     847.1228     54.92549     183.3423        23     1.446     1.106 -33.82   0
        47    784.9957    947.1102 307.5820570  +6.3030679     1141.488      1800.01     1865.358     77.61421     155.5391     311.3263      1.611     5.21     849.9377     54.92549     170.2346        15     1.457     0.778 -42.51   0
        48    646.1205    946.4466 307.6397360  +6.2987287     4304.761     6990.276     7047.221     78.11015     155.8491     311.6053      1.771     4.25     852.4562     54.92549     569.0724        32     1.689     0.997 -31.80   0
        49    258.3465    946.8515 307.8007100  +6.2856471     4138.714     6684.551     7010.056     78.23365     155.7871     311.6362      1.709     4.32     850.8593     54.92549     534.2408        30     1.648     0.907 -34.17   0
        50    994.7204    945.9882 307.4950212  +6.3104856     588.7927     1057.912     1172.554     77.73849     155.5391     311.4503      1.896     4.33     844.9455     54.92549     95.73608         6     1.002     0.533  -0.26   0
        51    468.4919    945.0316 307.7135282  +6.2934033     970.7988     1572.915     1732.803     78.23365     155.6631     311.6362      1.798     5.99      853.442     54.92549     129.5804        14     1.452     0.876 -32.03   0
        52     27.1934    944.3088 307.8967560  +6.2789751     1920.276      3322.27     3202.828     77.73849     155.5391     311.3883      1.788     4.44      846.892     54.92549     256.5746        20     1.470     0.840 -32.96   0
        53    878.0101    943.0119 307.5435758  +6.3078460     713.9803     1189.676     870.6309     77.86258     155.6631     311.5742      1.725     5.52     848.7301     54.92549      110.565         8     1.087     0.790 -20.95   0
        54    949.7664    939.7493 307.5138923  +6.3115719     684.5616     1415.502     1383.816     77.98647      155.911     311.5123      2.245     5.42     846.2776     54.92549     120.4948         9     1.355     1.075 -13.56   0
        55    570.7358    939.1677 307.6712757  +6.2992270     1564.493     2476.636     2530.642     77.86258      155.911     311.5742      1.576     4.65     853.3311     54.92549     211.9354        18     1.419     0.851 -30.72   0
        56    294.4390    940.4083 307.7859416  +6.2895112      729.071     1191.514     1449.314     77.48973     155.6011     311.3263      1.441     4.17     850.9291     54.92549     120.0709         7     0.994     0.499 -30.34   0
        57   1002.4797    939.1266 307.4920273  +6.3135754     660.9329     1255.326     1861.448     78.35695     156.0967     311.6672      2.392     6.07     844.6186     54.92549     99.98767         7     1.217     0.912  75.81   2
        58     59.4154    936.0425 307.8836564  +6.2834650     811.8307      1501.87     1839.321     77.61421     155.6011     311.3883      2.071     5.86     846.9789     54.92549     157.1738        15     1.556     0.996  -4.11   0
        59    610.1312    935.4393 307.6550442  +6.3020765      1287.65     1935.115     1848.244     77.98647     155.8491     311.6982      1.702     5.91     852.9945     54.92549     163.5895        16     1.298     0.870 -21.87   0
        60    290.2806    933.0214 307.7879148  +6.2924220     1338.503     2398.642     3033.028     77.86257     155.5391     311.5742      2.046     6.86     850.6825     54.92549      174.534        17     1.788     0.738 -35.22   0
        61    756.8132    929.2446 307.5943518  +6.3095080     718.6464     1267.388     1541.083     77.48973     155.6631     311.3573      2.094     6.10      850.533     54.92549     103.1912        10     1.553     0.674 -10.39   0
        62    894.4471    925.5765 307.5373305  +6.3155893     5901.866     10614.18     11503.17     77.73849     155.8491     311.4813      1.939     4.27     848.0729     54.92549     653.9086        46     1.792     1.238 -41.87   0
        63    103.4196    925.2043 307.8657514  +6.2894102     500.8022      759.448     863.6803     77.73849      155.477     311.4193      1.852     3.38     847.1702     54.92549     81.84412         5     1.186     0.278 -35.03   0
        64    430.2828    922.9930 307.7301264  +6.3012290     1932.241     3220.378     3336.217     77.73849     155.5391     311.4813      1.768     5.21      852.392     54.92549      221.436        23     1.715     0.861 -35.89   0
        65    331.9698    921.4119 307.7709951  +6.2986052      8806.28     14508.84     15459.96     77.61421     155.6011     311.5123      1.765     4.18     850.5732     54.92549      1134.78        41     1.778     1.018 -37.50   0
        66    252.0182    920.2743 307.8042256  +6.2964079     6516.001     10914.25     11858.62     77.61421     155.6631     311.5123      1.774     4.18     850.0099     54.92549     862.8468        36     1.672     1.045 -36.52   0
        67    579.9473    915.0425 307.6682552  +6.3094933     1019.953     1435.308     1621.079     78.11015      155.911     311.6362      1.396     4.78     852.7324     54.92549     186.1797        11     1.263     0.649 -31.07   0
        68    764.3472    914.3670 307.5917186  +6.3159003     682.2374     1157.903     1421.288     77.98647     155.8491     311.5123      1.790     3.96     850.2369     54.92549     103.5236         6     1.062     0.423 -33.27   0
        69    910.4550    910.6725 307.5311793  +6.3222731     999.8942     1613.226     1875.313     77.98647     155.7252     311.5433      1.940     6.85     847.3777     54.92549     128.2802        14     1.513     0.870 -42.23   0
        70    865.9539    909.9918 307.5496783  +6.3210784     696.0363     925.9247     769.8953     77.61421     155.7251     311.2643      1.530     5.03      848.746     54.92549     88.25635         7     0.936     0.763  -5.95   0
        71    838.6370    904.5828 307.5611997  +6.3224054     454.0676     620.9611     356.5756     77.73849     155.7252     311.3573      1.517     4.26     848.9615     54.92549     68.08875         5     1.005     0.515 -42.97   0
        72    746.4592    903.8207 307.5994962  +6.3196603     1474.668     2498.074     2769.196     77.73849     155.7251     311.4503      1.821     6.15     850.5415     54.92549     216.5238        20     1.744     0.828 -38.70   0
        73    570.4503    904.2881 307.6725565  +6.3136173     698.6008     837.3076     918.4204     78.11015     155.6631     311.7291      1.640     3.67      852.507     54.92549     116.3905         6     1.036     0.446  -4.68   0
        74    978.1737    899.2786 307.5034411  +6.3292215     1155.835      1899.59     3149.457     77.98647     155.7871     311.5433      2.197     5.08     845.1566     54.92549      154.606        16     1.244     0.989 -28.90   0
        75    610.3564    900.6681 307.6561088  +6.3164391      693.465     1355.193     1224.697     78.11015     155.7871     311.6362      1.760     3.91     852.0724     54.92549     114.4146         6     1.289     0.339 -15.22   0
        76    531.6503    899.9466 307.6888101  +6.3141187     1197.822     1729.791     1973.005     78.23364     155.7871     311.6362      1.566     4.44      852.552     54.92549     182.4966        13     1.208     0.742 -10.44   0
        77    665.1596    897.1559 307.6334724  +6.3197109      2237.61     3491.213     4047.305     77.86258     155.8491     311.4813      1.731     4.98     851.4247     54.92549      278.802        22     1.580     0.913 -40.72   0
