#   1 NUMBER                 Running object number                                     
#   2 X_IMAGE                Object position along x                                    [pixel]
#   3 Y_IMAGE                Object position along y                                    [pixel]
#   4 ALPHA_J2000            Right ascension of barycenter (J2000)                      [deg]
#   5 DELTA_J2000            Declination of barycenter (J2000)                          [deg]
#   6 FLUX_APER              Flux vector within fixed circular aperture(s)              [count]
#   9 FLUXERR_APER           RMS error vector for aperture flux(es)                     [count]
#  12 FLUX_RADIUS            Fraction-of-light radii                                    [pixel]
#  13 FWHM_IMAGE             FWHM assuming a gaussian core                              [pixel]
#  14 BACKGROUND             Background at centroid position                            [count]
#  15 THRESHOLD              Detection threshold above background                       [count]
#  16 FLUX_MAX               Peak flux above background                                 [count]
#  17 ISOAREA_IMAGE          Isophotal area above Analysis threshold                    [pixel**2]
#  18 A_IMAGE                Profile RMS along major axis                               [pixel]
#  19 B_IMAGE                Profile RMS along minor axis                               [pixel]
#  20 THETA_IMAGE            Position angle (CCW/x)                                     [deg]
#  21 FLAGS                  Extraction flags                                          
         1    189.6783     18.4758 307.8649869  +6.6679999     10594.71     16698.37     17564.28     79.32701     158.0291      315.557      1.752     4.08     855.8678     55.60547     1284.137        44     1.643     1.085  70.41   0
         2      2.8508     18.5895 307.9425926  +6.6616422     1048.199     1832.921     1871.142     78.44905     145.5122      260.642      1.830     4.24     857.6904     55.60547     160.0229        11     1.331     0.633  89.39  16
         3    935.3574     16.2860 307.5552768  +6.6939712     4036.694     6119.116     6163.067     79.07716      157.653     315.4629      1.620     4.01     837.8439     55.60547     534.3099        23     1.434     0.863  74.29   0
         4    533.8774     16.5156 307.7220635  +6.6804038     2881.313     4462.539     4702.794     79.20218     158.0917      315.557      1.680     4.19      842.532     55.60547     343.8175        21     1.452     0.886  75.73   0
         5    472.2498     15.1067 307.7477134  +6.6789123     1683.224     2485.874      2372.68     78.95193      157.653     315.6197      1.563     4.13     843.6171     55.60547      228.412        16     1.381     0.733  63.90   0
         6    736.2314     14.9978 307.6380478  +6.6878277     1840.322     2915.802     2469.782     78.44905     157.5903     315.2433      1.575     3.86     840.0983     55.60547     326.7839        16     1.327     0.716  72.13   0
         7   1000.0894     12.2924 307.5285171  +6.6977863     1883.542     2958.352     3028.892     79.07716     158.2794     315.5256      1.744     4.68     831.2909     55.60547      246.816        20     1.526     0.874  85.26   0
         8    719.4373      8.9314 307.6452288  +6.6897677     7214.645     11220.87     11602.24     78.95193     157.7785      315.557      1.662     4.17      840.371     55.60547     953.9708        34     1.526     1.001  74.54  16
         9    639.6223      8.2582 307.6784105  +6.6873656     3552.182     5482.554     5510.281      78.7009     157.7785      314.835      1.665     4.17     841.7927     55.60547     459.5322        26     1.564     0.894  72.31  16
        10    341.5813      7.7423 307.8022455  +6.6775517     927.3323     1245.039     1385.355      78.7009     157.7158     312.5324      1.578     5.70     853.0441     55.60547     116.7809        12     1.172     0.780  79.48  16
        11    439.8328      4.3876 307.7615418  +6.6822450     6021.869     9666.037     9960.988     78.57507     157.3389     281.5197      1.711     4.23     846.5074     55.60547     750.2873        33     1.573     0.977  80.11  24
        12    395.7836      6.5260 307.7797693  +6.6798795     707.2709      957.793     754.5867     78.57507     157.5275      303.897      1.343     4.20     850.0083     55.60547     115.9237         6     1.052     0.478  60.89  16
        13     40.7726      4.0161 307.9273330  +6.6689383       8137.6     13175.24     13811.49      78.7009     155.6953     276.7701      1.687     4.03     856.0418     55.60547     1024.913        38     1.612     1.034  77.10  24
        14    687.0088      3.2699 307.6588917  +6.6910157     742.9666     989.3289     911.5914     78.57507     149.6686     266.7208      1.500     5.11      841.064     55.60547     106.3922         9     1.312     0.562  76.72  24
        15    336.7113      1.4318 307.8044816  +6.6799919     4574.028     5466.316     5953.385     70.19516      126.839     239.2664      1.056     2.35     853.2459     55.60547     1258.118        16     1.118     0.648  -0.07  24
        16    515.5645      1.6696 307.7301715  +6.6859149     779.0363     949.2723      971.509      72.9598     130.6054     242.9596      1.308     3.63     842.2999     55.60547     125.0261         8     0.943     0.797  23.03  24
        17    431.7769      1.4412 307.7649879  +6.6831898     505.3614     544.8182     1244.125     70.05407      126.917     238.9768      1.017     3.32     847.2788     55.60547       105.25         5     0.727     0.471 -16.44  24
        18    110.3807      1.2899 307.8985092  +6.6724151     1034.565     1334.362     1152.247     68.04801     124.5563     236.5214      1.100     2.20     855.8575     55.60547     252.1832         7     0.878     0.451  -4.07  24
        19    895.6458    989.5734 307.5391405  +6.2909500     11277.71     19363.31     20917.42     78.57507     157.8412     315.3688      1.858     4.14      869.717     55.60547      1257.85        51     1.681     1.265  74.45   0
        20    727.6874   1023.5198 307.6077257  +6.2713117      3084.47     3699.148     4196.868     70.61676     127.7716     239.9684      1.108     2.81     875.9573     55.60547     697.4742        12     1.044     0.643  11.79  24
        21    719.8373   1023.6215 307.6109809  +6.2710065     619.3605     716.6142      1024.71     69.05832     125.8208     237.8978      1.184     2.99     875.9613     55.60547     117.3625         5     0.718     0.464  14.92  24
        22    594.7278   1023.9053 307.6629057  +6.2666909     705.3895     1250.171     1905.222     65.37842     121.5816     233.3629      1.720     3.82     877.3904     55.60547     153.8033         7     1.492     0.281  -3.22  24
        23    583.9051   1023.0608 307.6674266  +6.2666760     2880.361     3649.392     3769.142     75.62344     134.4135     247.1586      1.332     3.22     877.6023     55.60547     557.1387        17     1.054     0.982  56.24  24
        24    442.3215   1023.5356 307.7261824  +6.2617220     1671.547     2176.844     2355.586     70.61676     127.4615     239.6383      1.238     2.87     877.7786     55.60547     373.1606        12     1.082     0.641  -0.33  24
        25    608.5814    990.1100 307.6582904  +6.2811038     1334.327     1919.493     1523.294     78.82652     157.5275     315.3688      1.524     4.59     876.1711     55.60547     190.5928        13     1.372     0.619 -85.80   0
        26   1017.3998    989.0311 307.4886143  +6.2952479     4106.273     7394.262     7699.769     78.32283     157.5903     311.8351      1.909     4.31     865.3088     55.60547     458.1212        36     1.593     1.195  74.57  16
        27    539.7932    988.5893 307.6868967  +6.2794210     3910.592      6120.33      6911.44     78.57507     157.5903     315.3688      1.687     3.80     877.3391     55.60547     513.5102        27     1.539     0.928  70.47   0
        28    649.3674    987.9609 307.6414315  +6.2833599     1288.061     2238.776     2100.015      78.7009     157.5903     315.2747      1.831     4.32     875.4475     55.60547     168.8333        15     1.233     0.933  80.07   0
        29    804.9317    986.6390 307.5768971  +6.2891225     648.7349     991.7526     1209.419     78.95193     157.7785     315.5883      1.633     5.52     871.9575     55.60547     99.66864         6     1.067     0.805 -81.84   0
        30    493.1978    985.0859 307.7063570  +6.2793011      2151.11     3353.362     3337.239     78.44905     157.4018     315.1805      1.551     3.88      877.208     55.60547     307.2794        21     1.524     0.884  78.31   0
        31     74.7103    986.6895 307.8800174  +6.2645440     804.2143     1390.024     1478.313     79.07716     158.2794      315.557      1.798     5.37     875.9925     55.60547     115.0101         9     1.078     0.921  29.67   0
        32    927.4337    977.1188 307.5263614  +6.2971544     40302.99     68003.34     73586.65     78.95193     157.7158     315.4943      1.833     3.95     868.6917     55.60547     4837.067        80     1.787     1.306  75.42   0
        33      1.3265    976.8787 307.9108093  +6.2661153     1454.204     1933.771     1977.159      68.9149     125.5059     237.2732      1.345     4.38     876.3258     55.60547     320.8855        12     1.412     0.538  88.36  24
        34    234.7672    975.3675 307.8139609  +6.2746143     1750.612     2856.408     3067.604     78.57507     157.5275     315.2119      1.762     4.71     876.5278     55.60547     229.7079        19     1.446     0.874  79.15   0
        35    122.7345    974.3340 307.8605002  +6.2712635     638.1078     1002.638     924.6014     79.07716     157.7785     315.4943      1.799     5.06     875.5518     55.60547     105.8784         8     1.272     0.569  75.25   0
        36    825.4841    971.1550 307.5688843  +6.2962017     2219.042     3574.702     4077.582     79.07716     157.7785     315.4943      1.729     4.98      871.142     55.60547     251.5707        24     1.690     0.885  79.55   0
        37    633.7938    973.4893 307.6483825  +6.2888098     783.3553     1166.718     905.5464     78.57507     157.4646     315.2433      1.668     5.48     875.3005     55.60547     110.3246        10     1.270     0.668  42.46   0
        38    773.5898    968.8970 307.5905032  +6.2953945     6466.462     10552.49     11722.31     78.82652     157.4018     315.3061      1.812     3.91     872.4802     55.60547      745.448        43     1.701     1.135  86.55   0
        39    560.3807    968.2937 307.6790328  +6.2884889     972.4457     1518.079     1183.363     78.95193     157.5903     315.3374      1.619     5.91        876.4     55.60547     120.8639        12     1.274     0.772  75.00   0
        40    242.7586    967.5676 307.8109067  +6.2781026     1385.465     2252.071     2898.206     78.82652     157.7158     315.3374      1.813     4.80     876.4926     55.60547     192.5255        17     1.424     0.830  88.67   0
        41    207.2114    967.4681 307.8256658  +6.2769457      756.744      1298.98     1189.312     78.57507     157.5903     315.3374      2.059     5.32     876.1347     55.60547     113.2512        11     1.202     0.884  62.65   0
        42     67.8636    965.6625 307.8835696  +6.2729906     2660.372     4164.705      4185.78     79.07716     157.7785     315.4943      1.676     4.03     875.5315     55.60547     336.7743        22     1.515     0.829  73.79   0
        43    961.7794    963.9003 307.5125458  +6.3037593     6173.457     10541.57      11021.1     79.07716     157.5903     315.2433      1.844     3.91     866.8239     55.60547      728.531        38     1.591     1.184  73.64   0
        44    218.3293    959.5904 307.8213164  +6.2805715     528.1024     1101.484     1080.593     78.57507     157.4018     315.3061      1.713     6.26     876.1995     55.60547     99.93622         6     1.676     0.656  81.32   0
        45    644.8773    957.9805 307.6443025  +6.2955825     648.9645     1304.268     1420.082      78.7009     157.5275     315.4315      2.230     5.87     874.7219     55.60547     80.47485         8     1.276     0.760  81.08   0
        46    935.5213    955.6062 307.5237245  +6.3063038     1997.837     3010.826     2696.309      78.7009      157.276     315.2433      1.716     4.40     867.8026     55.60547     245.4219        21     1.522     0.876  69.15   0
        47    795.0468    952.3818 307.5821496  +6.3029298      1287.67     2245.222     2290.144     78.57507     157.7158     315.2433      1.866     4.58     871.5523     55.60547     179.6846        16     1.449     0.737  74.06   0
        48    656.3138    951.5258 307.6397715  +6.2986302     4482.282     6866.099     6859.106     79.20218     158.0917     315.4943      1.648     3.86     874.3837     55.60547     581.0698        29     1.421     1.070  77.46   0
        49    268.3664    951.5251 307.8008176  +6.2855861     4337.309     6866.971     7095.945     78.95193     157.7785     315.4315      1.732     3.94     876.5498     55.60547     547.8185        31     1.624     0.988  74.08   0
        50   1005.5250    950.3988 307.4948370  +6.3107951     682.7399     1140.546     1873.261     78.32283     157.2131     315.3374      1.825     5.34     864.2942     55.60547     112.7474         8     1.160     0.834 -76.78   0
        51    904.8939    951.3552 307.5365817  +6.3070330     3649.067     4280.462     3506.592     78.95193     157.7158     315.5883      1.183     3.93     868.6556     55.60547     1169.485         9     1.234     0.359 -17.79   0
        52    478.6674    949.7739 307.7135768  +6.2933861     1153.939     1883.781     1472.482      78.7009      157.653     315.3688      1.705     6.79     876.0772     55.60547     136.2785        16     1.360     0.950 -76.33   0
        53     37.1101    948.8842 307.8969021  +6.2788768     2068.778     3586.493     4079.849     78.82652     158.0291     315.5883      1.832     4.52     875.2053     55.60547     254.8724        21     1.473     0.917  78.21   0
        54    887.9187    948.1242 307.5437371  +6.3077981     785.3352     1160.664     888.6401     79.32701     158.0291      315.557      1.592     5.31     869.0531     55.60547      119.015         7     1.064     0.750  88.32   0
        55    980.3210    946.3626 307.5054355  +6.3116178     542.6243     843.4148     373.1103     78.95193     157.8412     315.4629      1.569     5.38     865.4075     55.60547     82.63831         8     1.392     0.587  64.62   0
        56    580.8754    944.0804 307.6713387  +6.2991703     1795.129      2779.73     2670.708     79.32701     158.0291      315.557      1.630     4.30     875.3424     55.60547     263.3092        16     1.424     0.730  77.77   0
        57    304.4478    946.5744 307.7860066  +6.2888446     625.0605     884.1981     1343.628      78.7009     157.8412     315.3688      1.371     3.19     876.7468     55.60547     129.8067         5     0.788     0.437 -67.28   3
        58    303.7106    943.7186 307.7864089  +6.2899983     553.1934     1014.146     1605.556     78.82652     157.9665      315.557      1.939     2.46      876.744     55.60547      125.668         5     0.676     0.591  42.59   3
        59   1012.3353    943.8848 307.4922277  +6.3137113     843.2947     1867.574     1478.424     79.20218     157.9665     315.5256      2.014     6.86     863.7746     55.60547     108.0844        13     1.700     0.775 -81.52   0
        60    959.4401    944.9012 307.5141531  +6.3115224     675.5704     971.9016     783.3391     79.07716      157.653     315.6824      1.411     3.96     866.3989     55.60547     130.4681         5     0.925     0.484 -82.03   0
        61     69.9205    941.2947 307.8835389  +6.2831166     769.7832     1377.021     1766.453     78.82652     158.0291     315.5256      2.101     5.00     874.9009     55.60547     106.6224         9     1.052     0.672  86.64   0
        62    620.3940    940.1265 307.6550661  +6.3021292     1159.294     1730.927     1530.969      78.7009     157.3389     315.3688      1.617     4.53     874.6511     55.60547     141.6688        15     1.218     1.006 -88.25   0
        63    299.9539    938.0068 307.7881608  +6.2922291     1460.166      2225.86     2197.745     78.57507     157.5275     315.1177      1.569     4.11     876.7336     55.60547     191.8926        14     1.207     0.786  75.31   0
        64    567.8270    936.3268 307.6770162  +6.3019320     597.3304     750.1179     358.2503     78.82652     157.7158     315.4002      1.218     4.71     875.2857     55.60547      94.5954         7     1.008     0.626  89.46   0
        65    766.8300    933.8911 307.5944838  +6.3096153     880.9593     1493.815     650.5969     79.20218     157.5275     315.4315      1.645     6.32     871.5461     55.60547     137.8574        13     1.374     0.816  75.05   0
        66    904.5566    930.7778 307.5374112  +6.3155144     6708.804     10901.21     11417.06     78.57507      157.653     315.2747      1.742     3.98      868.217     55.60547     802.4214        34     1.518     1.081  74.80   0
        67    141.8936    932.3307 307.8539653  +6.2892444     487.2107     867.7855     780.3674     78.95193     157.9039     315.4629      1.494     5.90     874.8323     55.60547     83.78906         7     1.572     0.624 -60.69   0
        68    440.2368    927.7913 307.7302701  +6.3011663     2313.514     3682.787     3355.123     78.32283     157.5275     315.2119      1.651     4.39     875.9857     55.60547     287.6048        20     1.489     0.838  80.81   0
        69    342.0120    926.2661 307.7710973  +6.2984907     9330.756     14569.87     15754.19     78.57507     157.5903     315.3688      1.675     4.23     876.6824     55.60547     1172.437        35     1.576     0.994  80.04   0
        70    262.0650    925.1289 307.8043234  +6.2962676     6952.578     10693.21     10926.54     79.07716     157.8412     315.4629      1.626     3.91     876.3618     55.60547      972.235        32     1.529     0.978  78.02   0
        71    590.1325    919.7678 307.6683129  +6.3095153     1117.873     1686.795     1770.297     78.95193     157.7785     315.4315      1.590     4.48     874.5541     55.60547      191.903        10     1.230     0.552  79.22   0
        72    920.3348    916.2330 307.5313480  +6.3220455     1091.952     1818.684     2093.613     78.95193     157.7785     315.4315      1.794     5.25     867.4125     55.60547     158.2565        12     1.329     0.761  86.96   0
        73    154.0573    916.2476 307.8494589  +6.2962921     529.4094     1128.487     1460.843     79.07716     157.7785     315.5883      1.753     3.84     874.6901     55.60547     82.15991         5     1.176     0.359 -12.34   0
        74    876.8867    914.3129 307.5494502  +6.3213833     738.1794     1274.672     1199.865     78.82652     157.9665      315.557      1.748     4.21     868.5875     55.60547     122.5478         6     0.890     0.569  85.65   0
        75    987.0300    911.3154 307.5038236  +6.3263070     819.8256     1448.034     2138.001     79.07716     157.5903     315.3374      2.697     5.92     864.2653     55.60547     107.3361        11     1.267     0.778 -81.33   0
        76    756.5942    908.9479 307.5995701  +6.3195666      1634.43     2492.749     2862.263     78.57507     157.5903     315.1177      1.600     3.89     871.1809     55.60547     204.2682        17     1.299     0.794  68.72   0
        77    580.2336    909.2743 307.6727751  +6.3135137     745.3779     973.5723     354.9253     78.95193     157.7785     315.4629      1.413     4.52     874.3889     55.60547     131.3416         7     1.169     0.626 -87.48   0
