#   1 NUMBER                 Running object number                                     
#   2 X_IMAGE                Object position along x                                    [pixel]
#   3 Y_IMAGE                Object position along y                                    [pixel]
#   4 ALPHA_J2000            Right ascension of barycenter (J2000)                      [deg]
#   5 DELTA_J2000            Declination of barycenter (J2000)                          [deg]
#   6 FLUX_APER              Flux vector within fixed circular aperture(s)              [count]
#   9 FLUXERR_APER           RMS error vector for aperture flux(es)                     [count]
#  12 FLUX_RADIUS            Fraction-of-light radii                                    [pixel]
#  13 FWHM_IMAGE             FWHM assuming a gaussian core                              [pixel]
#  14 BACKGROUND             Background at centroid position                            [count]
#  15 THRESHOLD              Detection threshold above background                       [count]
#  16 FLUX_MAX               Peak flux above background                                 [count]
#  17 ISOAREA_IMAGE          Isophotal area above Analysis threshold                    [pixel**2]
#  18 A_IMAGE                Profile RMS along major axis                               [pixel]
#  19 B_IMAGE                Profile RMS along minor axis                               [pixel]
#  20 THETA_IMAGE            Position angle (CCW/x)                                     [deg]
#  21 FLAGS                  Extraction flags                                          
         1    610.1494     13.1518 307.6837392  +6.7066518        13396     19094.26     19432.71     80.48227     160.4543     321.0364      1.490     3.43     883.8941     56.59351     2000.023        37     1.442     0.986 -29.56   0
         2    908.9141      9.6127 307.5597096  +6.7181062     664.2335     976.5893     1288.197     80.09932     160.4543     320.9406      1.730     5.03     878.5749     56.59351     105.8422         8     0.954     0.798  -1.69   0
         3    749.4924      8.0027 307.6260102  +6.7134420     5593.028     7683.707      8496.09     79.97127     160.2626     319.4362      1.492     3.61     881.7101     56.59351      855.489        25     1.415     0.846 -27.41  16
         4    236.5048      3.0685 307.8393358  +6.6982715     11823.63      16998.4     17269.13     80.35482     150.5005     268.8806      1.534     3.52     903.9832     56.59351     1651.796        32     1.429     0.956 -29.09  24
         5     11.2655      1.5881 307.9329731  +6.6912983     16968.54     20513.49     20745.38     72.86292      131.297     245.7384      1.186     3.44     906.2067     56.59351     3369.128        23     1.252     0.733  -8.03  24
         6    897.7341      1.4406 307.5646292  +6.7211060     627.9283      865.742     827.6263     71.44245     129.4891     243.6021      1.300     2.70      878.351     56.59351     141.2908         5     0.750     0.681 -49.65  24
         7    751.2559      1.1572 307.6255070  +6.7163266     583.1044     795.7574      1442.11     67.45795     124.6497     238.5428      1.249     3.00     881.4446     56.59351     161.4189         5     1.050     0.304 -11.51  24
         8    915.2567   1007.6131 307.5236743  +6.3063613     2158.322     3416.709     3821.004       79.843     160.4543     320.7809      1.697     4.03     915.0652     56.59351     268.5919        21     1.342     1.001 -33.55   0
         9    805.1765   1022.8727 307.5688700  +6.2963863     2339.642      3318.13     3692.524     78.15645     138.9575      254.467      1.551     3.83     915.7509     56.59351     355.1934        18     1.419     0.751 -21.86  24
        10    753.4689   1020.9070 307.5904049  +6.2954697     6828.539     10559.66     11192.75     80.35482     159.1073     282.7774      1.669     3.63     919.0652     56.59351     1070.368        34     1.483     1.075 -36.72  24
        11    774.9342   1004.0865 307.5820558  +6.3031304     1337.616     2186.473     2066.502     80.48227     160.7734     321.1003      1.710     3.69     917.3029     56.59351     220.5707        14     1.101     0.896   7.24   0
        12    636.0245   1003.5570 307.6397496  +6.2987031     4911.933     6982.416     6814.825     80.09932     160.4543     320.9087      1.482     3.29      921.562     56.59351     740.3306        25     1.371     0.888 -30.06   0
        13    248.3377   1003.6329 307.8007114  +6.2856722     4679.274     6846.832     7023.771     80.22717     160.6459     321.0045      1.545     3.64     926.6722     56.59351     741.8768        24     1.402     0.840 -33.97   0
        14    984.7726   1003.2492 307.4949560  +6.3104820     610.9918     954.9498     843.1971     80.09932      160.582     321.0045      1.649     5.53     910.2869     56.59351      82.0033         7     1.298     0.664 -45.79   0
        15    458.0398   1001.9817 307.7137014  +6.2933914     1324.136      1818.31     1518.473     80.09932     160.3905     320.8129      1.434     3.57     924.8409     56.59351     180.8539        13     1.157     0.687 -19.59   0
        16     17.1408   1000.9465 307.8967884  +6.2790053     2223.782     3354.975     3091.297     80.60951     160.5182     321.0683      1.534     3.85      928.035     56.59351     364.0743        20     1.454     0.775 -36.45   0
        17    867.9956   1000.0980 307.5435491  +6.3078857     874.1085     1316.544     1020.294     80.22717     160.2626      320.749      1.583     5.57      915.709     56.59351     110.5173        12     1.360     0.644 -14.87   0
        18    284.3112    997.4311 307.7859846  +6.2894404     918.5814     1139.421     1137.906     80.60951     160.3905     321.0045      1.475     5.15     926.5823     56.59351     154.5676        11     1.292     0.580 -39.47   0
        19    991.4724    995.8366 307.4924218  +6.3137653     765.8659     1357.925     1030.695     80.35482      160.582     321.1003      1.841     6.22     909.8105     56.59351     103.0076         9     1.406     0.772 -82.46   0
        20    939.4751    996.9191 307.5139759  +6.3115839     802.2376     1224.311     719.0866     80.73656     160.8371     321.1322      1.591     5.52     913.7311     56.59351     112.4303         9     1.174     0.733  -1.72   0
        21    560.5310    996.2396 307.6713401  +6.2991961     1928.149     2575.885     2540.787     80.35483      160.582     321.1641      1.398     3.06      922.955     56.59351     310.9221        14     1.140     0.730 -28.64   0
        22    599.9692    992.3867 307.6550946  +6.3021071     1383.717      1884.51     2005.324     79.97127     160.3265     321.0045      1.544     3.90     922.3806     56.59351     208.3813        14     1.213     0.741 -34.26   0
        23     49.7209    992.9471 307.8835321  +6.2834040     734.0355     986.5121      548.108     80.48227      160.582     321.0683      1.512     4.86     927.5641     56.59351     108.1258         9     1.427     0.468 -23.77   0
        24    279.7598    990.1918 307.7881179  +6.2922757     1612.221     2335.771      2561.61       79.843     160.3905     320.7809      1.539     4.27     926.4981     56.59351     249.3796        15     1.435     0.723 -33.06   0
        25    547.5107    988.3542 307.6770109  +6.3020149     483.3816     644.1299     390.4414     80.48227     160.4543      321.196      1.083     3.43     922.9415     56.59351     84.62024         5     1.081     0.314 -20.40   0
        26    746.6653    986.2710 307.5943900  +6.3095394     999.1258     1382.903     1659.534     80.48227     160.6459     321.0683      1.601     4.57     918.5047     56.59351     168.8962        12     1.259     0.702 -32.21   0
        27    884.2042    982.9142 307.5373939  +6.3155201     7094.058     10878.56      11457.5     79.97127     160.1986     320.7809      1.628     3.51     915.0199     56.59351     976.7177        30     1.431     1.022 -30.17   0
        28    420.0322    980.1554 307.7302154  +6.3011263     2391.702     3314.044     3618.561     80.22717     160.6459     320.9406      1.479     3.73     925.1279     56.59351     371.3548        17     1.333     0.766 -21.95   0
        29    321.8673    978.3325 307.7710343  +6.2985848     10340.75     15000.72     15974.23     80.48227      160.582     321.1003      1.499     3.55     926.2739     56.59351     1534.438        35     1.493     0.926 -32.51   0
        30    241.9231    977.2889 307.8042615  +6.2963306     7813.052     11345.82     11711.33     80.48227     160.8371     321.1322      1.523     3.50     926.3323     56.59351     1172.704        32     1.447     0.963 -32.82   0
        31    754.7330    971.3928 307.5915385  +6.3159505     673.3798     1070.224     1214.072     79.97127     160.3266     320.9087      1.960     5.53     917.7349     56.59351     92.52338        10     1.097     0.788 -51.97   0
        32    569.9399    971.7399 307.6682556  +6.3096241     1373.224     2030.857     2295.852     80.48227      160.582     321.1003      1.539     3.69     922.1892     56.59351     241.5133        13     1.294     0.683 -37.36   0
        33    899.9611    968.2128 307.5313429  +6.3221146     1008.484     1656.285     1416.321     79.97127     160.3905     320.8448      1.622     4.64     914.2876     56.59351     174.7745        11     1.199     0.647 -14.12   0
        34    856.3334    966.6020 307.5495122  +6.3213229     803.7907     1337.035     1371.019       79.843     160.1986     320.8448      1.720     5.35     915.1978     56.59351     117.9036         9     1.269     0.673 -34.64   0
        35    203.9722    967.2520 307.8203563  +6.2991983     509.9634     652.8645     654.1612     80.09932     160.7096     320.9726      1.280     3.85     926.2773     56.59351     100.5212         5     1.154     0.369 -12.09   0
        36    399.1983    966.0967 307.7393381  +6.3062305     584.0852     450.2619     320.6343     79.97127     160.3265      320.717      1.356     5.13     925.2098     56.59351     106.3319         6     1.172     0.635 -31.85   0
        37    967.5659    963.2847 307.5034363  +6.3264049     824.0252     1316.724     1551.735     80.48227     160.4543     321.0364      1.655     5.93     911.1343     56.59351     106.0309        13     1.521     0.933 -25.12   0
        38    560.2371    961.5207 307.6726273  +6.3135174     734.2459     1125.493     1149.501     80.35483     160.6459     321.0683      1.500     4.06     922.1552     56.59351     151.0389         7     1.281     0.391 -35.91   0
        39    811.8295    959.0177 307.5682452  +6.3229670     525.6973     894.9219     1129.364     80.09932     160.3905     321.0045      1.690     3.94     915.5881     56.59351     80.12573         5     0.854     0.520 -30.13   0
        40    967.9059    956.9478 307.5035069  +6.3290320     1299.898     2090.057     2550.004     80.35482     160.4543     321.3236      1.763     5.74     911.0618     56.59351     176.2551        16     1.371     1.068 -16.40   0
        41    600.6923    957.5417 307.6559632  +6.3165146     925.0604      1356.24     1439.008     80.35483     160.5182      321.196      1.770     4.63      920.987     56.59351      153.442         9     1.122     0.606 -33.19   0
        42    612.0422    957.1241 307.6512646  +6.3170669     752.0474     1120.192     819.3159     80.35482      160.582     321.1003      1.571     4.17     920.6663     56.59351     127.4875         7     1.146     0.432 -31.78   0
        43    521.5108    956.6166 307.6888716  +6.3142444     1286.372     1867.925     2024.517     80.22717     160.3266     320.9406      1.575     3.87     922.8502     56.59351     224.9355        11     1.193     0.649 -32.18   0
        44    654.9101    954.3134 307.6335593  +6.3196619     2685.159     3776.478     4139.773     80.22717     161.0282      321.196      1.451     3.54     919.6354     56.59351     427.6211        18     1.269     0.775 -31.36   0
        45     51.5290    950.4274 307.8842156  +6.3010153      3153.49       4878.9     5129.741     80.22717     160.5182     321.0045      1.661     3.38     926.1602     56.59351     446.4247        28     1.384     1.055 -45.79   0
        46    815.8242    950.4407 307.5668736  +6.3266409     981.8929     1361.946     1802.762     80.09932     160.3905     320.8448      1.561     4.20     915.4985     56.59351     152.6951        10     1.100     0.653 -39.02   0
        47    736.4828    960.8983 307.5994679  +6.3196724     1743.589     2731.462     3234.412     80.48227     160.9645     321.1641      1.704     4.54       918.21     56.59351     285.1562        16     1.513     0.704 -28.36   0
        48    933.2558    949.6674 307.5181382  +6.3308812     1009.248     1137.679     920.6913     80.60951     160.4543     321.0364      1.439     4.65     912.8204     56.59351     137.4659        11     1.151     0.721 -29.67   0
        49    194.9556    949.3964 307.8247012  +6.3062654     2350.646     3244.034     2950.277       79.843     160.1986      320.717      1.387     3.50     925.9824     56.59351     364.8711        16     1.333     0.687 -34.37   0
        50     69.0196    949.5909 307.8769820  +6.3019493     2058.891      2900.52     2638.641     80.09932     160.3265     320.9087      1.443     3.95     926.1286     56.59351     314.6549        14     1.301     0.681 -37.58   0
        51    951.3691    947.7808 307.5106800  +6.3322643     475.4927     744.8847     802.0585     80.09933     160.3905     320.9406      1.287     3.48     911.8319     56.59351     82.88879         5     0.773     0.453 -74.58   0
        52    333.8213    945.5488 307.7671738  +6.3125182     969.2965      1377.18     1920.543     79.97127     160.6459     320.9406      1.549     4.16     925.6254     56.59351     136.2195        11     1.083     0.695 -48.33   0
        53    229.0324    946.1788 307.8106610  +6.3087388     819.0317     1298.684     1164.161     79.97127     160.3905     320.9087      1.558     4.16     925.9315     56.59351     146.4532         9     1.235     0.533 -23.41   0
        54    649.5790    943.4606 307.6361368  +6.3239634     7767.324     11102.21     11635.94     80.09933     160.5182     321.0045      1.538     3.56     919.4806     56.59351     1218.437        30     1.458     0.893 -31.69   0
        55    786.9334    944.3279 307.5790745  +6.3281988     832.6699     869.6522     875.9752     80.48227     160.6459     321.1322      1.251     4.26     916.1373     56.59351     140.0581         9     1.085     0.605 -14.40   0
        56      9.5631    941.6171 307.9019364  +6.3032390     1402.149     2111.987     2630.312     79.97127     160.4543     320.8129      1.669     4.53     925.9494     56.59351     198.1481        12     1.266     0.643 -30.93   0
        57    887.3879    939.8234 307.5375133  +6.3334136     2910.425     4166.414     4190.962     80.09932     160.3905     320.9726      1.555     3.83     913.9403     56.59351     392.6187        20     1.355     0.842 -22.12   0
        58    761.6794    940.7374 307.5896810  +6.3288368     508.0755     757.1032     798.9183     80.60951     160.6459     321.0683      1.426     3.45     916.8223     56.59351     92.59784         5     1.142     0.302 -35.89   0
        59    437.4421    940.9083 307.7243055  +6.3179104     579.8273     1024.874     807.6556     80.48227      160.582     321.1641      2.110     4.26     924.1068     56.59351     89.10419         5     0.941     0.550  45.51   0
        60     22.4918    940.2231 307.8966156  +6.3042497     1156.163     1625.002     1549.666     80.48227     160.3905     320.9087      1.620     4.54     925.8655     56.59351     185.7984        13     1.266     0.742 -41.85   0
        61    332.5694    936.6198 307.7679939  +6.3161619     17851.33     25375.37     27169.99     79.97127     160.3905     320.9406      1.520     3.51     925.4606     56.59351     2973.387        40     1.471     0.947 -32.93   0
        62     67.2136    937.5150 307.8781390  +6.3068730     1487.582     1978.804     2094.952     80.09932     160.4543     320.9406      1.446     4.05     925.7596     56.59351     217.3765        14     1.289     0.711 -29.58   0
        63    203.5548    936.2381 307.8215741  +6.3119857     1462.361     2006.847     2292.598     80.22717     160.5182     320.9726      1.517     4.23     925.7617     56.59351     222.8298        15     1.346     0.729 -42.19   0
        64    383.5153    935.7225 307.7468709  +6.3182420     789.7708     1212.112     774.0623     80.60951     160.9008     321.1641      1.696     5.38     924.8331     56.59351     126.7188        10     1.372     0.596 -40.26   0
        65    410.2581    927.4750 307.7360441  +6.3225435     1182.819     1784.265     1229.237     80.60951      160.582     321.0364      1.504     4.61     924.2932     56.59351      183.823        13     1.435     0.644 -34.43   0
        66     95.8541    927.3833 307.8665894  +6.3120188     1847.627     2559.157     2772.804     79.97127      160.582     320.7809      1.464     3.54     925.4474     56.59351     285.7942        15     1.277     0.689 -29.17   0
        67     79.1779    920.8218 307.8737345  +6.3141660     2726.255     3987.784     4691.862     80.22717     160.3905     321.0683      1.718     3.74     925.3813     56.59351     410.5058        23     1.825     0.788 -29.71   2
        68    663.3482    923.8915 307.6310756  +6.3325019     812.7527      973.018     1212.542     80.35482     160.3905     321.2598      1.205     2.27     918.9106     56.59351     171.3153         5     0.717     0.436 -70.37   1
        69    490.9172    924.0469 307.7026682  +6.3266631     672.9058     835.2982     1445.143     80.48227      160.582     321.0683      1.400     3.68      922.766     56.59351     121.0632         5     0.980     0.397 -28.07   0
        70    877.8246    921.4195 307.5421001  +6.3406912     2066.535     3164.214     2627.443     80.09932     160.3905     321.0045      1.597     3.80     913.7113     56.59351     321.6116        19     1.316     0.844 -31.21   0
        71    848.4006    921.0867 307.5543293  +6.3398460     2192.163     3328.027     3301.761     79.71453     160.0706      320.749      1.568     3.84     914.4532     56.59351     348.6407        20     1.390     0.845 -24.67   0
        72    811.9086    920.3758 307.5695060  +6.3389204     3301.502     4958.028      5354.83     80.60951     160.3905     320.9087      1.599     3.85     915.1329     56.59351     513.0639        24     1.447     0.907 -32.04   0
        73    547.6943    911.8055 307.6795040  +6.3336186     372226.2       523050     543239.4     80.22717     160.2626     320.8448      1.489     4.77     921.2017     56.59351     62091.05       158     1.611     1.139 -32.37   4
        74    442.2999    918.3539 307.7230464  +6.3273831     667.3676     958.5126     1132.251     80.48227     160.4543     321.2917      1.391     5.38     923.4908     56.59351      100.447         8     1.176     0.694 -45.18   0
        75    391.9516    914.3990 307.7440849  +6.3273268     8394.353     11973.72     12615.87       79.843     160.1986     320.6211      1.478     3.50     924.2245     56.59351     1318.391        27     1.432     0.844 -30.49   0
        76    635.3858    914.9023 307.6429879  +6.3352766     1164.677     1568.626     1150.011     80.35482     160.3265     320.8448      1.466     3.77     919.0444     56.59351     179.1215        12     1.116     0.713 -30.30   0
        77    335.1654    912.7780 307.7677180  +6.3260902     13870.88     19743.44     20677.36     79.97127     160.3905     320.8129      1.502     3.52     925.0739     56.59351     2250.461        37     1.472     0.933 -29.96   0
