#   1 NUMBER                 Running object number                                     
#   2 X_IMAGE                Object position along x                                    [pixel]
#   3 Y_IMAGE                Object position along y                                    [pixel]
#   4 ALPHA_J2000            Right ascension of barycenter (J2000)                      [deg]
#   5 DELTA_J2000            Declination of barycenter (J2000)                          [deg]
#   6 FLUX_APER              Flux vector within fixed circular aperture(s)              [count]
#   9 FLUXERR_APER           RMS error vector for aperture flux(es)                     [count]
#  12 FLUX_RADIUS            Fraction-of-light radii                                    [pixel]
#  13 FWHM_IMAGE             FWHM assuming a gaussian core                              [pixel]
#  14 BACKGROUND             Background at centroid position                            [count]
#  15 THRESHOLD              Detection threshold above background                       [count]
#  16 FLUX_MAX               Peak flux above background                                 [count]
#  17 ISOAREA_IMAGE          Isophotal area above Analysis threshold                    [pixel**2]
#  18 A_IMAGE                Profile RMS along major axis                               [pixel]
#  19 B_IMAGE                Profile RMS along minor axis                               [pixel]
#  20 THETA_IMAGE            Position angle (CCW/x)                                     [deg]
#  21 FLAGS                  Extraction flags                                          
         1    236.2132     25.0205 307.8307716  +6.6647040     2401.339     4867.469     6310.998     93.33144     186.4398        373.4      4.505    12.82     1253.083     65.83747     284.0226        32     3.358     1.363 -62.37   3
         2    419.6088     26.8147 307.7543371  +6.6701191     6968.441     13437.97     16178.56     93.33144     186.5142     373.3629      2.118     6.98     1236.215     65.83747     785.2504        35     2.184     0.981  78.70   3
         3    155.3273      9.4943 307.8649642  +6.6684142     3196.159     12816.97     16339.91     93.47993     186.8857     373.5486      3.025     8.83     1254.434     65.83747     451.1321        72     2.326     2.020 -83.14  16
         4    501.1114      7.9371 307.7210099  +6.6806703     1082.531     2948.282     4698.676     93.47993      187.034     371.4634      3.420    10.10     1228.453     65.83747     136.3827        23     1.918     1.484 -71.58  18
         5    899.6477      7.8038 307.5550299  +6.6940563     1758.714     2910.816     4133.546     92.88451     186.5142     370.3789      2.330     8.39      1216.86     65.83747     227.2029        19     1.671     1.309  25.54  18
         6    899.9723      5.0000 307.5549858  +6.6952284     1637.818     2854.995     4083.801     93.03373     186.3654     341.7871      2.271     7.08     1216.712     65.83747     199.9779        14     1.891     0.743   6.58  19
         7    700.6605      7.0775 307.6379299  +6.6877080      783.415     1692.513     2404.967     93.77623     186.8857     365.2502      2.386     6.41     1220.531     65.83747     160.9918        11     1.865     0.775 -11.46  16
         8    965.2592      2.9844 307.5278593  +6.6982416     1036.644     2386.402     2239.817     93.03373     174.0502     311.0205      2.166     8.37     1213.128     65.83747      143.642        15     1.497     1.309  49.30  24
         9    684.5861      1.6346 307.6448018  +6.6894245     2408.592     3971.533     3985.875     85.74051     153.6483      286.604      1.765     6.36       1221.5     65.83747     354.7151        17     1.582     0.719  -0.97  24
        10    604.8004      1.3170 307.6780416  +6.6868857     816.1511      1395.33     935.7407     80.22452     147.2877     280.3903      1.535     4.92     1223.609     65.83747      158.827        10     1.473     0.464  -1.25  24
        11    693.2368   1002.6822 307.6086423  +6.2751157     1826.905     3977.069     5957.083      93.6282     186.8114     373.4743      2.824     7.26     1284.513     65.83747     226.0981        25     1.693     1.165 -27.57   2
        12    770.2903   1022.3563 307.5759374  +6.2695418     5092.419     8357.848     8572.662      93.6282     169.5286      305.622      1.788     4.24     1285.739     65.83747     642.3875        31     1.472     1.203  -4.02  24
        13    559.2975   1023.7565 307.6636949  +6.2619077      32692.2     42545.06     44287.96     79.87798      146.627     279.5977      1.293     3.75     1287.764     65.83747     7824.363        21     1.667     0.495   2.38  27
        14    560.9318   1018.8385 307.6631749  +6.2639992     45853.38     106998.4     122507.3     93.47993     186.8114     356.1752      2.353     5.75     1287.425     65.83747     5123.996        92     1.933     1.787 -63.77  19
        15    687.7404   1004.2384 307.6108790  +6.2742874     782.0561     1658.699     2985.971      93.6282     186.8857     373.5486      2.476     4.35     1284.608     65.83747     122.8217         5     0.742     0.726 -48.77   3
        16    340.3846    999.9857 307.7555661  +6.2644181     1207.366     2532.199     2905.658     93.33144     186.4398     373.4372      2.176     7.46     1287.501     65.83747     139.4277        19     1.496     1.062  54.76   0
        17    272.7295    989.6485 307.7840566  +6.2664293     8662.959      20798.6     24592.37      93.6282     186.7372     373.5486      2.460     5.33     1287.134     65.83747     948.4851        77     1.980     1.902 -49.10   0
        18    726.8658    989.8184 307.5950654  +6.2815673     5457.617     11455.94     13186.54      93.1827     186.8114        373.4      2.191     4.88     1283.679     65.83747     632.9406        46     1.689     1.503 -63.66   0
        19    522.5143    990.6234 307.6800802  +6.2743989     2334.851     5667.205     6337.807      93.6282     186.5885     373.3629      2.478     6.45     1286.901     65.83747     273.1794        38     1.726     1.572  53.52   3
        20    519.4956    982.7584 307.6815925  +6.2775552     4900.903     11813.51     13592.18      93.6282     186.7372       373.66      2.431     5.72     1286.543     65.83747     522.1498        52     1.782     1.694  77.48   2
        21    788.3342    989.2831 307.5695021  +6.2838423     847.9319     1446.748     1538.559     93.77623     187.1082     373.5857      1.769     5.86     1284.081     65.83747      137.772         8     1.098     0.880 -15.07   0
        22    246.0357    986.9327 307.7952532  +6.2666580     539.9737     1298.052     1430.795     93.47993     186.9599     373.5857      2.815     3.75     1287.009     65.83747     99.98547         5     0.653     0.618  86.84   0
        23    888.0973    983.1927 307.5281820  +6.2896946      6975.19     12853.33     14083.24     93.33144     186.3654     373.2143      1.948     4.13     1282.286     65.83747     840.3928        40     1.583     1.320 -76.56   0
        24    861.6808    979.3936 307.5392989  +6.2903867     9604.127     18481.06     20720.14      93.1827      186.291     373.2886      2.088     4.29     1282.833     65.83747     1169.615        50     1.672     1.444 -60.83   0
        25    983.4620    978.6998 307.4886397  +6.2947354     4375.619     7652.409     7549.101     93.33144     186.8114       373.66      1.847     3.93     1279.431     65.83747     578.0422        34     1.495     1.252 -45.91   0
        26    575.6025    979.4039 307.6583529  +6.2808225     942.3438      1691.92     1685.141     92.88451      186.291     373.2514      1.989     5.53     1285.109     65.83747     126.3693         9     0.974     0.886  31.14   0
        27    506.1444    978.5267 307.6872863  +6.2788607      2438.88     5735.702      6688.02     93.47993     186.6629        373.4      2.399     5.82     1286.463     65.83747     286.9691        36     1.645     1.501   8.12   0
        28    616.2719    977.9084 307.6414768  +6.2828026     931.9752     2138.226     2248.336     93.47993      187.034     373.5115      2.275     7.70     1283.962     65.83747      153.073        12     1.687     0.985  41.85   0
        29    459.2879    975.0715 307.7068980  +6.2787222     1213.431     2689.983     2809.997     93.77623     187.1082     373.5115      2.196     8.59     1286.387     65.83747     198.8287        20     1.752     1.177 -33.25   0
        30     41.0489    977.1714 307.8808714  +6.2638120     623.7139     1281.833     1347.958      93.1827     186.8857        373.4      2.088     5.38     1283.516     65.83747     135.4083         6     1.281     0.637  -2.89   0
        31    770.0508    975.3755 307.5775626  +6.2889918     476.1639     741.1568     613.4081      93.1827     186.8114        373.4      1.508     4.10     1283.111     65.83747     91.58606         5     1.052     0.456 -63.15   0
        32    893.4988    966.9131 307.5264620  +6.2966173     34155.87     64423.26     69290.69      93.6282     187.3305     373.5857      2.011     4.20     1281.365     65.83747     4241.911        72     1.728     1.521 -72.02   0
        33    201.1162    965.5584 307.8146435  +6.2740018     970.6483     2464.162      2453.04      93.6282     186.7372     373.4372      2.376     9.29     1285.548     65.83747     147.4773        16     1.743     1.390 -45.61   0
        34    791.4637    960.7442 307.5691263  +6.2957667     1583.105     3400.994     3070.671     93.77623     186.8114     373.5115      2.182     6.91     1282.162     65.83747     181.4795        27     1.635     1.362  30.12   0
        35    739.5831    958.7749 307.5907813  +6.2948494     4161.017     9441.311     11059.01     93.33144     186.6629     373.4372      2.341     5.19     1282.493     65.83747     505.5487        47     1.747     1.617 -52.73   0
        36    209.9865    957.8833 307.8112030  +6.2774784     764.0206     1687.819     1266.949      93.1827     186.5142     373.3257      2.193     5.90     1285.488     65.83747     90.75415         9     1.197     0.818  87.50   0
        37     34.6248    956.5259 307.8842200  +6.2721461     1660.166     3806.886     4372.224      93.1827     186.5885     373.4372      2.290     6.34     1283.414     65.83747     185.9121        26     1.557     1.322  31.21   0
        38    927.8890    953.6721 307.5125790  +6.3032484     5597.322     10282.09     10469.57      93.6282     187.1082     373.5115      1.938     4.26     1280.166     65.83747     684.6605        37     1.528     1.330 -86.98   0
        39    901.0690    945.0897 307.5240192  +6.3059085     1384.674     2660.833       2503.4     93.77623      187.034     373.5115      1.997     5.07     1280.236     65.83747     184.5974        15     1.250     0.965 -51.59   0
        40    622.4165    941.7806 307.6400946  +6.2979709      2511.79     6214.959     6515.906     93.33144     186.5142        373.4      2.361     6.12     1283.017     65.83747     307.5991        40     1.723     1.598  85.84   0
        41    234.7225    942.1894 307.8014219  +6.2848087     2235.499     6011.277     6573.898      93.1827     186.3654     373.3257      2.499     6.55     1285.101     65.83747     280.8953        46     1.872     1.718  85.92   0
        42    760.8488    941.8511 307.5824808  +6.3025691     890.4235     1927.576     1905.138     93.77623     186.6629     373.4372      2.191     8.03     1281.449     65.83747     104.3259        14     1.478     1.221  80.68   0
        43      3.7545    939.8733 307.8976108  +6.2780040      1487.69     2859.445     2963.724     93.47993     182.3781     323.7383      2.017     5.63     1283.008     65.83747     201.5422        20     1.529     1.080  39.93  24
        44    547.1983    933.1635 307.6716783  +6.2990229     887.9261     2044.052     2294.088     92.58537     186.5885     373.2886      2.222     7.72      1283.65     65.83747     151.4275        12     1.445     1.153  25.54   0
        45    978.0015    933.8218 307.4923663  +6.3131407      724.843     1243.652      1684.27      93.1827     186.4398     373.1771      1.991     5.45     1278.511     65.83747     115.5273         8     0.963     0.872  84.46   0
        46     36.7344    931.2974 307.8841676  +6.2826653     635.1142     1117.404     1401.277      93.6282     186.8857     373.5486      1.820     3.48     1283.434     65.83747     106.4852         5     1.247     0.281  35.05   0
        47    586.1540    929.0251 307.6556009  +6.3020406     660.1567     1170.591      1215.72      93.1827     186.8857     373.3629      1.997     4.96     1283.134     65.83747     111.2338         6     1.207     0.578  29.12   0
        48    870.4339    920.5670 307.5375644  +6.3150430     5237.988      10059.6     10851.15     93.03373     186.5142     373.2143      2.022     4.37     1279.136     65.83747      678.859        41     1.617     1.409 -63.11   0
        49    308.2416    916.5824 307.7716629  +6.2978816     4874.249     12925.72     14634.11     93.03373     186.5885     373.2514      2.529     5.95     1284.435     65.83747     538.3484        58     1.896     1.816 -86.88   0
        50    405.9889    917.9254 307.7309408  +6.3006036     1143.074     2671.405     3154.372      93.1827     186.3654     373.2886      2.419     7.11      1283.91     65.83747     143.2018        19     1.505     1.192 -38.18   0
        51    228.3736    915.7205 307.8049283  +6.2955577     3738.423     9837.461     10994.27     93.47993     186.6629     373.5115      2.485     6.29      1284.46     65.83747     441.2972        52     1.951     1.761 -89.63   0
        52    815.0129    898.7672 307.5613375  +6.3222220     493.4153     998.2111     275.4319     93.03373     186.5142     373.4372      1.880     3.87     1278.023     65.83747     82.64551         5     0.840     0.510 -53.51   0
        53    722.3973    898.0099 307.5999078  +6.3194421     970.1052     1721.119     1841.949     93.03373     186.4398     373.3257      1.726     6.57     1279.263     65.83747     172.9467        12     1.425     0.850 -17.31   0
        54    953.7216    893.8095 307.5037683  +6.3289033      840.397     1616.615      2686.32      93.1827      186.291     373.3257      2.855     5.48     1275.994     65.83747     112.4561         8     1.227     0.794  79.13   0
        55    641.3171    892.3824 307.6338352  +6.3190622     1235.597     3523.117      3710.07      93.1827     186.4398     373.4372      2.465     9.33     1280.425     65.83747     169.1652        23     1.743     1.393 -16.03   0
        56     38.0335    889.0102 307.8850107  +6.3002220     1560.551     3871.448     4645.781     93.03373     186.5885     373.3257      2.461     7.22     1282.733     65.83747     216.5066        33     1.837     1.566  76.32   0
        57    183.4122    887.7576 307.8245525  +6.3056284     845.4826      1602.39     2102.954     92.88451     186.5885     373.1771      2.186     6.31     1283.951     65.83747     128.0621        10     1.724     0.648 -63.02   2
        58    180.4542    886.8165 307.8258142  +6.3059188     933.3024     1673.098     2182.645     93.03373     186.8114     373.1771      1.995     5.91     1283.923     65.83747     127.7533        10     1.421     0.692   2.11   3
        59     56.1179    887.7143 307.8775274  +6.3013671     1086.299     2342.772     2649.396     93.33144     187.1082     373.6229      2.402     7.52     1282.871     65.83747     152.9847        16     1.775     0.891  61.46   0
        60    635.7966    881.3842 307.6364904  +6.3234326     3598.378     9090.131     10199.35      93.1827     186.3654     373.3257      2.382     6.01     1280.154     65.83747     412.9755        47     1.872     1.587 -58.17   0
        61    873.4504    877.4008 307.5377094  +6.3330219     1966.885     3734.891      3762.12     92.88451     186.3654     372.9912      1.968     5.29     1276.386     65.83747      215.673        24     1.427     1.212 -43.42   0
        62    318.9774    874.9642 307.7685530  +6.3154782     7476.351      21308.8     24972.05     93.03373     186.5142     373.2514      2.596     6.42     1284.213     65.83747     865.8662        69     2.000     1.847 -83.84   0
        63     54.3125    875.2750 307.8786857  +6.3064580      816.192     1834.369     1569.707      93.6282     187.1823     373.6229      2.160     6.28     1282.605     65.83747     93.88123         8     1.292     0.858  28.23   0
        64     83.3664    866.9617 307.8668668  +6.3108781     864.8582     1851.832     2031.486     93.33144     186.5885     373.2514      2.467     5.93     1282.652     65.83747     140.0137         7     1.597     0.620 -42.42   0
        65    395.4714    865.1176 307.7370394  +6.3221218     733.8741      1489.23     1905.185     93.92402     187.1823     373.5486      2.349     6.39     1282.438     65.83747     151.3545         8     1.566     0.733   4.82   0
        66     81.0388    864.0184 307.8679317  +6.3120188     718.6359     1332.701     1808.574      93.1827     186.5885     373.2514      2.046     3.80     1282.561     65.83747     104.8245         5     1.038     0.399  58.71   1
        67     65.9364    859.1163 307.8743770  +6.3135411     1063.715     3094.538     3978.898     93.77623     186.8857     373.5115      2.749     9.59     1282.291     65.83747     137.9272        21     1.888     1.406  74.07   0
        68    834.6401    858.3392 307.5544809  +6.3396213     1400.572     2947.106     2881.503      93.6282     186.8114     373.5857      2.143     6.05     1275.533     65.83747     166.9376        19     1.362     1.180  63.96   0
        69    797.7949    858.3916 307.5698144  +6.3383694     1792.634     4262.708     4691.409     92.88451     186.5142     373.3257      2.215     6.53     1275.874     65.83747     244.3029        27     1.573     1.310 -51.30   0
        70    864.5061    858.4967 307.5420454  +6.3405529     1154.108      2210.01     2193.645      93.6282     187.4785        373.4      2.116     6.05     1275.259     65.83747      165.463        11     1.338     0.769   3.08   0
        71    533.9208    849.9444 307.6799132  +6.3330446     153301.6     437532.4     510518.8     93.77623     186.8114     373.5486      2.591     6.32      1280.37     65.83747     16350.08       175     2.178     2.012 -80.40   0
        72    378.2319    852.8502 307.7446141  +6.3266244     3384.051     10257.07     12644.19     93.47993     186.8114     373.4372      2.747     7.04     1282.525     65.83747      383.426        55     1.988     1.802  74.21   0
        73    321.5232    851.1801 307.7682696  +6.3254140     5647.296      16447.5     19720.78      93.1827     186.5142     373.4743      2.650     6.49     1283.638     65.83747     672.5132        65     1.987     1.892 -75.80   0
        74    638.5062    848.5300 307.6364312  +6.3371303     1527.467     2666.094     3380.107     93.47993     186.8857     373.5115      1.895     4.92     1277.983     65.83747     201.6575        12     1.219     0.717  16.46   3
        75    640.1837    846.1069 307.6358118  +6.3381900     1906.274     3481.255     4555.242     93.33144     186.5885     373.3629      2.042     6.85     1277.702     65.83747     243.0057        18     1.530     0.917  21.39   3
        76    872.1684    845.9453 307.5392635  +6.3460070     3172.027     7345.354      8434.21     93.47993     186.8857     373.4743      2.310     5.45     1274.361     65.83747      361.855        40     1.729     1.478 -58.87   0
        77    612.5406    842.0623 307.6474484  +6.3389404     1180.385     1991.304     3243.139      93.6282     186.7372     373.5486      3.136     5.60     1278.745     65.83747     177.9437        11     1.538     0.576  60.47   3
