#   1 NUMBER                 Running object number                                     
#   2 X_IMAGE                Object position along x                                    [pixel]
#   3 Y_IMAGE                Object position along y                                    [pixel]
#   4 ALPHA_J2000            Right ascension of barycenter (J2000)                      [deg]
#   5 DELTA_J2000            Declination of barycenter (J2000)                          [deg]
#   6 FLUX_APER              Flux vector within fixed circular aperture(s)              [count]
#   9 FLUXERR_APER           RMS error vector for aperture flux(es)                     [count]
#  12 FLUX_RADIUS            Fraction-of-light radii                                    [pixel]
#  13 FWHM_IMAGE             FWHM assuming a gaussian core                              [pixel]
#  14 BACKGROUND             Background at centroid position                            [count]
#  15 THRESHOLD              Detection threshold above background                       [count]
#  16 FLUX_MAX               Peak flux above background                                 [count]
#  17 ISOAREA_IMAGE          Isophotal area above Analysis threshold                    [pixel**2]
#  18 A_IMAGE                Profile RMS along major axis                               [pixel]
#  19 B_IMAGE                Profile RMS along minor axis                               [pixel]
#  20 THETA_IMAGE            Position angle (CCW/x)                                     [deg]
#  21 FLAGS                  Extraction flags                                          
         1     18.8644     64.8128 307.9362313  +6.6319818     749085.5      1875847      2106422      85.7328     171.9458      344.097      2.370     5.08      1059.04      60.6708     61895.59       429     2.236     1.970  70.56   4
         2    902.9810     58.9993 307.5689627  +6.6639911     1861.323     2751.323     3041.653     85.87008     171.6716     343.8573      1.543     3.35     1018.847      60.6708     257.9697        16     1.177     0.858  64.23   0
         3    438.6565     25.2598 307.7630955  +6.6624043     2155.287     4117.886     4366.808     86.41703     172.1512     344.2339      2.034     5.53     1029.245      60.6708     231.6925        29     1.637     1.189  63.76   0
         4    652.3586     17.6005 307.6745288  +6.6727174     15741.15     26845.45     29015.27      85.5953     171.8087     343.8231      1.863     3.78     1023.965      60.6708     1881.489        60     1.646     1.374  59.78   0
         5    552.1455     13.6571 307.7163158  +6.6709941     4279.994     7456.584     7895.217     86.41703     172.2196     344.2339      1.865     3.99     1025.287      60.6708     458.0106        32     1.453     1.270  61.22   0
         6    638.8587      8.1862 307.6804574  +6.6761530     2619.437     5283.543     6797.202      85.5953     172.0827     343.0685      2.300     7.59     1023.721      60.6708     335.9447        35     2.206     1.072  66.82  16
         7    457.7342      9.3019 307.7557049  +6.6696317     17905.55     33179.89     35828.25     86.28062     172.2196     344.2339      2.000     4.05     1028.191      60.6708     1842.343        61     1.699     1.483  58.72  16
         8    278.3141      9.7220 307.8302652  +6.6634433     7401.025     13402.91     14387.69     86.28062      172.493     344.2682      1.937     4.19     1048.076      60.6708     789.7361        42     1.558     1.355  69.21  16
         9     19.4884     11.9260 307.9377653  +6.6538369     929.5587     1856.426     1311.977     86.28062      172.493     344.2682      2.086     6.37     1056.127      60.6708      111.396        11     1.250     0.913  19.65   0
        10    935.2433      9.2643 307.5572240  +6.6856007     1944.741     3066.396      2451.46     86.28062     172.0827     344.1997      1.663     3.80     1017.051      60.6708     285.3378        16     1.242     0.907  50.10   0
        11    337.9304      9.1659 307.8055052  +6.6656727     843.4836     1536.579     1049.609     86.14399     172.1512     344.2682      2.014     5.53     1040.144      60.6708     117.9045         9     1.147     0.751 -88.65   0
        12     43.6895      9.2380 307.9277980  +6.6557608     1880.676     3169.399     3209.084     86.28062     172.0827     344.2339      1.775     4.15     1054.757      60.6708     244.5393        20     1.202     1.143 -88.71   0
        13    270.2191     13.8827 307.8334890  +6.6614540     1622.716     2904.739     3972.547     85.87008     171.8087     344.1313      2.157     4.30     1048.251      60.6708     192.4563        19     1.214     1.097 -88.05   0
        14    266.3672      6.4212 307.8353424  +6.6644052     2395.736     4320.818     4767.939      85.7328     171.9458     330.6197      1.930     4.60      1048.27      60.6708     317.6732        24     1.409     1.131 -83.07  16
        15    320.0240      4.3308 307.8131113  +6.6670684     725.9856     1501.361     1562.691     85.87008     171.5343     306.3581      2.251     4.16     1042.897      60.6708     102.1838         6     1.021     0.605  48.13  16
        16    449.0249    998.4270 307.7259507  +6.2609603     3945.132     5951.771     6986.453      85.7328     171.9458     344.0628      1.613     2.97     1072.771      60.6708     569.1156        28     1.396     1.068  51.05   0
        17    533.6174   1023.6564 307.6899677  +6.2533736     461.1516     515.2401      814.343      74.5634     136.7666     258.9783      1.043     3.74     1071.683      60.6708     106.8903         5     0.964     0.416  15.24  24
        18    774.9485    998.7352 307.5905751  +6.2717231     3317.304     3157.188     3491.034     86.28062     172.0827     344.1997      0.645     1.15     1067.283      60.6708     1743.504         7     0.570     0.390  65.20   0
        19    726.1793    997.6389 307.6108675  +6.2705484     1162.259     1704.142     1916.628     85.87008     171.9458     343.9258      1.386     3.37     1068.343      60.6708     183.2026        11     1.108     0.624  66.50   0
        20    590.1771    997.3939 307.6673617  +6.2661074     4287.204     6519.988     7269.932      85.7328     171.8773     344.0286      1.641     3.33     1070.926      60.6708     591.7488        27     1.426     0.975  66.97   0
        21    766.3347    993.3372 307.5943342  +6.2736645     1358.806     1925.395     2714.251     86.28062     172.1512     344.1997      1.547     3.60     1067.159      60.6708     210.4677        12     1.155     0.719  63.02   0
        22    638.7791    991.2480 307.6473827  +6.2702688     619.4474     802.6448     181.0153     85.87008     172.1512     343.9943      1.262     3.86     1069.769      60.6708     105.9104         5     0.876     0.488 -45.78   0
        23    973.7142    987.7690 307.5083875  +6.2828752     7513.489     10748.11     10686.43     86.28062     171.9458     344.0628      1.488     2.93     1059.429      60.6708     1110.683        30     1.362     1.014  62.71   0
        24    727.7064    988.1866 307.6105511  +6.2745021     899.0861     1622.214     2116.475     86.00714     171.8773     344.0286      1.771     2.46     1067.771      60.6708     171.2922         7     0.787     0.602  62.41   0
        25    456.7136    987.1133 307.7231389  +6.2658887     978.9644     1522.538     1470.117     86.00714     172.3563     344.2339      1.661     5.13     1072.261      60.6708     138.1346        11     1.109     0.878 -18.96   0
        26    258.1755    987.8305 307.8055709  +6.2589423     1289.104     1897.473     1667.006      85.7328     172.0143     343.9943      1.618     3.88     1074.327      60.6708      172.822        11     1.025     0.755  57.18   0
        27    733.5657    985.8486 307.6081961  +6.2756629     2967.315     4522.274     5145.991     86.00714     172.1512     344.1313      1.646     3.78     1067.537      60.6708     400.3744        22     1.325     0.967  56.24   0
        28    748.8867    985.0826 307.6018584  +6.2764905     1003.801     1345.303     1086.646     86.00714     172.3563     344.2682      1.506     2.21     1067.116      60.6708     195.5679         8     0.760     0.655  56.70   0
        29    379.9849    983.4044 307.7551311  +6.2648514     1847.815     2817.667     2994.353     85.87008     171.8087     344.0286      1.680     3.39     1074.352      60.6708     242.7002        15     1.154     0.829  77.08   0
        30    990.2292    981.2736 307.5017458  +6.2861068     743.7642     1127.791     1250.074     86.14399     172.1512     344.1655      1.661     4.48     1058.562      60.6708      110.493         6     0.914     0.652  75.07   0
        31    767.0159    972.8825 307.5947387  +6.2821325     8065.468      11892.7     11822.04     85.87008     171.8087     344.0628      1.529     3.03     1065.965      60.6708     1257.084        35     1.423     1.091  69.20   0
        32    562.4086    973.3412 307.6797047  +6.2751100     4372.551     7031.398     7922.974      85.5953     172.0827     343.8916      1.739     3.80     1070.702      60.6708     569.3051        30     1.538     1.063  78.92   3
        33    559.6524    965.7056 307.6811066  +6.2781704     8684.898     12857.51     13812.62     86.14399     172.0143     344.4734      1.608     2.96     1070.607      60.6708     1210.531        36     1.477     1.108  66.04   3
        34    532.5569    974.8475 307.6920524  +6.2734900     1216.916     1615.597     1693.059     86.28062     172.0827     344.1313      1.433     3.10      1071.08      60.6708     175.9324        11     0.963     0.765  39.24   0
        35    312.7775    972.2831 307.7834189  +6.2671915     14573.26     22859.03     25344.91     86.00715     171.8087     344.1313      1.725     3.24     1074.515      60.6708      1981.41        55     1.601     1.464 -53.92   0
        36    139.2805    973.8344 307.8554221  +6.2607321       467.84     739.2775     571.3702     86.14399     172.2196     344.2339      1.538     4.69     1074.271      60.6708      109.345         5     1.053     0.592 -30.28   0
        37      8.8778    973.2849 307.9095972  +6.2565789     711.7281     1042.347     856.8707     86.28062      172.493     344.3024      1.628     4.21     1077.337      60.6708     121.4519         8     0.914     0.749  75.72   0
        38    828.3434    972.4301 307.5692818  +6.2843648      1208.88     1752.928     1167.323     86.14399     172.2196      344.097      1.582     4.32     1064.272      60.6708       171.66        13     1.163     0.810  60.52   0
        39    283.9071    969.5985 307.7955000  +6.2673323      999.558     1419.156     1640.881      85.7328     171.8087     343.9258      1.478     2.46     1074.422      60.6708     192.8118         9     0.847     0.677 -70.86   0
        40    928.3280    966.3703 307.5279566  +6.2901989     9542.936     13663.38     14098.05     86.14399     172.1512     344.1655      1.530     2.96     1060.701      60.6708     1544.921        36     1.472     1.038  61.93   0
        41    901.8998    962.5431 307.5390621  +6.2908986     13289.24     19658.14     21088.41     86.00714     172.1512     344.4392      1.588     3.06     1061.483      60.6708      1909.63        47     1.479     1.205  48.29   0
        42     58.5323    965.0032 307.8892560  +6.2616665     534.6102     845.2236      768.447      85.5953     171.7402     343.9601      1.692     4.13      1075.56      60.6708     87.29321         5     0.773     0.628  -0.49   0
        43    614.4193    962.9812 307.6584516  +6.2811257     1434.056     2082.043     2101.555     86.00714     172.0827     344.1313      1.479     3.11     1069.229      60.6708     219.6866        12     1.028     0.770 -87.19   0
        44   1023.2424    961.7491 307.4886883  +6.2952670      4909.94     6071.073     6269.227     80.48891     143.4912     266.4657      1.251     3.01     1056.469      60.6708     821.2388        17     1.176     0.736  81.39  24
        45    655.5219    961.0659 307.6414444  +6.2832896     1723.766     2638.641     2714.017     86.41703     172.2196     344.1655      1.766     3.76     1068.441      60.6708     234.2118        18     1.181     0.993 -87.30   0
        46    546.1784    961.5950 307.6868413  +6.2794171     4127.542      6539.75     7636.296     85.87008     171.8773     343.9943      1.814     3.29     1070.888      60.6708     624.0913        33     1.672     1.206  36.65   0
        47    499.2899    958.0057 307.7064368  +6.2793309     2243.777      3446.19     3346.709      85.7328     171.8087     343.9601      1.640     4.07     1070.894      60.6708     327.7175        19     1.332     0.943  72.29   0
        48     81.2683    959.9832 307.8799835  +6.2645028     866.8118     966.8884     860.6983      85.7328     172.0827      344.097      1.403     4.03     1074.905      60.6708     133.0247        10     0.905     0.860 -56.07   0
        49    437.0582    972.7831 307.7317854  +6.2711474     1061.134     1535.239     1298.385      85.7328     172.0827     343.9258      1.660     2.85     1072.883      60.6708     187.1655        10     0.895     0.717  82.22   0
        50    933.6627    950.0948 307.5262869  +6.2970965     47050.64     68613.17     72180.49     86.14399      172.288     344.2339      1.533     2.97     1060.057      60.6708     6868.943        68     1.538     1.152  63.58   0
        51      6.6252    950.0460 307.9113196  +6.2660975     2973.774     4498.912     4241.923     85.87008     172.2196     332.6442      1.550     3.17     1076.259      60.6708     420.7883        22     1.385     0.869  74.24  16
        52    241.1300    948.6334 307.8139743  +6.2745539     1685.935     2653.483     2703.985     86.14399     172.1512     344.2682      1.633     3.21     1074.557      60.6708      254.923        16     1.132     0.875  53.95   0
        53    128.6431    947.7668 307.8607216  +6.2711373     577.8593     741.3828     509.5928     85.87008     172.1512     344.0286      1.508     3.46     1074.417      60.6708     87.71521         5     0.763     0.453  75.34   0
        54    831.5765    943.9558 307.5688954  +6.2962291      2602.01     3728.743      3276.71      85.7328     172.0827     344.0286      1.488     3.13     1062.582      60.6708      394.485        19     1.253     0.862  81.27   0
        55    779.8408    941.8242 307.5904557  +6.2953838     6731.737     10281.25     11420.81     85.87008     171.9458     343.9601      1.634     3.16     1063.837      60.6708     992.9668        35     1.526     1.153  81.83   0
        56    639.9409    946.0502 307.6484212  +6.2889688     818.3234     1106.071     1132.757     86.28062     172.1512     344.1997      1.301     3.78     1068.192      60.6708     147.0597         7     0.876     0.552  52.58   0
        57    566.3165    941.2742 307.6791616  +6.2884803     805.1057       1208.5     878.3705     86.41703      172.493     344.2682      1.700     3.71     1069.909      60.6708     121.3512         8     0.941     0.605 -78.74   0
        58    248.9519    940.8797 307.8109877  +6.2780174      1370.17     1892.009     2251.452     86.28062     172.2196     344.1313      1.481     4.31     1074.626      60.6708     193.1683        14     1.294     0.725  81.79   0
        59    213.3645    940.4773 307.8257816  +6.2769900     846.1655     1418.753     947.1037     86.14399     172.2196     344.2339      1.785     4.50     1074.482      60.6708     132.9851         7     0.919     0.627  73.57   0
        60     74.1488    939.0279 307.8836495  +6.2729153     2773.499     4104.399      4083.19     85.87008      172.288      344.097      1.526     3.50     1074.813      60.6708     390.3669        20     1.251     0.930  66.16   0
        61    967.9770    936.7843 307.5124806  +6.3037349     7471.195     10804.35     11491.96     86.00714     171.9458      344.097      1.495     2.96     1058.106      60.6708     1250.773        31     1.353     1.018  55.35   0
        62    941.7903    928.7493 307.5236273  +6.3061804     2353.945     3326.394     3396.583      85.7328     172.0143     343.8573      1.508     3.27     1059.144      60.6708     341.9194        18     1.219     0.908  54.97   0
        63    274.6696    924.7218 307.8008522  +6.2855508     4283.729     6660.037     6794.696     86.55323     172.4247     344.1655      1.664     3.33      1074.89      60.6708     532.5979        30     1.428     1.092  76.01   0
        64    801.0112    924.6186 307.5822406  +6.3031938     1302.513     2172.697      2810.31     85.87008     171.8087      344.097      2.027     6.91     1062.436      60.6708     204.5192        17     1.814     0.884  62.50   0
        65    662.5589    924.4523 307.6397536  +6.2986416     4683.858     6693.778     6828.676     86.28062     172.2196     344.1997      1.531     2.93     1067.052      60.6708     671.2283        27     1.345     1.001  61.11   0
        66   1012.0553    924.5623 307.4945818  +6.3102486     889.5524     1166.763     1196.836     86.28062     172.2196     344.2339      1.662     4.92     1055.458      60.6708     120.7224         9     1.167     0.792  49.27   0
        67    484.8887    922.7989 307.7136047  +6.2933851     1065.901      1719.32     2209.024     85.45757     171.6716     343.9258      1.858     3.66     1070.494      60.6708     166.3978        11     0.979     0.928 -87.58   0
        68     43.3913    922.3657 307.8969875  +6.2787611       2045.4      3228.86     3557.706      85.7328     171.9458     343.9943      1.681     3.31     1074.809      60.6708      322.837        19     1.158     1.034  70.67   0
        69    894.3264    921.0197 307.5436016  +6.3077906     1178.679     1584.771     1756.805     85.87008     172.0827     344.1313      1.461     4.04      1060.12      60.6708     161.3937        13     1.157     0.782  63.83   0
        70    986.5818    919.3597 307.5053372  +6.3115487     692.3841     1156.847     856.9154     85.87008     171.9458     343.9258      1.621     4.12     1056.369      60.6708     134.9775         6     1.144     0.423  54.73   0
        71    965.6068    917.7454 307.5141038  +6.3115169     733.6133     1278.884     1549.364      85.7328     171.8773     343.8916      1.595     4.19     1057.374      60.6708     124.8505         7     1.217     0.411  63.40   0
        72    587.2229    917.1671 307.6712899  +6.2991324     1684.066     2374.855     2084.451      85.7328     171.9458     343.9601      1.471     3.73     1068.235      60.6708     251.4567        15     1.263     0.803  53.57   0
        73   1018.4914    916.4083 307.4921819  +6.3138295     781.0027     1441.693     1473.983     85.87008     171.8087      331.367      2.201     5.34      1054.63      60.6708     96.77319         9     1.290     0.623 -81.77  16
        74    626.2877    913.4857 307.6551881  +6.3019578     1203.883     1745.324     1830.714     86.00715     172.3563     344.3024      1.423     2.77     1066.897      60.6708     187.3777        10     0.977     0.666 -82.84   0
        75     76.6600    914.3234 307.8834426  +6.2831991      620.925     1000.338     1371.941     86.41703     172.2196     344.1655      1.931     4.98     1074.463      60.6708     83.41736         6     1.215     0.577  26.82   0
        76    306.1265    911.1717 307.7882446  +6.2921996     1287.531     1838.049     2250.132     86.14399     172.1512     344.1313      1.493     3.53     1074.885      60.6708     180.2717        12     1.106     0.687  79.16   0
        77    773.1459    907.5050 307.5943899  +6.3093302     941.9839     1084.501     1210.317     86.14399     172.0827     344.4392      1.355     5.46     1062.516      60.6708      133.371        10     1.125     0.748  51.95   0
