#   1 NUMBER                 Running object number                                     
#   2 X_IMAGE                Object position along x                                    [pixel]
#   3 Y_IMAGE                Object position along y                                    [pixel]
#   4 ALPHA_J2000            Right ascension of barycenter (J2000)                      [deg]
#   5 DELTA_J2000            Declination of barycenter (J2000)                          [deg]
#   6 FLUX_APER              Flux vector within fixed circular aperture(s)              [count]
#   9 FLUXERR_APER           RMS error vector for aperture flux(es)                     [count]
#  12 FLUX_RADIUS            Fraction-of-light radii                                    [pixel]
#  13 FWHM_IMAGE             FWHM assuming a gaussian core                              [pixel]
#  14 BACKGROUND             Background at centroid position                            [count]
#  15 THRESHOLD              Detection threshold above background                       [count]
#  16 FLUX_MAX               Peak flux above background                                 [count]
#  17 ISOAREA_IMAGE          Isophotal area above Analysis threshold                    [pixel**2]
#  18 A_IMAGE                Profile RMS along major axis                               [pixel]
#  19 B_IMAGE                Profile RMS along minor axis                               [pixel]
#  20 THETA_IMAGE            Position angle (CCW/x)                                     [deg]
#  21 FLAGS                  Extraction flags                                          
         1    703.2468     19.8435 307.6452625  +6.6898442      7640.34     11207.52     11727.82     78.18412     155.9967     311.8383      1.604     4.42      820.842      54.9775     1055.186        31     1.566     0.840 -35.08   0
         2    423.5802     15.4119 307.7616494  +6.6823395      6516.74     9933.709     10709.07     77.81211     155.6864     311.8073      1.666     4.29     823.7713      54.9775     867.6475        28     1.521     0.867 -33.42   0
         3     24.5518     15.1110 307.9274996  +6.6690991     8652.542      13507.3     13315.36     78.18412     155.8726     312.0243      1.680     4.43     829.5959      54.9775       1096.8        35     1.610     0.942 -31.26   0
         4    670.9048     14.2288 307.6588939  +6.6910835     823.7176     1425.523     1293.599     78.30773     155.7485     311.8383      1.779     5.43     820.6375      54.9775     123.1307        11     1.549     0.537 -31.14   0
         5    498.9706     12.5285 307.7304126  +6.6860483     967.7092     1409.278     1576.603     78.06031     155.9967     311.8693      1.489     5.08     821.4241      54.9775     150.3672        10     1.239     0.588 -31.04   0
         6    320.1269     10.4043 307.8048158  +6.6809466     13359.75     20470.96     21289.88     77.81211     155.5621     311.7762      1.635     4.44      830.892      54.9775     1952.322        40     1.622     0.929 -29.95  16
         7     93.7011     10.7343 307.8989095  +6.6732254     2559.949     3984.705     3699.452     78.18412     156.1206     311.9003      1.642     5.27      827.631      54.9775     324.2877        21     1.528     0.771 -32.63   0
         8    415.2140     11.0473 307.7652739  +6.6838612     823.6066       1254.8     1737.977     77.56311     155.8105     311.6832      1.464     5.40     824.2409      54.9775     125.5268        10     1.466     0.561 -20.71   0
         9     85.0166      9.6855 307.9025543  +6.6733670     1731.742     2676.809     2987.652     77.81211     155.7485     311.8383      1.565     4.88     827.7878      54.9775     240.7978        14     1.396     0.652 -30.71   0
        10    788.7823      8.9662 307.6100764  +6.6971828     915.1663     1125.765     1284.891     77.81211     155.8105     311.7452      1.514     5.26     820.5209      54.9775     134.1924        10     1.260     0.620 -35.84   0
        11    454.3002      8.6426 307.7491098  +6.6861599     549.7186     621.3734     576.3253     78.18412     155.8726     312.1173      1.248     4.29     822.5022      54.9775     104.5289         6     1.048     0.501 -30.67   0
        12    386.4058      8.2678 307.7773411  +6.6840453     2454.557     3750.341     4095.885     77.68771     155.6242     311.2484      1.665     4.62     827.2923      54.9775     359.9305        18     1.571     0.666 -35.44  16
        13    981.4882      5.4625 307.5300964  +6.7050387     820.3569     1204.944      985.163     78.18412     156.1826     290.6808      1.549     4.87     819.1791      54.9775     118.8621        10     1.280     0.525 -44.06  16
        14    647.0852      3.7489 307.6691470  +6.6946147     11507.08     17217.89     18280.42     78.18412     152.1676     270.3373      1.589     4.40     820.4149      54.9775     1732.095        36     1.600     0.886 -34.85  24
        15     64.9819      4.9490 307.9110411  +6.6746497     641.1043     1062.853     1038.062     77.68771     156.0587     284.7644      1.726     4.98     827.9242      54.9775     106.4804         8     1.559     0.450 -42.28  16
        16    811.6840      3.1084 307.6007544  +6.7003629     1689.793     2517.499     2657.987     77.93631     146.7971     261.7206      1.622     5.12     820.4482      54.9775     223.5839        14     1.277     0.735 -39.64  24
        17    524.8356      3.4703 307.7199677  +6.6906506     1461.475     2251.185     2486.655     78.06031     150.0554     266.6992      1.630     4.03     821.0259      54.9775     249.9413        15     1.360     0.699 -32.77  16
        18    881.6356      1.5166 307.5717326  +6.7033476     1187.042     1563.318     1655.712     70.23363     126.6346     237.5435      1.286     5.54      820.876      54.9775     197.2578        12     1.383     0.626 -10.64  24
        19    246.6349      1.4748 307.8356620  +6.6821720     5024.624      6335.53     6258.592     69.81927     126.2521     237.0544      1.213     3.81     830.7538      54.9775     916.0405        16     1.322     0.572  -8.77  24
        20    637.6795      1.0569 307.6731470  +6.6954121     1200.503     1593.809     1845.929     64.18962      119.644     230.1818      0.837     2.41     820.3606      54.9775     432.0939         6     1.049     0.231   1.00  24
        21    423.0052      1.6488 307.7623528  +6.6880006     638.6265     841.4572     567.0145     71.59751     128.4546     239.4092      1.469     3.82     823.7426      54.9775      102.327         5     0.880     0.477   1.39  24
        22    407.6233      1.0516 307.7687661  +6.6877329     1424.974     1886.719     2046.197     64.03876      119.644     229.9296      0.924     3.24     824.9652      54.9775     450.3047         8     1.378     0.221   0.60  24
        23    617.6218    984.9313 307.6483774  +6.2886619     742.3812     1208.982      991.139      77.8121     155.9347     311.8693      1.709     4.65     853.2701      54.9775     109.8862         8     1.434     0.427 -27.62   0
        24    952.5405   1023.5717 307.5079855  +6.2838585     1898.041     2493.339     2393.871     68.98308     125.6377     236.3598      1.263     3.98     849.0036      54.9775     394.4615        13     1.269     0.697  -5.73  24
        25    727.5935   1022.6978 307.6014365  +6.2767378      854.548     1127.669     1050.749      77.0627     137.1223     249.7698      1.575     5.39      851.999      54.9775      112.428        10     1.131     0.724 -31.65  24
        26    711.7587   1023.1972 307.6079960  +6.2760044     2103.999     3202.659     3427.154     73.06839     130.6939     242.1408      1.632     5.37     852.3524      54.9775     280.0635        17     1.494     0.768 -13.58  24
        27    358.1921   1021.3746 307.7548908  +6.2649621     1803.541     2969.323     3275.874     77.81211     151.2751     268.5064      1.718     4.52     853.4607      54.9775     239.5641        19     1.536     0.798 -37.74  24
        28    809.6753    981.7858 307.5687206  +6.2963558     1946.666     3423.128      3465.52     77.68771     155.7485     311.7762      1.856     4.33     850.1935      54.9775     260.2438        24     1.440     1.038 -32.61   0
        29    757.8177    979.7416 307.5903266  +6.2954738     5785.346      10340.3     11923.44     77.81211     155.8726     311.6521      1.945     4.61     851.2266      54.9775     690.5457        44     1.795     1.202 -42.73   0
        30    544.2093    979.3716 307.6790532  +6.2885087     764.7856     1050.614     1477.204     77.81211     155.8105     311.7762      1.601     4.69      853.622      54.9775     127.6314         8     1.276     0.490 -31.35   0
        31    227.2840    978.8694 307.8106888  +6.2781279     1255.719     2333.546      2318.03     78.43114     156.2445     311.9313      1.753     6.08     851.1221      54.9775     182.7377        18     1.555     0.865 -37.10   0
        32    191.6405    978.5937 307.8255005  +6.2770488     822.5557     1378.563     1381.031     77.43831     155.6864     311.5901      1.781     5.26     850.4385      54.9775     134.2986         9     1.332     0.587 -35.61   0
        33     52.1268    976.9739 307.8834928  +6.2730443     2429.336     4066.343     4307.303     77.81211     155.8726     311.8383      1.794     4.16     847.8069      54.9775     322.8645        23     1.514     0.894 -30.16   0
        34    946.0720    974.7146 307.5123092  +6.3038092     5574.312      10526.5     11369.67     78.30773     156.2445     311.9313      2.024     4.66     848.1688      54.9775     589.6993        41     1.741     1.254 -36.51   0
        35    201.8018    970.6499 307.8215488  +6.2806675     619.8672     887.6171     586.0633     77.56311     155.6242     311.4969      1.462     3.78     850.4916      54.9775     96.41211         5     1.048     0.392 -85.78   0
        36    628.3492    969.2350 307.6444499  +6.2954979     690.0719     1057.301     975.6345     78.06032     155.9967     311.8073      1.682     4.64     852.9193      54.9775     87.58752         8     1.056     0.578 -21.54   0
        37    919.8271    966.2547 307.5234930  +6.3064288     1708.303     3284.441     3246.853     77.81211     156.0587     311.7452      1.969     5.21     848.6728      54.9775     200.4774        23     1.575     0.992 -14.52   0
        38    252.6601    962.6702 307.8006970  +6.2856627     4079.881     6722.415     6733.224     78.30773     155.9967     311.9313      1.793     4.65     851.2462      54.9775     505.9514        28     1.647     0.900 -37.00   0
        39    779.1959    963.1633 307.5820044  +6.3030279     1118.966     2238.874     2353.438     77.31331     155.7485     311.7142      1.984     5.01     850.7277      54.9775      164.806        15     1.431     0.940 -36.96   0
        40    640.5702    962.3616 307.6396054  +6.2987421     4217.339     7173.014      7694.48     77.81211     155.7485     311.7762      1.882     4.34     852.7011      54.9775     514.8958        32     1.608     1.036 -37.62   0
        41    989.3065    962.0523 307.4947770  +6.3104716     563.1208     879.6234     1269.057     78.06031     155.9347     312.1173      1.742     4.62      846.463      54.9775     76.60834         5     1.058     0.572 -19.85   0
        42    462.6057    960.9380 307.7135643  +6.2933937     1004.787     1545.288     1633.941     77.56311     155.8105     311.6832      1.648     4.04     853.1057      54.9775     172.0989        10     1.208     0.564 -37.46   0
        43     21.3018    960.0049 307.8968677  +6.2790144     2026.673      3361.91     3295.165     77.93631     155.6864      311.559      1.720     4.60     847.1188      54.9775     269.9532        22     1.602     0.833 -34.61   0
        44    872.4274    958.5624 307.5434373  +6.3080281     856.8002     1310.452     1227.019     77.81211     155.7485     311.7452      1.673     5.25     849.4991      54.9775     105.8364        12     1.189     0.748 -47.42   0
        45    288.6382    956.0284 307.7859794  +6.2896074     847.7085     1181.872     1167.435     77.68771     155.6864     311.7762      1.533     6.43     851.8041      54.9775     110.8235        12     1.491     0.779 -34.22   0
        46    997.0463    954.0048 307.4918320  +6.3140502     719.1236      1645.65     1596.029     77.56311     155.7485     311.5901      2.268     7.35      846.228      54.9775     108.5408        11     1.308     1.158  78.31   0
        47    565.0946    954.7913 307.6712063  +6.2993505     1538.108     2365.865     2325.854     77.81211     155.6242     311.6521      1.669     4.78     853.0582      54.9775     182.2831        15     1.260     0.799 -28.76   0
        48    604.4083    951.0675 307.6550039  +6.3021983     1034.035     1675.165     1606.798     77.68771     155.7485     311.8073      1.737     6.28     852.8017      54.9775     159.9286        13     1.467     0.756 -38.66   0
        49     54.1889    951.9850 307.8834814  +6.2834269      760.532       1299.7      1566.43     77.93631     155.6864     311.8383      1.853     5.72      847.351      54.9775     90.00281        10     1.231     0.750 -14.86   0
        50    284.0647    949.2808 307.7881065  +6.2922393     1537.226     2582.096     2930.594     78.43114     156.0587     311.8693      1.961     6.18     851.5998      54.9775     192.9893        16     1.398     0.768 -26.99   0
        51    750.8848    945.4427 307.5943577  +6.3093996      711.598      1223.36       961.45     78.18412     155.8726     311.8693      1.763     5.90     851.3114      54.9775     105.6251         8     1.687     0.581 -24.63   0
        52    888.7911    941.5790 307.5372105  +6.3155820     5956.534     10703.35     11273.51     77.81211     155.8105     311.6832      1.900     4.51     848.8368      54.9775     655.0443        38     1.666     1.168 -30.99   0
        53    424.5060    939.0240 307.7301257  +6.3011662     1917.405     3266.733     3616.973     78.30773     155.7485     311.7452      1.742     4.40     852.5049      54.9775     262.5696        21     1.503     0.912 -24.70   0
        54    326.2792    937.2794 307.7709793  +6.2986042     9045.398     14552.46     15373.35     78.43115     156.2445     312.0553      1.716     4.55      851.847      54.9775     1071.339        40     1.706     1.011 -33.95   0
        55    594.0601    938.5182 307.6597237  +6.3070329     542.7474     974.8446     1199.103     78.30773     155.9967     311.9313      1.956     4.82     852.6367      54.9775     83.26141         6     1.325     0.496  -2.66   0
        56    246.3394    936.2797 307.8042126  +6.2963434     6571.713     10702.96     11253.72     78.30773     155.9967     311.9003      1.782     4.65     850.5798      54.9775     794.6857        34     1.755     0.929 -31.26   0
        57    574.6744    930.5838 307.6680419  +6.3096613     1123.002     1872.916     1851.382     77.68771     155.7485     311.7762      1.694     6.78     852.5696      54.9775     125.7645        14     1.448     0.890 -58.70   0
        58    904.4215    926.8095 307.5312139  +6.3221976     1007.401     1677.095     1500.315     77.81211     155.7485     311.7142      1.773     5.26     848.0488      54.9775     138.4239        14     1.212     0.950 -41.87   0
        59    860.4775    925.2453 307.5495180  +6.3213823     621.0417     1200.693     1347.161     78.06031     156.0587     311.9003      1.823     5.48      849.453      54.9775     104.5948         7     1.523     0.557 -13.62   0
        60    972.4465    921.4225 307.5031408  +6.3266815     639.4011     1151.358      1345.49     77.81211     155.9967     311.7762      1.872     5.20     846.3895      54.9775     108.4457         5     1.129     0.677 -25.76   0
        61    740.5674    919.7771 307.5995047  +6.3196494     1575.313     2553.778     2794.602     77.68771     155.8105     311.6832      1.773     4.82     851.2966      54.9775     194.9312        18     1.485     0.807 -36.65   0
        62    564.7457    920.3426 307.6725101  +6.3135571     703.0451     966.8322     603.1361     78.30773     155.9967     311.9313      1.518     5.32     852.3965      54.9775     94.07416         8     1.394     0.572 -35.83   0
        63    525.3441    916.0765 307.6890182  +6.3140036     1172.825     1704.527     1500.815     78.18412     155.9967     311.8383      1.548     5.19     852.3798      54.9775     164.7483        15     1.447     0.787 -39.52   0
        64    604.4119    916.3406 307.6561702  +6.3165316     766.6713     1234.151     1405.013     77.56311     155.8726     311.6211      1.837     5.83     852.2001      54.9775     114.9493        10     1.109     0.864 -15.24   0
        65    972.1518    915.4998 307.5034616  +6.3291162     1114.377     2090.823     2930.371     78.18412     155.8726     312.0863      2.094     6.39     846.2247      54.9775     134.3793        18     1.454     0.914 -12.07   0
        66    659.4165    913.1682 307.6334316  +6.3196742     2405.592      3961.26     3619.897     77.81211     155.7485     311.7762      1.716     4.89     851.7249      54.9775     317.2981        25     1.646     0.884 -35.56   0
        67    949.3853    910.5909 307.5130821  +6.3303860     481.2583     778.0416     662.4479     77.93631     155.7485     311.7762      1.622     4.07     846.6242      54.9775     77.12238         5     1.177     0.403 -36.79   0
        68     55.9585    909.3378 307.8841885  +6.3010877     2575.652     4653.993     4752.784     78.18412     155.9347     311.9623      1.897     4.48      846.306      54.9775     354.6342        26     1.642     0.967 -44.38   0
        69    820.0846    910.0179 307.5668057  +6.3263238     777.4715     1280.587     1220.025     77.81211     155.7485     311.8383      1.636     5.77     849.5073      54.9775     88.43665        10     1.213     0.774   1.76   0
        70     73.4188    908.6389 307.8769608  +6.3019613      1772.81     2866.364     2689.721     77.81211     155.8105     311.6521      1.699     4.49     846.6025      54.9775     269.9453        19     1.528     0.812 -28.26   0
        71    936.3926    908.7704 307.5185396  +6.3307057     649.9346     822.4286     798.3246     77.81211     155.8105     311.6832      1.272     3.90     846.8939      54.9775     94.88098         6     0.722     0.658  20.63   0
        72    199.4977    908.2892 307.8246112  +6.3063283     2182.717     3358.354     2755.164     78.18412     156.4301     311.9003      1.699     4.52     849.3171      54.9775     270.2708        21     1.501     0.822 -34.51   0
        73    234.1400    905.0456 307.8103333  +6.3088265     858.0571     1076.591     1058.798     78.06031     155.9347     311.9933      1.469     5.22     849.8755      54.9775     121.1333        11     1.039     0.811 -47.65   0
        74    338.7979    904.3274 307.7668912  +6.3126230      957.813     1524.347     1682.402     77.68771     155.5621     311.7452      1.644     5.40     850.7258      54.9775     149.0963        11     1.353     0.633 -38.34   0
        75    654.0276    902.2502 307.6360368  +6.3240010     6622.227     10819.19     10937.27     77.81211     156.1206     311.8383      1.711     4.40     851.5152      54.9775     822.9771        34     1.595     1.010 -31.26   0
        76    791.9340    902.4383 307.5787523  +6.3285156     626.9482      971.077     1249.092     78.06031     155.9347     311.9933      1.686     5.41     849.6838      54.9775     104.6045         7     1.392     0.593 -38.92   0
        77     13.9577    900.6633 307.9019249  +6.3032597     1154.761     1870.812     1806.637     78.18412     155.9347     311.9623      1.714     5.93     845.2089      54.9775     147.8858        13     1.572     0.641 -33.55   0
