#   1 NUMBER                 Running object number                                     
#   2 X_IMAGE                Object position along x                                    [pixel]
#   3 Y_IMAGE                Object position along y                                    [pixel]
#   4 ALPHA_J2000            Right ascension of barycenter (J2000)                      [deg]
#   5 DELTA_J2000            Declination of barycenter (J2000)                          [deg]
#   6 FLUX_APER              Flux vector within fixed circular aperture(s)              [count]
#   9 FLUXERR_APER           RMS error vector for aperture flux(es)                     [count]
#  12 FLUX_RADIUS            Fraction-of-light radii                                    [pixel]
#  13 FWHM_IMAGE             FWHM assuming a gaussian core                              [pixel]
#  14 BACKGROUND             Background at centroid position                            [count]
#  15 THRESHOLD              Detection threshold above background                       [count]
#  16 FLUX_MAX               Peak flux above background                                 [count]
#  17 ISOAREA_IMAGE          Isophotal area above Analysis threshold                    [pixel**2]
#  18 A_IMAGE                Profile RMS along major axis                               [pixel]
#  19 B_IMAGE                Profile RMS along minor axis                               [pixel]
#  20 THETA_IMAGE            Position angle (CCW/x)                                     [deg]
#  21 FLAGS                  Extraction flags                                          
         1    472.9659     27.6260 307.7478678  +6.6790224     1907.589     2853.825     2557.919     81.43808     163.5947     327.2545      1.603     3.72     929.3707     57.72412     228.1752        17     1.173     0.951  66.07   0
         2    440.7242     16.9559 307.7616265  +6.6823459     6454.789     9689.984     10238.64     81.96013     163.8552     327.5151      1.612     3.21     931.2896     57.72412     870.4873        35     1.434     1.127  54.71   0
         3     41.7026     16.5724 307.9274516  +6.6690843     9044.352     13231.56      13580.2     82.21991     163.5295       327.45      1.608     3.28     949.4748     57.72412     1207.625        33     1.407     1.049  57.72   0
         4    337.3487     11.8873 307.8047562  +6.6809672     13383.73      20389.3     21561.43     82.09012     163.6599     327.5802      1.625     3.29     942.1694     57.72412     1637.627        42     1.410     1.200  63.68   0
         5    516.4750     13.5936 307.7302607  +6.6862756     880.1544     1342.157     1425.065     81.69952     163.2685     327.3197      1.629     4.19     927.9211     57.72412     134.6082         9     0.960     0.729  14.56   0
         6    111.1184     12.2544 307.8987532  +6.6732056     2745.678     4158.743     4137.618     82.09012     163.7901     327.5477      1.593     3.49       950.29     57.72412     370.4141        23     1.355     0.977  41.55   0
         7    432.5782     12.4821 307.7651626  +6.6839196     828.3676     1277.577     1641.708     81.82993     163.4643     327.4174      1.658     4.31     931.7785     57.72412     129.8264         8     1.072     0.494 -89.16   0
         8    967.6091     12.2092 307.5428255  +6.7019412     652.3978     1107.402     1814.091     81.69952     163.5947     327.3523      2.247     4.90     916.2279     57.72412     106.8514         7     1.094     0.621  25.32   0
         9    102.3116     11.1240 307.9024511  +6.6733757     1550.276     2366.523     2521.822     82.09012     164.1153     327.5802      1.576     4.31     950.5494     57.72412     209.7117        16     1.310     0.831  57.97   0
        10    805.6422     10.4437 307.6101961  +6.6972593      887.675     1037.937     1028.993     81.82993     163.7901     327.3197      1.323     5.00     921.6595     57.72412     142.2808        10     1.135     0.705  77.38   0
        11    403.5038      9.8511 307.7773337  +6.6840299     2357.794     3483.135     3543.204     81.96013      163.725     327.6778      1.577     4.02     934.3958     57.72412     283.8044        21     1.299     1.032  32.98   0
        12    829.0016      4.9716 307.6006724  +6.7002995     1879.291      2706.06     3161.607     81.56891     163.5295     299.2761      1.465     3.85     920.6054     57.72412     296.8142        19     1.457     0.801  49.93  16
        13    664.2628      5.3732 307.6691213  +6.6946222     11819.69     16659.65     17193.67     81.69952      163.725     303.9777      1.498     3.01     925.6362     57.72412     1743.903        35     1.342     1.034  54.68  16
        14     82.4409      6.2756 307.9108724  +6.6747081     685.6405     974.3942     929.5787     81.96013     163.7901     313.4074      1.441     3.51     950.0908     57.72412     101.7164         5     0.772     0.460  72.41  16
        15    542.0211      4.9440 307.7199363  +6.6907035      1233.48     2052.252     1854.048     81.69952     163.7901     299.0266      1.735     3.37     927.2507     57.72412     195.7992        11     1.080     0.699  54.69  16
        16    899.4329      2.7734 307.5714759  +6.7035607     1712.253     2160.512     2708.849     81.56891     149.8517     269.5463      1.315     2.91      919.345     57.72412     296.9628        14     1.056     0.814  64.61  24
        17    264.6458      2.3893 307.8352894  +6.6824450     6644.542     9384.817     9834.688     81.30705     145.2998     263.5863      1.585     3.54     947.4454     57.72412     828.6088        29     1.495     1.068  -5.44  24
        18    786.6016      2.8094 307.6183659  +6.6997746     469.1672     602.9224     766.3622     81.43808     150.4198     270.0206      1.210     2.65     922.2731     57.72412     95.96466         5     0.719     0.450  69.99  16
        19    656.1074      1.6041 307.6726375  +6.6959052     6949.642         8467     8595.312     74.89024     134.3175     251.0303      1.195     3.18     925.7246     57.72412      1395.28        17     1.144     0.726   7.22  24
        20    425.9270      1.7233 307.7682900  +6.6881385     6254.476     7762.808     7983.968     76.44035      136.444     253.0187      1.274     3.09     932.1794     57.72412     1093.368        19     1.203     0.781   1.98  24
        21    967.3926      2.1053 307.5432549  +6.7061057     592.7222     744.3627     1002.359     79.44987     141.2815     259.0984      1.475     3.39     915.7738     57.72412     93.89056         5     0.777     0.429  68.81  24
        22    686.0562      1.3769 307.6601991  +6.6970018       3763.8     4594.737     4844.152     71.68955     130.6964     247.0485      1.164     2.87     925.2302     57.72412     968.5879        16     1.225     0.593   2.48  24
        23     75.7183    999.6524 307.8800302  +6.2643412     1107.395     1629.837      1663.54     82.09012     163.7901     327.5151      1.621     4.72     970.4078     57.72412     156.9509         9     0.945     0.707  72.59   0
        24    743.7728   1023.7126 307.6018240  +6.2768156     814.4594     855.2288     1096.162     70.94199     129.3845     245.5332      0.894     2.33     961.6781     57.72412     227.4952         5     0.725     0.430  14.05  24
        25    727.8127   1023.8035 307.6084483  +6.2762444     1075.312     1192.137     1200.576     69.11485     127.6421     243.8774      0.817     1.75     962.1702     57.72412      381.153         5     0.690     0.387   9.12  24
        26    374.8142   1022.5468 307.7550671  +6.2649391      2070.11     2677.519      2680.47     81.43808     146.2507     264.5151      1.367     3.12     968.8665     57.72412      310.971        15     1.111     0.842  45.79  24
        27    806.3881    999.0472 307.5766519  +6.2890927      708.757     824.4263     1057.351     81.43808     163.6599     327.1568      1.351     3.40     959.3255     57.72412     122.3804         7     0.901     0.615  35.09   0
        28    493.9116    997.4324 307.7064610  +6.2793025     2582.827     3444.263     3670.827      82.2199     163.5947     327.4825      1.364     2.83     966.7416     57.72412     421.2993        16     1.096     0.814  52.31   0
        29    928.4103    989.5110 307.5263014  +6.2971050     52468.39     70492.91     72909.47     81.82993     163.4643     327.2871      1.430     2.86     955.8704     57.72412     8423.127        54     1.378     1.047  57.04   0
        30    529.3818    992.8185 307.6918878  +6.2823961      421.231     721.9531     817.2938     81.82993     163.5295     327.4174      1.636     3.40     966.0632     57.72412     84.42834         5     0.759     0.440 -70.56   0
        31    333.0052    990.8625 307.7734964  +6.2766180     586.3627      819.187     550.1069     81.43808     163.5295     327.2545      1.462     4.02     969.1821     57.72412     94.32751         5     0.864     0.534  55.35   0
        32      1.6050    989.4939 307.9111465  +6.2660405     2999.929     3718.154     3742.396     75.03249     134.3175     251.0303      1.254     3.00     971.2045     57.72412     579.3369        15     1.162     0.703  83.48  24
        33    235.5740    987.7188 307.8140587  +6.2746438     2038.445     2937.451     2423.135     81.96013     163.5947     327.4825      1.490     3.60     969.2146     57.72412     324.8749        17     1.247     0.852  79.35   0
        34    123.6412    986.8064 307.8605665  +6.2712574     656.1931     893.9035      1132.96     81.43808     163.4643     327.1894      1.459     3.93     969.9579     57.72412     116.5354         6     1.326     0.333  74.40   0
        35    774.5615    981.2703 307.5904653  +6.2953692     7850.239     10791.99     12119.84     81.96013     163.7901     327.5477      1.494     3.05     959.6353     57.72412     1170.251        34     1.504     1.034  88.20   0
        36    634.5986    985.7703 307.6484342  +6.2888298     979.1379     1372.081     1421.371     81.43809     163.5947     327.2871      1.410     2.98     963.4958     57.72412     150.7881        10     0.840     0.820  52.43   0
        37    826.4143    983.2438 307.5688667  +6.2962870     2894.017     3771.004     3926.169     81.43809     163.5947      327.222      1.451     3.20     958.2153     57.72412     414.8806        21     1.248     0.926  53.79   0
        38    243.8495    980.2697 307.8108742  +6.2779975     1642.304     2155.146     2244.187     82.09012      163.725     327.5151      1.352     3.62     969.1082     57.72412     233.7943        15     1.130     0.916  43.54   0
        39    208.0317    979.9092 307.8257588  +6.2769426     976.9127     1542.359     1871.552     82.21991     163.5947     327.5151      1.629     4.85      969.285     57.72412     157.3631        12     1.154     0.829  52.41   0
        40    561.0818    980.1918 307.6791497  +6.2886716     935.1984     1334.038     829.4823     81.69952      163.399     327.3523      1.276     2.62     965.0516     57.72412     183.8671         7     0.836     0.540  46.39   0
        41     69.0468    978.2486 307.8835245  +6.2729539     3226.838     4295.653      4153.24     82.09012     163.6599     327.4825      1.408     3.22     970.2503     57.72412     498.2331        21     1.223     0.912  49.46   0
        42    962.7383    976.2748 307.5124901  +6.3037157     8015.891     10774.83     10455.93     82.34949     163.7901     327.4825      1.402     2.90     954.2617     57.72412     1189.493        28     1.277     0.935  53.83   0
        43    218.7910    972.6858 307.8215354  +6.2802867     702.7702     885.0889     1012.987     81.69952     163.4643     327.3197      1.375     3.74     969.0808     57.72412     113.6547         5     0.876     0.458  47.58   0
        44    645.0887    970.2460 307.6446005  +6.2955907     841.4604     917.3323     578.6929     82.09012     163.6599     327.5802      1.217     4.56     962.9442     57.72412     120.3993         9     1.028     0.619  31.17   0
        45    936.6342    967.9199 307.5236106  +6.3062945     2527.124     3337.069      3333.21     81.96013     163.8552     327.5151      1.373     3.20     954.8801     57.72412     446.5493        16     1.190     0.780  50.61   0
        46    796.0084    964.4849 307.5821232  +6.3030166     1610.395     2189.555     2368.402     81.69952     163.4643     327.3197      1.410     3.27     958.5081     57.72412     269.8766        13     1.033     0.881  40.09   0
        47    657.2254    963.7490 307.6397792  +6.2986795     5474.135     7054.725     7159.646     81.69952     163.7901     327.3849      1.362     2.78     962.5273     57.72412     904.0562        23     1.209     0.916  67.64   0
        48    269.3646    964.0696 307.8008266  +6.2855434     5026.383     6826.577     6611.633     81.96013     163.8552     327.5802      1.399     2.76     968.8799     57.72412     854.0557        23     1.150     0.963  44.67   0
        49   1006.9438    963.4741 307.4945621  +6.3104757      804.142     1239.315     1767.585     81.96013     163.6599     327.4174      1.961     5.24     952.2236     57.72412     119.9479         8     1.147     0.676  35.92   0
        50    479.3351    962.1623 307.7137023  +6.2933766      1318.21     1706.633     1295.631     81.96013      163.725     327.5802      1.335     2.76     966.3729     57.72412     242.8903        10     0.898     0.726  77.41   0
        51     38.2674    961.5574 307.8968695  +6.2788092     2703.473     3627.984     3561.567     82.09012      163.725     327.5477      1.457     3.29     970.4448     57.72412     398.9661        19     1.141     0.952  78.80   0
        52    888.6190    960.2353 307.5438078  +6.3078647     1099.689     1504.277     1204.297     81.56891     163.5947     327.2545      1.316     4.52     955.9449     57.72412     176.7949        11     1.084     0.902  74.47   0
        53    980.8317    958.5248 307.5055718  +6.3116483     675.1674     854.6544     681.7535     81.96013     163.8552       327.45      1.219     4.05     952.9949     57.72412     109.5817         6     1.022     0.458  60.91   0
        54    960.3059    957.4615 307.5141313  +6.3114026     990.4813     1382.571     1743.474     81.96013     163.8552     327.5151      1.518     3.18     953.6835     57.72412     155.1217        12     1.030     0.754  55.28   0
        55    581.8754    956.5841 307.6713100  +6.2991154     2009.601     2644.077     2547.111     81.56891     163.5295     327.3523      1.357     3.27     964.0876     57.72412     292.4096        12     1.068     0.687  74.45   0
        56    305.3440    957.4606 307.7861098  +6.2894805      935.802     1297.662     1747.644     82.21991     163.7901     327.5151      1.713     4.22     968.6628     57.72412     178.6375        10     1.232     0.623  67.81   0
        57   1013.3179    955.6498 307.4921774  +6.3139189     849.0392     1485.087      1878.51     82.09012     163.7901     327.5151      2.222     5.07     951.7069     57.72412     141.1801        12     1.651     0.715 -84.04  16
        58    621.0148    952.7905 307.6551847  +6.3019923     1658.643     2230.922     2259.604     81.82993     163.5295     327.3849      1.354     3.36     963.1447     57.72412     263.0887        13     1.091     0.793  64.43   0
        59     71.0537    953.5898 307.8835255  +6.2832025     915.9921     1217.094     1232.422     81.43808      163.725     327.1894      1.374     3.43     969.9587     57.72412     149.4001         9     0.943     0.753  33.13   0
        60    301.0270    950.3927 307.7881410  +6.2922537     1830.679     2413.072     2084.671     81.56891     163.5947     327.2871      1.381     2.72     968.5767     57.72412     301.2506        11     0.952     0.717  55.97   0
        61    568.9194    948.5470 307.6769607  +6.3020000     709.1123     1126.815     1308.934     82.09012     163.7901     327.5151      1.569     3.29      964.199     57.72412     148.5654         6     0.991     0.446  56.24   0
        62    767.8286    946.6802 307.5944236  +6.3094263     1159.765     1452.276     1282.562     81.96013      163.725     327.4174      1.450     4.48     958.8276     57.72412     177.1837        10     1.009     0.705  60.12   0
        63    143.4669    945.3640 307.8537357  +6.2890350     625.9858     779.7285     643.3095     81.96013     163.9203     327.5477      1.165     3.75     969.2053     57.72412     103.9692         6     0.952     0.424  72.08   0
        64    905.4713    943.1546 307.5373827  +6.3154800     8457.123     11439.23     11534.87     82.09012     163.7901     327.4825      1.409     2.82     955.0688     57.72412     1372.914        27     1.260     0.926  51.07   0
        65    441.2635    940.3262 307.7302476  +6.3011161     2627.795     3404.792     3361.057     82.21991     163.7901       327.45      1.368     2.73     966.5479     57.72412     448.0587        16     1.047     0.858  67.52   0
        66    610.0396    939.9131 307.6601758  +6.3069419      648.535     748.8798     419.7491     82.09012      163.725     327.4825      1.409     3.83     963.2448     57.72412     113.5551         5     0.815     0.517  64.00   0
        67    343.0250    938.6355 307.7710983  +6.2985182     11111.01      14879.5     15724.18     81.69952     163.5947      327.222      1.416     2.95     968.0209     57.72412     1731.689        31     1.274     0.995  64.05   0
        68    263.1325    937.6127 307.8043080  +6.2962577     8074.259     10949.12     11335.57     81.56891     163.5947     327.3849      1.409     2.95     968.5295     57.72412     1276.078        29     1.264     0.960  59.71   0
        69    590.9832    931.9490 307.6683573  +6.3095922     1232.736      1680.88     1671.002     81.56891     163.8552     327.1894      1.354     3.86     963.4698     57.72412     220.0796        10     1.208     0.588  58.68   0
        70    775.5265    931.9835 307.5917208  +6.3157519     719.8072     1025.382     1289.311     81.56891     163.5947     327.3849      1.386     3.74     958.1288     57.72412     110.6436         6     0.803     0.499 -89.76   0
        71    921.2494    928.1387 307.5313343  +6.3222067      1347.49     1730.469     2004.151     82.09012      163.725     327.5477      1.326     3.21     954.1587     57.72412     211.8096        11     1.083     0.688  63.54   0
        72    877.8008    927.3028 307.5494057  +6.3211014     1112.157     1591.852     972.7145     81.56891      163.399     327.1242      1.582     5.08     955.4941     57.72412     136.7053        10     1.081     0.675  38.66   0
        73    153.4448    928.0089 307.8501794  +6.2965362     790.2368     1122.086     564.2548     81.56891     163.6599     327.1568      1.467     4.60     968.8221     57.72412     113.4849         8     0.979     0.629  49.66   0
        74    419.5839    926.6755 307.7397105  +6.3060253     728.4304     711.0184     747.8748     81.56891     163.5295     327.3523      1.286     5.02     966.7831     57.72412      104.389         7     0.995     0.717  68.54   0
        75    988.2145    923.6734 307.5036746  +6.3262849     981.3751     1551.137     2175.683     81.56891     163.5295     327.3523      1.983     4.41     951.4004     57.72412     153.1251         9     0.975     0.619  69.68   0
        76    581.0354    922.1308 307.6728188  +6.3133129     796.9717      1142.22     394.9101     81.96013     163.8552     327.5802      1.378     4.69     963.3331     57.72412     116.4042         8     1.004     0.621  65.00   0
        77    757.4782    921.2018 307.5995781  +6.3196004     1837.824     2450.205     2606.185     81.43809     163.2032     327.2545      1.313     2.90     958.4453     57.72412     332.3308        13     1.016     0.762  67.83   0
