#   1 NUMBER                 Running object number                                     
#   2 X_IMAGE                Object position along x                                    [pixel]
#   3 Y_IMAGE                Object position along y                                    [pixel]
#   4 ALPHA_J2000            Right ascension of barycenter (J2000)                      [deg]
#   5 DELTA_J2000            Declination of barycenter (J2000)                          [deg]
#   6 FLUX_APER              Flux vector within fixed circular aperture(s)              [count]
#   9 FLUXERR_APER           RMS error vector for aperture flux(es)                     [count]
#  12 FLUX_RADIUS            Fraction-of-light radii                                    [pixel]
#  13 FWHM_IMAGE             FWHM assuming a gaussian core                              [pixel]
#  14 BACKGROUND             Background at centroid position                            [count]
#  15 THRESHOLD              Detection threshold above background                       [count]
#  16 FLUX_MAX               Peak flux above background                                 [count]
#  17 ISOAREA_IMAGE          Isophotal area above Analysis threshold                    [pixel**2]
#  18 A_IMAGE                Profile RMS along major axis                               [pixel]
#  19 B_IMAGE                Profile RMS along minor axis                               [pixel]
#  20 THETA_IMAGE            Position angle (CCW/x)                                     [deg]
#  21 FLAGS                  Extraction flags                                          
         1      9.0839     71.1281 307.9361369  +6.6320457     740233.2      1777815      1960997     81.94096     163.5585      326.404      2.326     7.48     936.4772     57.52829     61061.18       390     2.284     1.779 -44.01  28
         2    642.5635     24.0713 307.6744375  +6.6727891     15975.59     27716.08     29283.85     81.68206     163.2344      326.404      1.870     4.67     907.5552     57.52829     1779.751        52     1.737     1.184 -36.94   0
         3    268.4998     16.1366 307.8301884  +6.6634916     7841.636     14040.05      15111.5     81.55231     163.2993      326.404      1.908     4.47     926.9525     57.52829     883.9208        42     1.737     1.147 -38.53   2
         4    447.8950     15.7641 307.7556353  +6.6696811     19186.73     34365.26     35983.42     81.94096     163.1046     326.4688      1.905     4.74      912.137     57.52829     2136.986        55     1.754     1.235 -37.26   0
         5    628.8514     14.5480 307.6804597  +6.6762601     2509.672     5223.438     6324.766     81.94096     163.1046     326.3715      2.327     6.18     907.4084     57.52829     314.6702        33     1.841     1.393 -86.94   0
         6    925.8668     15.6272 307.5569611  +6.6857644     1675.209     2728.693     1987.818     81.42234     163.1046     326.2741      1.699     6.10     902.2573     57.52829     251.5765        16     1.459     0.818 -32.25   0
         7     33.8880     15.5633 307.9277211  +6.6558179     1940.536     3478.944     3423.983     81.81161     163.1046     326.3715      1.886     5.04     932.0872     57.52829     217.7543        23     1.565     0.964 -31.81   0
         8    256.4112     12.6184 307.8353326  +6.6645367     2608.719     4345.389     4447.695     81.42235     162.9097     326.2741      1.808     4.54     927.3081     57.52829     320.9374        27     1.583     1.054 -41.87   0
         9    309.5673     10.8382 307.8132989  +6.6670613     921.8669     1659.862     1908.932     81.42234     163.0397     326.1443      1.987     5.67     924.6287     57.52829     125.0643        11     1.270     0.713 -35.49   0
        10    946.1619      5.9196 307.5488526  +6.6904503      915.678     1388.505     1715.194     81.68206     163.2993     308.8321      1.927     6.08     900.3056     57.52829     129.1644        12     1.335     0.827 -51.30  16
        11    697.5873      5.4826 307.6521951  +6.6823075      1632.97     2904.893     3219.599     81.42235     162.9747     304.0281      1.953     4.87     905.2592     57.52829     200.4828        21     1.459     0.976 -44.27  16
        12    208.9428      1.3599 307.8554454  +6.6675846     476.3592     684.4075     592.9435     71.44633     130.0903     245.9951      1.483     4.32     928.2059     57.52829     100.8989         5     1.109     0.480   0.80  24
        13    580.4751   1003.9481 307.6670666  +6.2662269     3902.736     6706.051     7926.242     81.81161     163.2993     326.3715      1.882     5.14     945.2412     57.52829     445.7361        29     1.643     0.961 -37.97   0
        14    806.6002   1023.5104 307.5724869  +6.2657278     7776.388     10269.94     10706.97     72.33024     131.7084     247.7112      1.322     3.94     941.3331     57.52829     1577.329        20     1.412     0.652  -4.99  24
        15     77.4462   1023.6519 307.8753152  +6.2411804     3752.051     4754.808         4786     71.29795     129.7642     245.7798      1.207     3.51     950.7678     57.52829     855.5099        14     1.297     0.554  -5.40  24
        16    716.2888   1004.0352 307.6106548  +6.2707433     1106.013     1783.877     2158.572     81.94096     163.1695     326.3715      1.841     6.11     943.0978     57.52829     167.7928        14     1.324     0.792 -42.33   0
        17    492.3568   1002.5803 307.7037114  +6.2638347     1713.557     1901.552     1695.658     81.29218     163.1046     326.2092      0.787     0.84     945.9102     57.52829       704.16         5     0.559     0.479  88.38   0
        18    756.2470   1000.0901 307.5941916  +6.2737100     1248.571      2050.67     2479.925     81.81161     163.1046     326.5013      1.774     6.27     941.6976     57.52829     160.4537        16     1.340     0.954 -28.86   0
        19    963.7890    994.4355 307.5081794  +6.2829863     6123.458     10474.35     10857.83     81.29218     163.0397     326.1443      1.808     4.57     936.1211     57.52829     714.7799        33     1.635     1.046 -38.80   0
        20    718.1750    994.5985 307.6101902  +6.2747018     1068.755     1712.815     3259.989     81.42234     162.9097     326.1443      1.931     4.72      942.762     57.52829     153.4186        12     1.330     0.694 -35.37   3
        21    723.6376    992.4637 307.6079934  +6.2757660     2594.976     4578.014     5397.946     81.81161     163.1695      326.404      1.902     4.98     942.4409     57.52829     354.3099        27     1.658     0.919 -37.20   2
        22    248.3619    994.5636 307.8053206  +6.2589432     1360.956     2369.112     2416.606     81.55231     163.1046     326.2092      1.858     4.92     949.8811     57.52829     199.5435        17     1.258     0.994 -30.50   0
        23    446.6169    993.4142 307.7230191  +6.2660824     935.6375     1464.566     2116.357     81.55231     162.9097     326.3066      1.884     6.49     946.8555     57.52829     127.4824        13     1.325     0.891 -49.58   0
        24    739.4456    991.6561 307.6014549  +6.2766288     979.5742     1640.087     1853.693     81.81161     163.2344      326.404      1.895     5.85     941.8802     57.52829     138.8335        12     1.470     0.654 -34.74   0
        25    370.1841    989.9294 307.7548822  +6.2649529     1681.515     2820.395     3227.865     81.29217     163.1695     326.2741      1.880     5.45     948.5771     57.52829     218.2679        17     1.565     0.729 -36.97   0
        26    980.8192    987.9514 307.5013244  +6.2862320     570.1105     774.9658     673.8869     81.29218     163.2993     326.1768      1.517     3.86     935.3085     57.52829     77.79211         5     0.818     0.522 -33.85   0
        27    757.1167    979.5424 307.5945244  +6.2822210     7487.607     12566.86     13011.28     81.81161     163.2344     326.4364      1.789     5.01     941.2433     57.52829     906.4143        37     1.645     1.038 -36.03   0
        28    552.4949    980.1619 307.6794928  +6.2751069     3975.726     6790.969     7263.352     81.94096     163.1046     326.5013      1.860     4.95     945.1134     57.52829     482.9985        30     1.649     0.965 -41.68   0
        29    522.8886    981.1326 307.6917566  +6.2737128     1053.656     1928.606     1977.003     81.94096     163.4289     326.3391      1.821     6.24     945.4279     57.52829     157.9283        15     1.875     0.583 -32.28   0
        30    302.9573    978.6984 307.7831843  +6.2673287     13743.56     23440.92     25765.93     81.81161     163.1046     326.5986      1.872     5.34     949.5668     57.52829     1775.955        51     2.050     1.009 -36.74   0
        31    427.0510    979.0479 307.7316323  +6.2713554     900.5714     1384.998      1391.93     81.94096     163.1046     326.3715      1.737     6.36     947.3884     57.52829     114.2619        12     1.415     0.803 -33.43   0
        32    818.3668    978.6752 307.5691131  +6.2846293     1016.734     1599.387     1646.908     81.68207     163.2344     326.3391      1.784     4.83     939.7325     57.52829     146.1573         9     1.141     0.580 -18.18   0
        33    274.3021    976.7410 307.7951520  +6.2671728      866.154     1391.852     1620.559     81.55231     163.1695     326.5013      1.817     5.39     949.6882     57.52829     127.0975         9     1.256     0.652 -35.90   0
        34    918.4141    973.0176 307.5277484  +6.2903110     8359.247     13736.45     14213.68     81.55231     162.9097     326.2741      1.770     4.81     936.9259     57.52829     961.8472        34     1.597     1.042 -39.40   0
        35    549.6752    972.3671 307.6809277  +6.2782299     7989.842     13058.82     14172.55     81.68207     163.2344     326.3066      1.774     4.94     945.0471     57.52829      992.699        36     1.629     1.012 -42.76   0
        36     48.5175    971.7248 307.8890952  +6.2616392     639.5186     822.9691     201.9614     82.07011     163.5585     326.4364      1.372     6.18     949.7489     57.52829     102.3699         8     1.523     0.706 -51.85   0
        37    604.7803    969.7679 307.6581279  +6.2811512     1239.782     2344.792     2111.606     81.29218     163.0397     326.2092      1.724     6.31     944.0126     57.52829     190.7028        16     1.617     0.817 -41.90   0
        38   1013.8120    968.6276 307.4882715  +6.2953109     4476.511      7726.96      8330.32     81.42234     163.0397     326.3066      1.865     5.15     933.4335     57.52829     526.1282        31     1.665     0.974 -40.38  16
        39    892.0115    969.1134 307.5388467  +6.2910398     11467.43     19855.03     21354.68     81.42234     162.9747     326.2092      1.841     5.14     937.4919     57.52829     1421.002        48     1.744     1.149 -36.09   0
        40    536.0892    968.1021 307.6867150  +6.2795346     3876.967      6335.35     7253.354     81.81161     163.6879     326.3715      1.764     5.21      945.179     57.52829     472.1683        24     1.569     0.928 -35.69   0
        41     70.4928    967.1691 307.8801235  +6.2642606      791.078     1319.494     651.6534     81.94096     163.0397     326.3715      1.739     5.86     949.5748     57.52829     135.0048         8     1.585     0.611 -52.43   0
        42    645.8010    967.2901 307.6411737  +6.2835493     1348.797     2059.175     1982.996      81.0312     162.7796     326.1118      1.604     5.20     943.5085     57.52829     202.6495        15     1.373     0.764 -29.47   0
        43    800.9738    966.2555 307.5767567  +6.2891739     562.5608     827.1662     857.5562     81.42234     163.2993     326.2092      1.604     4.93     939.8182     57.52829     87.68927         7     1.360     0.506 -20.10   0
        44    489.4840    964.5841 307.7061913  +6.2794225     2192.897     3419.475     3341.034     81.42235     162.9097     326.2741      1.751     5.61     945.5932     57.52829     251.6563        21     1.593     0.907 -33.50   0
        45    923.7831    956.7416 307.5260672  +6.2972091     41057.46     69378.91     73090.15     81.42234     163.1695     326.1443      1.808     4.99     936.2435     57.52829     5049.505        66     1.733     1.170 -39.65   0
        46    231.0427    954.9664 307.8138580  +6.2747052     1498.583     2310.831     2133.406     81.55231     163.2344     326.1768      1.599     5.03     949.1093     57.52829     218.0687        14     1.489     0.666 -38.44   0
        47    118.6554    954.1016 307.8605649  +6.2712776     675.4095     1001.746     366.9979     81.68207     163.2344     326.5986      1.526     5.17     949.1121     57.52829     104.4978         8     1.350     0.560 -31.32   0
        48    769.8357    948.5827 307.5902871  +6.2954268     6179.172     10430.43     11094.49     81.29218     163.0397     326.1443      1.827     5.26     940.1993     57.52829     824.6686        37     1.784     1.089 -52.46   0
        49    629.9712    952.9225 307.6482346  +6.2889494     787.7752     1363.025     1839.038     81.68207     163.2993      326.404      1.864     4.38     943.1201     57.52829     117.5653         8     1.330     0.411 -30.89   0
        50    821.8170    950.4886 307.5686316  +6.2963799     2201.466     3539.678     4006.981     81.55231     162.9747     326.2417      1.751     5.45     938.8346     57.52829     309.9897        19     1.536     0.786 -41.78   0
        51    556.0311    948.0499 307.6791108  +6.2884810     793.9415     1378.395     1480.416     81.55231     163.2344     326.3066      1.839     6.68     944.6022     57.52829     116.2129        11     1.318     0.951 -50.81   0
        52    239.3706    947.2798 307.8106601  +6.2781583      1324.34     2317.666     1945.537     81.68207     163.2344     326.3391      1.803     5.77     949.0338     57.52829     163.8734        14     1.488     0.721 -51.30   0
        53    203.9951    947.1326 307.8253577  +6.2770284     899.8282     1310.696     1282.001     81.29218     162.9097     326.1768      1.857     6.04     948.8962     57.52829     115.7155        12     1.224     0.837  14.06   0
        54     64.3016    945.5387 307.8834304  +6.2729802     2512.142     4102.155     4302.056     81.55231     163.2344     326.5013      1.736     4.76     949.1949     57.52829     326.6435        24     1.594     0.849 -43.76   0
        55    958.1506    943.4411 307.5122404  +6.3038482     6284.021     10793.92     11326.15     81.94096     163.2344     326.3066      1.842     4.85     934.5475     57.52829     759.3422        36     1.588     1.141 -36.57   0
        56    640.0938    938.1001 307.6445313  +6.2954073     638.5952     1040.074     1290.863     81.81161     163.7526     326.2092      1.917     5.26     942.3901     57.52829     89.52966         7     1.340     0.584 -41.11   0
        57    214.1955    939.2306 307.8213895  +6.2806335     537.2281     834.5753      759.913     81.29217     163.1046     326.1443      1.611     3.36     948.7254     57.52829     86.68567         5     0.935     0.350 -45.63   0
        58    931.8132    935.0060 307.5234647  +6.3064499     1834.055     3348.526     3600.391     81.42234     163.0397     326.2417      1.978     5.68     935.2432     57.52829     247.8494        22     1.613     0.870 -39.00   0
        59    791.2883    931.5247 307.5819524  +6.3031864     1346.268     2170.434      2430.62     81.81161     163.5585     326.4688      1.711     5.63     939.1301     57.52829     183.4319        14     1.456     0.763 -35.19   0
        60    652.5814    931.0549 307.6395827  +6.2987341     4203.761     6941.757     7186.538     81.29217     163.2344     326.1768      1.745     4.88     941.8772     57.52829     573.8898        29     1.597     0.954 -37.58   0
        61    264.8387    931.2513 307.8006264  +6.2856315     3935.461     6828.151     6318.659     81.55231     163.2344     326.3391      1.768     4.98     949.1023     57.52829     542.6081        28     1.649     0.945 -37.31   0
        62   1001.7933    930.8278 307.4945373  +6.3105131     735.0427     1273.769     1282.814     81.29217     163.1046     326.1768      1.656     6.17     932.4697     57.52829     100.8197        10     1.156     0.926 -79.65   0
        63    474.7632    929.3695 307.7134983  +6.2934643     1070.822     1643.574      1635.44     81.42235     162.9747     326.2092      1.810     5.59     945.5689     57.52829     144.7026        13     1.366     0.661 -34.69   0
        64     33.5768    928.5510 307.8967690  +6.2789563     2034.397     3308.564     3604.547     81.42235     163.2993     326.2741      1.787     5.12     949.1827     57.52829     314.5914        19     1.541     0.843 -30.54   0
        65    884.0509    927.6029 307.5435537  +6.3079090     820.6172     1400.237     1032.966     81.16179     162.9747     325.9494      1.798     6.25     936.6475     57.52829     120.0247        11     1.589     0.691 -36.36   0
        66    976.6232    924.8552 307.5051938  +6.3121377     682.6873     1161.617     925.8578     81.42234     163.2344     326.1768      1.818     4.61     933.1996     57.52829     92.01147         7     1.076     0.562 -14.67   0
        67    955.4744    924.6909 307.5139841  +6.3114988     756.2182     1325.153     1518.136     81.81161     163.4289      326.404      1.820     5.27     934.0511     57.52829     109.9086         8     1.465     0.536 -43.96   0
        68    577.1097    923.5249 307.6711856  +6.2993117     1683.705     2807.003     3161.211     81.81161     163.4937     326.4364      1.832     4.44     943.5023     57.52829      223.932        18     1.323     0.974 -43.86   0
        69    300.6410    924.4958 307.7859853  +6.2896245     788.4804     1186.201     1275.194     81.81161     163.1695     326.5337      1.642     6.30     949.2717     57.52829     103.2773        15     1.553     0.717 -27.50   0
        70   1008.8221    922.7971 307.4918883  +6.3140630     800.7108     1615.196     1171.776     81.42234     162.9097     326.1118      2.211     6.64     931.8758     57.52829     117.1947         9     1.464     0.845 -88.81   0
        71    616.5875    919.7911 307.6549142  +6.3021770     1281.866     1978.432     2085.448     81.55231     163.0397     326.3066      1.791     4.99     942.2299     57.52829     144.7507        14     1.223     0.868 -39.93   0
        72     66.2635    920.3477 307.8834723  +6.2834445     875.0876     1521.273     2230.783     81.81161     163.1695     326.3391      1.962     5.49     948.7819     57.52829     115.4533        10     1.312     0.649 -37.11   0
        73     61.1998    919.5887 307.8856012  +6.2835871     468.4033     916.3333     1176.332     81.42235     162.9097     326.1768      2.365     4.57     948.8355     57.52829     72.75513         5     1.342     0.442 -30.84   0
        74    296.3329    917.5556 307.7880102  +6.2923444     1390.616     2431.641     2185.981     81.81161     163.1695      326.404      1.860     4.68     949.2631     57.52829     209.6166        15     1.384     0.877 -29.58   0
        75    564.2966    915.9181 307.6767651  +6.3020219     504.8333     653.3618     74.86092     81.68207     163.6232     326.4364      1.567     4.34     943.6799     57.52829     95.48743         5     1.195     0.448 -33.68   0
        76    764.3168    913.0016 307.5937813  +6.3099296     717.0465     1026.163     1030.845      81.0312     162.7796     326.0793      1.665     4.98     939.3206     57.52829     121.9949         8     0.984     0.715 -69.24   2
        77    900.8228    910.3416 307.5371693  +6.3155952     6601.467      11025.1      11011.4     81.42234     163.2344     326.2092      1.776     4.90     935.6128     57.52829     802.6339        32     1.628     0.992 -38.20   0
