#   1 NUMBER                 Running object number                                     
#   2 X_IMAGE                Object position along x                                    [pixel]
#   3 Y_IMAGE                Object position along y                                    [pixel]
#   4 ALPHA_J2000            Right ascension of barycenter (J2000)                      [deg]
#   5 DELTA_J2000            Declination of barycenter (J2000)                          [deg]
#   6 FLUX_APER              Flux vector within fixed circular aperture(s)              [count]
#   9 FLUXERR_APER           RMS error vector for aperture flux(es)                     [count]
#  12 FLUX_RADIUS            Fraction-of-light radii                                    [pixel]
#  13 FWHM_IMAGE             FWHM assuming a gaussian core                              [pixel]
#  14 BACKGROUND             Background at centroid position                            [count]
#  15 THRESHOLD              Detection threshold above background                       [count]
#  16 FLUX_MAX               Peak flux above background                                 [count]
#  17 ISOAREA_IMAGE          Isophotal area above Analysis threshold                    [pixel**2]
#  18 A_IMAGE                Profile RMS along major axis                               [pixel]
#  19 B_IMAGE                Profile RMS along minor axis                               [pixel]
#  20 THETA_IMAGE            Position angle (CCW/x)                                     [deg]
#  21 FLAGS                  Extraction flags                                          
         1    704.8317     21.5082 307.6381198  +6.6880819     2228.281     3158.175     3666.357     85.47251     170.0665     340.4715      1.587     3.96     997.7167     60.00768     287.7495        17     1.240     0.919  83.21   0
         2    968.5864     19.3575 307.5285822  +6.6977675     2567.474     3765.312     4442.962     84.65976     170.0665     340.1668      1.635     3.82     989.9587     60.00768     390.0179        20     1.293     0.866 -73.22   0
         3    687.9923     15.8123 307.6453093  +6.6898714     8175.352     11441.04     11627.98     84.93153     170.0665     340.3361      1.458     3.07      997.687     60.00768     1185.634        27     1.185     1.055 -87.86   0
         4    608.2515     15.1683 307.6784687  +6.6874723      3926.24     5745.617     5235.324     85.20245     170.3373       340.37      1.561     3.13     1001.368     60.00768      570.309        22     1.172     1.065 -81.18   0
         5    310.4030     14.5875 307.8022613  +6.6777382     995.4106      1427.39     1783.052     84.93154     169.9309     340.3023      1.836     5.03      1023.62     60.00768     127.0533         9     0.906     0.873  33.75   0
         6    408.4845     11.4486 307.7616093  +6.6823221     6746.911     9739.796     9208.504     85.33759     170.2696     340.4715      1.613     3.30     1012.257     60.00768     798.2679        30     1.335     1.107 -77.00   0
         7    364.0266     13.6723 307.7800089  +6.6799140     807.2557     1216.321     942.3663     84.93153     170.1342     340.3361      1.640     5.17     1018.156     60.00768     114.4291         9     0.916     0.826  65.81   0
         8      9.4743     11.0042 307.9274295  +6.6691093     9173.669     13161.83      13968.5     84.93153     169.7273     340.3361      1.525     3.01     1034.593     60.00768      1330.79        36     1.334     1.105 -66.66   0
         9    655.1960     10.5191 307.6591165  +6.6909614     949.2697      1223.93     929.3464     84.79575     169.7952     340.1329      1.511     3.30     998.6833     60.00768     161.0422         7     0.978     0.521 -47.49   0
        10    483.8319      8.3021 307.7304041  +6.6861450     835.9904     1044.996     1327.278     85.33759     170.1342     340.1329      1.434     4.78     1003.715     60.00768     106.6224         9     0.927     0.699  68.80   0
        11    305.0400      6.3589 307.8047677  +6.6809561      13303.2     19832.14     20673.52      85.0671     170.3373     326.4418      1.606     3.32     1023.817     60.00768     1599.427        39     1.382     1.162 -73.31  16
        12    399.7767      7.3687 307.7653655  +6.6837151     730.3755     953.7117     755.1143     84.65976     169.9987     334.8407      1.323     4.73     1013.324     60.00768     100.7092         7     1.072     0.593  74.05  16
        13     78.7209      6.7196 307.8988005  +6.6732074     2762.807     4236.154     4638.702     85.60722     170.5401     330.0226      1.691     3.71     1031.436     60.00768     323.2592        23     1.250     1.101 -81.34  16
        14    371.1716      4.3474 307.7773544  +6.6840041     2416.501     3465.691     3035.594      85.0671     169.9309     303.2757      1.506     3.68      1017.19     60.00768     310.3392        22     1.332     0.986 -83.43  24
        15     69.9739      5.3372 307.9024819  +6.6734841     1742.875     2346.661     2800.027     84.93153     170.2019     315.6016      1.434     3.02     1031.644     60.00768     252.7596        16     1.037     0.931 -79.92  16
        16    773.4501      5.0206 307.6101582  +6.6971814     940.2243     1164.779     1340.577     84.79575     170.3373     311.8922      1.056     2.05     994.6294     60.00768     176.7822         6     0.723     0.495 -85.10  16
        17    186.9214      5.7986 307.8538703  +6.6772233     1676.005     1783.323     2217.485     84.52354     169.6594     320.7443      0.549     0.81     1028.536     60.00768       1021.4         5     0.459     0.364  36.84  16
        18    631.6832      1.3447 307.6691965  +6.6939639     4406.198     4906.397     5365.455     74.68003      135.612     256.3276      1.024     2.60     999.4974     60.00768     1207.717        13     1.069     0.560  -7.66  24
        19    966.3117      1.4670 307.5301276  +6.7050795     718.6907     832.5771     1080.691     76.05604     137.7199     258.6547      0.924     2.47     988.3234     60.00768     151.2188         5     0.688     0.458  22.67  24
        20    986.0430    995.7331 307.4886106  +6.2951500     6159.762      7672.68     7920.659     85.33759     170.2019     340.4715      1.279     2.43     1034.204     60.00768     1054.778        21     1.072     0.882 -86.45   0
        21    936.1470   1021.4521 307.5084686  +6.2828679     8675.346     10661.08     10491.56     85.60722     164.2764     292.0494      1.290     2.43     1038.946     60.00768     1552.405        25     1.103     0.939 -77.63  24
        22    690.5730   1022.0104 307.6104221  +6.2744495     1405.136     1885.075     2472.021     84.93153      158.493      283.724      1.316     2.58     1045.426     60.00768     275.9479        11     0.895     0.771  62.66  24
        23    508.4533    995.1812 307.6869462  +6.2794436     5081.657     6696.216     7241.157     84.79575     170.2696     340.2345      1.331     2.40     1053.744     60.00768     854.2251        25     1.213     1.030  89.85   2
        24    618.0358    994.4296 307.6414687  +6.2834167     1786.164     2120.984     2100.566     84.93153     169.9987     340.2345      1.262     2.68       1047.8     60.00768     337.2098        11     1.040     0.621 -75.37   0
        25     43.3302    993.6283 307.8801269  +6.2644948     1220.261     1602.375      2036.48      85.0671     170.2696       340.37      1.254     3.21     1060.011     60.00768     207.1692         9     0.995     0.573 -83.90   0
        26    773.6275    992.9852 307.5769087  +6.2892069     703.1522     702.6732     583.6094     84.93153     170.0665     340.3361      1.139     3.25     1042.738     60.00768     127.1689         7     0.746     0.669 -62.48   0
        27    461.6992    991.7249 307.7064764  +6.2793069     2662.289     3409.932     3501.834     84.79575     170.4049     340.3361      1.249     2.44     1054.212     60.00768     486.7841        17     1.183     0.734 -72.47   0
        28    896.0615    983.8298 307.5263747  +6.2970691     55805.84     70051.61     72054.99      85.0671     170.2696     340.4038      1.272     2.33     1038.727     60.00768      10670.9        55     1.236     0.997 -79.59   0
        29    497.6888    986.7818 307.6916986  +6.2825521     673.1127     732.8635     974.2128      85.0671     169.9987     340.3361      1.301     3.47     1053.679     60.00768     113.5178         5     0.794     0.438  76.97   0
        30    301.4128    984.8240 307.7732643  +6.2767896     586.4393      733.348       1114.7      85.0671     170.0665       340.37      0.998     1.99     1058.301     60.00768     143.4574         5     0.683     0.450 -67.01   0
        31    203.4743    982.1750 307.8140200  +6.2746000     1959.724     2648.713     2277.313     84.93154     170.0665       340.37      1.279     3.24     1058.928     60.00768      301.886        12     1.108     0.609 -81.55   0
        32     91.7454    980.9564 307.8604527  +6.2713535     648.7572     654.0386     11.82868     85.33759     170.2696     340.4377      1.100     3.07      1059.09     60.00768     121.0891         5     0.704     0.675 -73.93   0
        33    742.1615    975.5750 307.5905592  +6.2953469     8412.188     10566.78     11631.43     84.93153     170.0665     340.2345      1.307     2.67     1043.005     60.00768     1531.885        28     1.444     0.804 -76.68   0
        34    602.1505    979.8782 307.6485540  +6.2888950     997.4338      1273.91     1326.543     85.33759     170.3373     340.4038      1.394     3.61     1048.451     60.00768     179.0858         8     0.951     0.589 -67.19   0
        35    794.0023    977.5225 307.5689668  +6.2962719     3260.804     4064.312     3581.336     84.65975     169.7273     340.2345      1.281     2.47     1041.892     60.00768     585.6974        14     0.942     0.797 -77.65   0
        36    709.8219    976.5685 307.6039549  +6.2938573     569.4373     510.5963     134.4711     84.79575     170.0665     340.2345      1.159     3.66      1043.82     60.00768     81.82019         5     1.029     0.374 -85.18   0
        37    528.8383    974.9116 307.6791634  +6.2884955     1127.931      1301.79     786.8316     85.33759     170.2019     340.4715      1.208     3.39     1052.905     60.00768     218.4716        12     1.101     0.713 -83.60   0
        38    211.6956    974.5649 307.8108631  +6.2780182     1862.697       2261.6     2022.037     85.47251     170.1342     340.5392      1.262     2.85     1058.911     60.00768     288.3444        11     0.940     0.713 -71.79   0
        39    176.3496    973.8290 307.8255644  +6.2771364     959.3557     1426.081     1673.241     84.93153     170.4049     340.3361      1.495     3.03     1058.854     60.00768     160.2811         8     0.853     0.658 -30.73   0
        40     36.5898    972.7145 307.8836324  +6.2729043     3145.571     4134.485     4032.626     84.93154     169.9309     340.2684      1.331     2.78     1060.118     60.00768     512.6945        16     1.154     0.729 -71.14   0
        41    930.4340    970.5554 307.5125460  +6.3036958     8926.721     11106.47     11438.84     84.93154     170.2019     340.3361      1.233     2.42     1036.795     60.00768     1493.705        26     1.119     0.901  89.58   0
        42    186.4083    966.7016 307.8216283  +6.2804170     815.4247     961.9978      807.805      85.0671     169.8631     340.2007      1.319     4.40     1058.842     60.00768      131.432         9     1.064     0.750  74.95   0
        43    612.6028    964.9727 307.6447147  +6.2953994     882.3318     1033.254      920.008     84.79575     169.9987     340.2345      1.186     2.99     1047.386     60.00768     137.0396         8     0.783     0.696  -8.74   0
        44    904.2350    962.3477 307.5237004  +6.3062126     2727.173     3345.039     3161.685     85.20245     170.2696       340.37      1.204     2.54     1037.451     60.00768     506.3265        14     0.980     0.775 -74.59   0
        45    624.9116    958.2128 307.6398306  +6.2986021     5751.875     7406.315     7622.495      85.0671     169.9987     340.3023      1.270     2.28      1046.63     60.00768     1143.442        22     1.098     0.857 -86.29   0
        46    237.1186    958.2876 307.8008559  +6.2855923     5293.519     6939.177     7438.663      85.0671     170.4725     340.5392      1.325     2.64     1058.807     60.00768     915.8654        22     1.203     0.860 -72.11   0
        47    763.7703    958.6875 307.5821528  +6.3030415     1525.777     1622.602     1080.059     85.47251     169.9987     340.3361      1.145     2.55     1042.088     60.00768     279.5294         9     0.886     0.605 -75.41   0
        48    974.4403    957.9849 307.4946928  +6.3103522     921.2114     1144.107     1750.175     84.79575     170.0665     340.2007      1.158     3.68      1033.47     60.00768     160.9186         6     0.790     0.493 -84.64   0
        49    447.3040    956.3794 307.7136435  +6.2934210     1288.666     1459.552     1707.764     85.20245     170.0665     340.2345      1.165     3.18     1053.953     60.00768     229.4965         8     0.914     0.564 -80.20   0
        50      5.9920    955.8007 307.8969088  +6.2788604     2663.847     3359.669      3576.57     84.65976     169.9309     322.6784      1.299     2.99     1060.721     60.00768     483.7511        15     1.054     0.828 -74.84  16
        51    856.8104    954.8011 307.5436471  +6.3077487     1142.454     1390.316     1365.194     84.93153     169.9309     340.2345      1.238     3.30     1039.141     60.00768     214.9004         8     0.897     0.652 -67.62   0
        52    948.4395    952.3175 307.5056799  +6.3118269     832.7148     1134.776     737.5764     85.33759     170.3373       340.37      1.426     2.63     1034.749     60.00768     169.6841         7     0.899     0.496 -88.26   0
        53    928.1559    951.6380 307.5141258  +6.3114320     914.4009     958.9742     799.8447      85.0671     170.2696     340.3023      1.124     2.18     1035.909     60.00768      213.407         7     0.777     0.578 -82.42   0
        54    273.0316    951.7776 307.7861633  +6.2894845     1085.449      1252.35     1390.532     84.79575     170.0665     340.2345      1.409     3.04     1058.681     60.00768     201.8955        10     1.003     0.702  85.65   0
        55    133.5645    951.8116 307.8440730  +6.2847923     6380.109     6442.407     6857.288     84.79575     170.0665     340.2007      0.707     0.96     1058.838     60.00768     2944.595         7     0.554     0.419   9.01   0
        56    981.1166    949.8868 307.4921915  +6.3139186     1117.491     2087.724     2573.509      85.0671     170.4725     340.4715      2.063     6.20     1032.732     60.00768     186.2592        15     1.537     0.702 -68.53   0
        57    549.6116    950.7197 307.6713510  +6.2991800     2214.602     2710.605     2940.919     84.93154     169.9309     340.2684      1.223     2.71     1051.264     60.00768     349.5065        13     0.967     0.770 -87.43   0
        58    588.7603    947.0323 307.6552184  +6.3020113     1538.148     1946.082     2299.909     84.93153     170.0665     340.2684      1.186     2.58     1048.514     60.00768     283.8778         9     0.898     0.591 -66.53   0
        59     38.7828    947.5276 307.8835731  +6.2833784     800.6823     1272.442     1818.014     84.79575     170.2019     340.3361      1.449     2.74     1060.075     60.00768     164.3977         7     0.823     0.581  83.19   0
        60     33.7759    946.7657 307.8856779  +6.2835248     599.7856     787.9156     1109.449     84.79575     170.0665     340.2007      1.606     2.82     1060.174     60.00768     95.29626         5     0.809     0.642  38.96   0
        61    268.8419    944.8902 307.7881353  +6.2921882      1830.38     2226.015      2397.99     85.33759     170.2696     340.4715      1.334     3.58     1058.673     60.00768     311.3707        13     1.138     0.691 -85.74   0
        62    536.5979    943.1905 307.6770082  +6.3018541     636.2555     733.7092     165.5795     84.65976     169.9309     340.2007      1.129     2.36     1051.544     60.00768     143.3186         5     0.713     0.442 -67.70   0
        63    735.8506    940.6701 307.5943515  +6.3095503     1162.488     1425.476     1249.475     85.20245     170.2019     340.4715      1.162     2.80     1042.473     60.00768     213.1622         9     0.877     0.731 -43.27   0
        64    873.1071    937.4400 307.5374617  +6.3154612     9130.227      11345.7     11082.45      85.4725     170.2019     340.5392      1.240     2.41     1037.877     60.00768     1676.203        22     1.134     0.784 -80.84   0
        65    111.1836    938.8215 307.8538048  +6.2894051     623.2325     781.3234     454.9653     84.93153     169.9987       340.37      1.230     3.78      1058.87     60.00768     111.2948         6     0.777     0.541 -35.07   0
        66    408.9968    934.4562 307.7302886  +6.3011919     2643.206     3307.571     3079.375     84.65975     170.0665      340.099      1.282     2.47      1054.23     60.00768     442.8547        14     1.015     0.817  73.62   0
        67    310.7084    933.0145 307.7711510  +6.2984954     11354.14      14914.1     15772.37      85.0671     170.0665     340.2345      1.349     2.67     1057.979     60.00768     1940.804        28     1.171     0.958 -85.44   0
        68    230.7820    932.0261 307.8043730  +6.2962242     8414.861     11158.42     11714.48     84.93153     170.0665     340.3361      1.361     2.66     1058.702     60.00768     1509.835        28     1.198     0.946 -78.76   0
        69    743.3202    925.9792 307.5917428  +6.3158662      829.618     1072.312     940.5291     84.93153     169.9309     340.4377      1.384     3.84     1041.958     60.00768     163.2388         6     0.948     0.448 -81.00   0
        70    558.7971    926.6078 307.6683475  +6.3094440     1591.624     1898.094     1904.267     84.65976     169.9309     340.2684      1.125     2.46     1049.784     60.00768     301.9982        10     0.904     0.658 -82.95   0
        71    888.9207    922.7266 307.5313879  +6.3220642     1324.631     1597.453     1240.568     85.60722     170.5401     340.4715      1.217     2.86     1036.459     60.00768     273.5959        10     1.016     0.616 -71.80   0
        72    121.3626    922.6163 307.8501255  +6.2964385     764.6001     879.3975     855.5829     84.93154     170.0665     340.1668      1.314     4.34     1058.926     60.00768     110.7832         6     1.014     0.530 -35.40   0
        73    844.9440    921.3309 307.5496972  +6.3211749     973.8286     1314.979     1303.054     85.47251     170.1342     340.4038      1.529     5.64     1038.333     60.00768     153.9253        10     1.223     0.839  -3.24   0
        74    956.2107    918.4013 307.5035888  +6.3260916     1039.739     1224.649     1726.568     84.93154     169.9309     340.2345      1.268     4.09     1032.803     60.00768     171.8204         9     1.211     0.601 -64.74   0
        75    549.2336    916.1504 307.6726706  +6.3134427     986.6316     1085.082      1007.09     85.20245     170.2696       340.37      1.264     3.99     1050.183     60.00768     163.5107        11     1.095     0.762  59.19   0
        76    818.4325    916.2764 307.5608763  +6.3223784     674.2496     691.8711     599.7267     85.20245     170.2696       340.37      1.216     2.66     1039.184     60.00768     130.4694         5     0.691     0.489  80.73   0
        77    725.0461    915.4560 307.5996847  +6.3196020     2179.861     2812.213     3190.214     85.33759     170.2696     340.5054      1.317     2.38     1042.138     60.00768     421.8455        14     1.250     0.722 -81.90   0
