#   1 NUMBER                 Running object number                                     
#   2 X_IMAGE                Object position along x                                    [pixel]
#   3 Y_IMAGE                Object position along y                                    [pixel]
#   4 ALPHA_J2000            Right ascension of barycenter (J2000)                      [deg]
#   5 DELTA_J2000            Declination of barycenter (J2000)                          [deg]
#   6 FLUX_APER              Flux vector within fixed circular aperture(s)              [count]
#   9 FLUXERR_APER           RMS error vector for aperture flux(es)                     [count]
#  12 FLUX_RADIUS            Fraction-of-light radii                                    [pixel]
#  13 FWHM_IMAGE             FWHM assuming a gaussian core                              [pixel]
#  14 BACKGROUND             Background at centroid position                            [count]
#  15 THRESHOLD              Detection threshold above background                       [count]
#  16 FLUX_MAX               Peak flux above background                                 [count]
#  17 ISOAREA_IMAGE          Isophotal area above Analysis threshold                    [pixel**2]
#  18 A_IMAGE                Profile RMS along major axis                               [pixel]
#  19 B_IMAGE                Profile RMS along minor axis                               [pixel]
#  20 THETA_IMAGE            Position angle (CCW/x)                                     [deg]
#  21 FLAGS                  Extraction flags                                          
         1    193.5958     19.3931 307.8552121  +6.6679032     614.2511     824.7319     457.6532     77.38177     155.3224     311.0474      1.557     5.37     827.2204     54.84897     87.13293         9     1.443     0.564 -65.29   0
         2    170.7121     16.5893 307.8648166  +6.6682882     9692.949     16247.85     16998.48      77.6302     155.3843     311.0474      1.817     4.23     826.8265     54.84897     1144.724        41     1.720     1.062 -40.15   0
         3    916.2484     14.4489 307.5550324  +6.6942542     3791.081     6015.639     5868.361     78.00134     155.5082     311.1711      1.710     4.28     816.3323     54.84897     484.0394        25     1.547     0.875 -39.88   0
         4    514.8336     14.7107 307.7218617  +6.6806653      2686.35     4730.005      5218.96     78.12466     155.5082     311.1711      1.887     4.84     817.6433     54.84897     356.3097        25     1.616     0.938 -37.88   0
         5    717.3140     12.9638 307.6377653  +6.6881936     1813.949     3083.662     3430.898     78.00134     155.5701     311.1711      1.797     4.97      816.455     54.84897     244.4445        20     1.554     0.880 -28.80   0
         6    453.1049     13.0982 307.7475711  +6.6792531     1634.134     2963.741     2891.997     78.00134     156.1877     311.0164      1.931     4.56      819.936     54.84897     243.6365        21     1.515     1.027 -33.48   0
         7    981.2416     10.6918 307.5281442  +6.6979830     1896.758     3302.482     3642.943     78.00134      155.632     311.2639      1.799     4.28     811.9767     54.84897     283.6299        19     1.399     0.880 -33.96   0
         8    700.3753      7.1148 307.6450011  +6.6900400     6803.939     11168.58     11954.09     78.00134     155.3843     304.3836      1.755     4.34     816.1079     54.84897     865.7831        36     1.678     0.992 -37.94  16
         9    620.7759      6.3519 307.6781101  +6.6876803     3531.465     5856.288     5853.678      77.6302      155.632     298.3139      1.754     4.41     817.4407     54.84897     471.4783        27     1.598     0.939 -36.44  16
        10    322.4253      6.2742 307.8021116  +6.6776673     704.7081     1259.446     1400.115      77.6302     155.4463     297.7001      1.866     6.08     826.8343     54.84897     99.79364         9     1.478     0.702 -41.29  16
        11    376.4601      4.3109 307.7797202  +6.6802996     624.3812     1189.521     719.3931     77.87782     155.2604     276.8564      1.784     4.61     824.6335     54.84897     91.22626         8     1.267     0.476 -45.56  16
        12    420.8728      2.6917 307.7613161  +6.6824646     5730.992     9009.177     9147.959     77.87782      141.778     255.1037      1.673     4.46      822.037     54.84897     728.2301        26     1.593     0.886 -34.15  24
        13     21.6923      2.3912 307.9272252  +6.6691142     7729.501     11560.91     12015.26     77.38177     138.1323     250.4959      1.658     4.75      825.676     54.84897     996.0424        29     1.548     0.933 -28.19  24
        14    667.7764      1.7831 307.6587285  +6.6911464       706.41     1095.994     1097.731     72.76539     130.1667     241.3355      1.486     4.60     815.9319     54.84897     119.3452         8     0.995     0.715 -15.08  24
        15    412.3336    997.7185 307.7315085  +6.2712947     1046.472     1445.858     1587.266     78.24779     155.8792     311.2021      1.474     4.31     851.4186     54.84897     150.9309        10     1.075     0.659 -47.87   0
        16    709.2202   1022.8836 307.6073740  +6.2708814     5847.247     8664.701     9223.323     75.62001     134.3878     246.5448      1.573     4.68     851.1935     54.84897     744.2473        25     1.495     0.912 -24.37  24
        17    700.8636   1022.4277 307.6108596  +6.2707892     968.0664     1503.702     1793.863      77.6302     140.4134     253.2479      1.697     6.00      851.373     54.84897     153.1398        13     1.187     1.013 -11.40  24
        18    576.9108   1023.6456 307.6622948  +6.2661234     3913.273     5646.682     6937.325     68.25998     124.0315     234.4972      1.475     3.37     853.1484     54.84897     1114.727        21     1.624     0.681  -1.66  24
        19    565.2476   1022.3519 307.6671816  +6.2662656     3678.807     6044.565     7224.329     78.00134     141.3018     254.6127      1.854     4.54     853.0738     54.84897     431.1323        29     1.550     1.068 -30.40  24
        20    424.1655   1022.9854 307.7257487  +6.2612592     3276.978     4638.813     5030.842     74.98077      133.309     244.8993      1.478     4.45     851.9146     54.84897     424.5979        19     1.303     0.851 -25.44  24
        21    206.6152   1023.8585 307.8160609  +6.2535694     450.7419     677.4135     965.6834     64.48896      120.568     230.8145      1.447     3.42     850.0833     54.84897     119.1144         5     1.004     0.336   5.61  24
        22    258.8190    995.0533 307.7953490  +6.2672242     920.8224     1702.867     1441.137     77.50608      155.632     310.9854      1.754     5.40     850.8101     54.84897     147.1874        11     1.273     0.646 -39.85   0
        23    902.9952    991.6022 307.5279431  +6.2902963     7311.255     13567.57     14452.04     77.38177     155.1984     310.9545      1.946     4.67     847.1229     54.84897     837.5437        43     1.761     1.173 -39.68   0
        24    534.4180    990.8466 307.6810385  +6.2782392     7409.504     12329.19     13114.76     77.50608     155.5701     310.9235      1.770     4.36     851.8632     54.84897     951.0331        39     1.708     1.018 -40.44   0
        25    876.7078    987.7849 307.5389878  +6.2909920     10597.06     19430.83     21221.46      77.7541     155.4463     311.0164      1.983     4.61      847.443     54.84897     1190.811        54     1.833     1.248 -37.64   0
        26    589.4582    988.1771 307.6582700  +6.2811915     1192.818     2066.234     2163.639      77.6302      155.632     311.0164      1.760     6.66     851.8818     54.84897     158.0809        17     1.806     0.690 -56.49   0
        27    521.0435    986.9388 307.6867236  +6.2794032     3853.099      6970.01     7847.596     78.00134      155.632     311.2949      1.997     4.61     851.5933     54.84897     469.6463        37     1.785     1.398 -20.98   0
        28    630.8019    985.7103 307.6411826  +6.2835991     1214.294     2293.455     2163.147     77.25727     155.2604     310.9235      1.883     5.19     851.5904     54.84897      186.288        13     1.384     0.745 -43.60   0
        29     55.4692    985.6685 307.8801087  +6.2642379     920.8318     1459.568     1614.462     78.00134     155.7556     311.1402      1.648     5.49     847.7577     54.84897     109.4368        14     1.304     0.838 -33.39   0
        30    473.8486    983.4105 307.7064413  +6.2792729     1897.816     3018.365     3063.279     77.50608     155.5082     310.8616      1.694     4.99     851.0773     54.84897     236.5563        20     1.670     0.744 -43.04   0
        31    908.4524    975.3577 307.5262182  +6.2971873      38108.3     68584.03     73907.19     78.00134     155.6938     311.2021      1.949     4.41     846.4843     54.84897      4220.96        82     1.890     1.332 -37.27   0
        32    998.3246    987.3106 307.4884948  +6.2952604     3944.256     7741.317     8230.234     78.00134     155.9409     311.2639      2.052     4.93     843.6155     54.84897     422.6832        40     1.802     1.267 -32.75   0
        33    215.8616    973.4110 307.8139144  +6.2747127     1714.601     2916.039       2882.8     77.38177     155.4463     310.9545      1.869     4.13     849.4732     54.84897     225.7568        20     1.385     0.947 -47.04   0
        34    614.5230    971.8622 307.6484061  +6.2887707     773.9923     1223.072     1392.323     78.24779     155.6938     311.1711      1.688     5.33      851.265     54.84897      132.424        11     1.396     0.575 -41.71   0
        35    103.5717    972.5743 307.8605734  +6.2712692     618.3185     1239.619     1295.798     77.50609     155.4463     311.0474      1.992     4.71     848.0649     54.84897     73.48663         7     1.392     0.452 -44.39   0
        36    806.5746    968.9965 307.5687415  +6.2963998     1930.118     3176.246     3740.459     77.50608     155.3224     311.0164      1.842     5.24     847.8575     54.84897     231.2498        22     1.628     0.898 -35.82   0
        37    754.6180    966.9783 307.5903870  +6.2954906     5761.881     10283.88     10966.44      77.7541     155.5082     311.1093      1.892     4.75     848.7401     54.84897     691.5375        39     1.755     1.126 -43.62   0
        38    541.0462    966.7706 307.6790914  +6.2884041     819.2661     1267.193     1096.961     77.50608     155.7556     311.0474      1.544     5.21     851.1265     54.84897     130.7763         9     1.248     0.614 -36.74   0
        39    224.2443    965.7524 307.8106902  +6.2781578     1229.724     2027.253     1921.964     78.00134     155.5701     311.1093      1.724     5.11     849.4714     54.84897     159.9542        15     1.367     0.774 -37.23   0
        40    188.6884    965.6773 307.8254583  +6.2769896     701.7376     1410.749     1261.007     78.00134     155.9409      311.233      2.059     4.41     849.0028     54.84897     128.3553         8     1.246     0.670 -51.19   0
        41     48.8773    963.8832 307.8835784  +6.2730110     2480.758     4170.045     4639.423     78.12466     155.9409     311.2639      1.788     4.72     847.2696     54.84897     325.7793        21     1.514     0.889 -40.15   0
        42    942.7131    962.1126 307.5124306  +6.3038043     5784.113     10482.79     11098.05      77.7541     156.0027     311.2639      1.939     4.56     845.1826     54.84897     673.7805        42     1.817     1.134 -37.26   0
        43    198.4222    958.1714 307.8216681  +6.2804174     674.7624     1002.387     1384.882     77.50608     155.4463     311.0474      1.615     5.14     849.0162     54.84897     114.8498        10     1.304     0.791 -55.77   0
        44    625.2719    956.1860 307.6444661  +6.2956052     618.0555     998.1932     638.8629     77.50608     155.5082     311.0783      1.919     5.50     850.6588     54.84897     89.33423         8     1.376     0.620 -43.33   0
        45    916.6406    953.6987 307.5235394  +6.3064057     1687.065     3006.468     3225.494     78.00134     155.5082     311.3876      1.953     5.57     845.5654     54.84897     214.8511        23     1.708     0.906 -43.02   0
        46    249.4173    949.8272 307.8007707  +6.2855826      3917.17     6731.341     7019.493      77.6302     155.3843     311.0783      1.803     5.00     849.7023     54.84897     475.8206        30     1.679     0.987 -41.04   0
        47    776.2752    949.9009 307.5819625  +6.3032692     1090.502     1719.695     2141.253     77.50608     155.7556     311.0783      1.702     4.14     848.1535     54.84897     168.8138        13     1.187     0.847 -52.33   0
        48    637.3069    949.7200 307.6396840  +6.2986796     4218.499     6863.387     6618.464      77.7541     155.8174      311.233      1.758     4.68     850.4091     54.84897     581.6245        28     1.608     0.933 -40.36   0
        49    986.6808    949.2105 307.4945996  +6.3106043     603.7342     1240.721     1781.742      77.6302     155.3224     311.0164      2.137     4.43      843.942     54.84897     95.13281         6     1.498     0.373 -56.34   0
        50    459.3827    948.1675 307.7136289  +6.2933395     1158.026     1945.364     1793.297      77.6302     155.4463     311.0474      1.757     6.21     850.3154     54.84897     150.3171        14     1.496     0.725 -43.39   0
        51     18.3813    947.1970 307.8968035  +6.2788709     1983.129      3402.09     3710.633      77.6302     155.1984     310.9854      1.932     5.50     846.6288     54.84897     253.3972        22     1.723     0.871 -34.51   0
        52    869.4559    946.1871 307.5433867  +6.3079268     731.4825     1531.655     1688.241     77.38177     155.5701     310.8616      2.008     7.33     846.6069     54.84897     113.0705        13     1.494     1.006 -16.12   0
        53    940.5086    943.7193 307.5139591  +6.3113261      663.313      1163.28     950.7867      77.7541     155.8792      311.233      1.788     5.84     844.6814     54.84897     102.4962         8     1.219     0.787 -62.31   0
        54    285.4174    943.6568 307.7860272  +6.2893441     837.5953     1435.419     1977.878     77.50609     155.5701     310.9235      1.840     5.50     850.2914     54.84897     115.9429        11     1.239     0.688 -29.90   0
        55    993.0516    941.7209 307.4922031  +6.3139104     803.9671     1452.586      2099.29     78.00134     155.6938     311.1711      2.341     6.13     843.8254     54.84897     96.93799        11     1.336     0.792  83.36   0
        56    562.0830    942.0073 307.6711831  +6.2993370     1594.379     2682.709     2625.731      77.6302     155.3224     311.0474      1.823     4.82     850.2745     54.84897     204.7212        20     1.521     0.916 -42.19   0
        57    601.4149    938.5483 307.6549638  +6.3020871      1081.65     2021.701     1802.101     77.38177      155.632     310.9235      1.864     4.82     850.1434     54.84897     158.1578        14     1.305     0.829 -33.78   0
        58     51.4684    937.5511 307.8833877  +6.2839718     646.7776     1288.062     1744.548     78.00134     155.5701     311.1711      2.233     3.38     846.7976     54.84897       100.27         5     0.744     0.463 -16.21   2
        59    280.9999    936.2940 307.7881087  +6.2922356     1327.215     2336.008     2883.392     77.50608     155.2604     310.7997      1.986     5.63     850.0341     54.84897     152.4318        16     1.467     0.771 -36.68   0
        60    549.3245    934.1583 307.6767444  +6.3021493     609.7654      893.704     836.8987     77.87782      155.632     311.2021      1.510     4.45     850.0043     54.84897     87.76959         6     0.961     0.587 -23.73   0
        61    747.5466    932.4124 307.5944779  +6.3095273      773.091      1255.27     1402.526     77.38177     155.5701     310.8926      2.032     5.50     848.1097     54.84897     103.1633        10     1.321     0.645 -39.85   0
        62    885.5543    929.0621 307.5372716  +6.3155380     6112.805     10955.35     11242.49     77.87782     155.5082      311.233      1.908     4.41     845.6735     54.84897     714.2466        39     1.725     1.108 -37.77   0
        63    421.3495    926.0676 307.7301643  +6.3011856     1919.576     3372.393     3383.635     77.87782     155.5082     311.1093      1.868     4.74     849.9697     54.84897     268.6312        21     1.581     0.820 -43.83   0
        64    590.2632    926.5584 307.6599962  +6.3066636     524.4513     977.0499     443.6294     78.00134     155.5701      311.233      1.785     6.11     849.7308     54.84897     101.2432         6     1.520     0.691 -32.50   0
        65    323.0266    924.4315 307.7710530  +6.2985502     8629.687     14653.88     15953.13     77.50608     155.3843     311.0164      1.828     4.59     850.1859     54.84897     1048.445        41     1.740     1.037 -39.32   0
        66    243.2478    923.3187 307.8042223  +6.2963209     6372.995     10801.16     11673.89     78.00134      155.632     311.2021      1.833     4.31     849.1511     54.84897     784.7396        38     1.709     1.063 -35.18   0
        67    571.0382    917.9797 307.6682676  +6.3095601     996.6606      1719.06     1931.756      77.6302     155.4463     310.9235      1.811     5.45     849.4669     54.84897     139.1612        12     1.425     0.673 -27.01   0
        68    755.7380    917.0422 307.5915890  +6.3161493     737.1933     1221.403     1170.333     78.00134     155.5701     311.2639      1.548     4.73     847.6967     54.84897     105.7068         8     1.048     0.606 -23.61   0
        69    901.1804    913.9108 307.5312868  +6.3223183     1008.867     1926.034     2454.256     77.87782     155.3843     311.0783      2.037     5.55     845.0094     54.84897     131.9341        15     1.463     0.807 -41.37   0
        70    857.9064    912.4744 307.5493078  +6.3214614     776.1548     1166.491     1121.779     77.87782     155.7556     311.1402      1.611     4.68     846.1112     54.84897     104.1511         8     0.910     0.683 -47.00   0
        71    400.3405    912.1323 307.7393564  +6.3062328     554.1259     870.1638     357.3733     78.12466     155.5701     311.1711      1.516     4.15     849.8739     54.84897      98.1076         5     0.931     0.529 -42.06   0
        72    968.3680    909.1711 307.5035393  +6.3265257     707.5562      1180.87     1429.238     77.50608     155.3843     310.9545      2.006     4.78     843.5402     54.84897     116.4741         7     0.907     0.714 -21.29   0
        73    737.6696    907.1188 307.5994246  +6.3196409     1599.536     2523.413     2901.051     78.24779     155.8792     311.2021      1.741     5.17     847.5146     54.84897     178.8261        17     1.454     0.785 -33.62   0
        74    560.9747    908.0057 307.6727808  +6.3133405     694.3547      1079.16     948.0515     77.50608     155.4463     311.0164      1.457     4.57     849.1816     54.84897     96.54614         7     1.298     0.457 -10.02   0
        75    969.0009    902.7144 307.5034916  +6.3292132     1096.569     2057.632     2646.379     77.25726     155.1363     310.8616      1.905     6.75     843.3777     54.84897     145.5071        17     1.666     0.783 -28.63   0
        76    601.6506    903.4525 307.6560395  +6.3165877     661.5773     1100.747     1009.596     78.12466     155.5082     311.2021      1.828     5.10     848.8901     54.84897      105.573         8     1.330     0.554 -31.17   0
        77    523.0703    902.6517 307.6887024  +6.3142771     1116.339     1976.997      2540.61     77.87782     155.5082     311.1711      2.166     6.34     849.2473     54.84897     148.8889        17     1.567     0.869 -36.56   0
