#   1 NUMBER                 Running object number                                     
#   2 X_IMAGE                Object position along x                                    [pixel]
#   3 Y_IMAGE                Object position along y                                    [pixel]
#   4 ALPHA_J2000            Right ascension of barycenter (J2000)                      [deg]
#   5 DELTA_J2000            Declination of barycenter (J2000)                          [deg]
#   6 FLUX_APER              Flux vector within fixed circular aperture(s)              [count]
#   9 FLUXERR_APER           RMS error vector for aperture flux(es)                     [count]
#  12 FLUX_RADIUS            Fraction-of-light radii                                    [pixel]
#  13 FWHM_IMAGE             FWHM assuming a gaussian core                              [pixel]
#  14 BACKGROUND             Background at centroid position                            [count]
#  15 THRESHOLD              Detection threshold above background                       [count]
#  16 FLUX_MAX               Peak flux above background                                 [count]
#  17 ISOAREA_IMAGE          Isophotal area above Analysis threshold                    [pixel**2]
#  18 A_IMAGE                Profile RMS along major axis                               [pixel]
#  19 B_IMAGE                Profile RMS along minor axis                               [pixel]
#  20 THETA_IMAGE            Position angle (CCW/x)                                     [deg]
#  21 FLAGS                  Extraction flags                                          
         1    442.9978     28.1082 307.7558096  +6.6695580     13382.02     31945.29     35763.27     88.46935     177.2928     354.8685      2.351     5.66     1110.312     62.60738     1361.181        70     1.943     1.656  48.21   0
         2    692.7090     17.0283 307.6523601  +6.6824951      1228.17     2625.371     2786.715     89.17542     177.3635     355.0452      2.152     5.90     1101.399     62.60738     143.3274        14     1.251     1.034 -17.85   2
         3    181.1706     10.6588 307.8652552  +6.6679690      6766.91     15510.71        17471     88.75246     177.7168     355.0805      2.273     5.48     1129.307     62.60738     671.3864        52     1.824     1.545  62.35  16
         4    926.6737      8.2502 307.5553755  +6.6939350     3422.507     6021.177     6638.715     89.03466     177.7168     354.6563      1.912     4.14     1095.258     62.60738     389.7054        31     1.555     1.166  50.87  16
         5    525.4643      8.6557 307.7221785  +6.6803525     1948.631     4158.564     4186.552     89.17543     177.6462     355.1864      2.182     5.93     1106.082     62.60738      198.399        26     1.450     1.256  65.55  16
         6    727.5394      6.9867 307.6382160  +6.6878052     1571.826     3128.773     3188.218     88.46935     177.5049     346.2455      2.004     5.48     1099.099     62.60738     186.0562        23     1.424     1.238  87.14  16
         7    463.1551      6.7461 307.7481493  +6.6790524     1103.046     2773.204     3287.003     89.03466     177.6462      344.393      2.455     8.04     1108.289     62.60738     141.4941        19     1.493     1.210 -75.09  18
         8    991.4750      4.6162 307.5285534  +6.6975966     1694.246     2811.338     2160.402     88.46936     177.3635     320.2366      1.771     5.00     1085.924     62.60738     191.3339        18     1.387     1.036  68.76  16
         9    711.1333      1.9929 307.6452054  +6.6893182     4449.643     6760.448     7003.536     85.14605     151.7529     279.1812      1.616     4.58     1099.713     62.60738     566.9709        22     1.438     0.965   4.35  24
        10    631.2176      1.6237 307.6784455  +6.6867969     1779.307     2274.607     2200.262     81.37997     146.1101     272.4508      1.395     4.11      1102.45     62.60738     252.2064        14     1.309     0.670  -4.94  24
        11    718.8811   1004.6229 307.6082851  +6.2756645     2625.915     4273.812     4856.827     88.61102     177.2928     355.1158      1.740     3.95     1158.236     62.60738     311.2584        22     1.336     1.015  51.48   0
        12    893.7394   1021.5992 307.5350699  +6.2744940     1526.996     2113.093     2147.516     88.18535     170.1447     302.3878      1.494     3.71      1156.41     62.60738     219.9802        14     1.173     0.831  56.11  24
        13    795.3493   1023.4866 307.5758830  +6.2704312     4110.921     5192.348     4926.932     79.98078     144.2092      270.603      1.187     3.76      1158.33     62.60738     861.7466        16     1.255     0.626   8.55  24
        14    586.4332   1020.6495 307.6627715  +6.2646196     70206.88     113279.4     121324.3     88.89367      177.222     316.4542      1.770     3.65     1161.116     62.60738     8453.006        87     1.646     1.468  38.31  24
        15    442.0403   1005.6105 307.7232640  +6.2659935     834.3854     1217.041     861.9994     88.32746     177.4342     354.9038      1.552     4.94     1162.913     62.60738     122.9456         8     1.124     0.614  33.50   0
        16    734.6487   1003.3745 307.6017763  +6.2767067     1225.192     1888.465     1954.278     88.61102     177.7168     355.0805      1.734     6.00     1157.732     62.60738     152.5758        11     1.372     0.753  88.70   0
        17    365.8206   1002.3980 307.7550366  +6.2647650     1743.213     2691.617     2854.717     88.61102     177.2928     354.8685      1.783     4.44      1164.19     62.60738     223.2152        17     1.282     0.876  31.79   0
        18    975.6013   1000.0410 307.5017821  +6.2861236      683.406     1059.997     765.1078     88.32746     177.2928     354.8685      1.389     4.35     1151.031     62.60738     110.6752         6     0.848     0.635 -58.01   0
        19    547.8484    992.3156 307.6797543  +6.2750253     4001.611     6709.271     7026.504     89.03466     177.6462     355.2217      1.806     3.79     1161.026     62.60738     533.5198        32     1.582     1.146  69.90   3
        20    545.0689    984.5434 307.6811705  +6.2781409     7574.753     12537.99     14052.32     89.17542     177.5756     355.1511      1.849     3.90     1160.955     62.60738     850.9545        38     1.590     1.190  45.93   2
        21    518.1247    993.4805 307.6920637  +6.2735494     1156.258     1889.647     1810.684     89.31597     177.9284     355.2924      1.766     5.08     1161.154     62.60738     168.8511        14     1.311     0.954  48.57   0
        22    752.3368    991.7035 307.5948195  +6.2821157     7818.348     12233.67     12390.33     88.89367     177.7873      355.257      1.679     3.46     1156.982     62.60738     979.0093        36     1.410     1.186  42.36   0
        23    298.1267    991.0718 307.7835408  +6.2671700     13362.99      22796.2     25188.31     89.31597     177.7873     355.2217      1.865     3.91     1165.646     62.60738     1582.616        58     1.632     1.529  39.11   0
        24    813.5644    991.2579 307.5693969  +6.2843443     1121.429      1724.29     2212.559     88.89367     177.6462     355.1864      1.807     5.68     1155.937     62.60738     132.7871        13     1.291     0.850  72.45   0
        25    422.8338    991.5296 307.7317174  +6.2711628     1016.675     1488.988     1653.758     88.89367     177.6462      355.257      1.560     4.00     1163.411     62.60738     152.1652         8     0.831     0.752  25.32   0
        26    269.1358    988.4204 307.7956740  +6.2672917     944.2515     1730.865     1938.124     88.61102     177.6462     355.0452      1.907     5.30     1165.839     62.60738     144.6974         9     1.188     0.669  60.88   0
        27    913.6224    985.1326 307.5280318  +6.2902118     9346.868      13633.8     13777.15     88.61102     177.5756     355.1511      1.555     3.38     1153.403     62.60738     1364.721        33     1.447     0.970  53.82   0
        28   1008.9352    980.6569 307.4885821  +6.2952369     5361.464     7406.396     7541.535     89.17543     177.5756     355.2217      1.453     3.24     1147.712     62.60738     795.0577        25     1.382     0.921  49.41   0
        29    887.2713    981.2366 307.5391104  +6.2909413     12646.43     19328.83     20202.38     88.89367     177.6462     355.2217      1.629     3.46     1153.933     62.60738      1666.85        43     1.461     1.199  45.25   0
        30    600.1690    982.2977 307.6583546  +6.2809118     1035.987     1670.675      2129.14     89.17543     177.3635     355.2924      1.636     4.45     1159.532     62.60738     140.3058         9     0.917     0.705 -78.65   0
        31    531.4561    980.5557 307.6869602  +6.2793314     3892.438     6595.171     8071.498     89.03466     177.6462     355.1864      1.967     3.94      1160.95     62.60738     446.6266        34     1.644     1.167  33.94   0
        32    641.1310    979.2795 307.6414382  +6.2835279     1177.957     2142.093     2027.558     89.31597     177.8579     355.1511      1.951     6.23     1158.781     62.60738     141.0507        16     1.330     1.001  67.80   0
        33     67.1866    980.0851 307.8798505  +6.2639480     678.7924     1092.081     1613.564     88.61102     177.5049     355.0098      1.651     4.30     1165.837     62.60738     100.4437         5     0.758     0.695 -70.28   0
        34    484.5451    976.9459 307.7065708  +6.2792508     1932.926     3162.169     3544.819     89.31597     177.6462     355.1864      1.795     4.94     1161.187     62.60738     216.0587        21     1.342     1.071  38.83   0
        35    919.0084    968.8619 307.5263394  +6.2971085     45258.04     68199.73     71339.93     88.32746     177.4342     354.9745      1.584     3.42     1152.196     62.60738     6397.152        63     1.541     1.156  50.89   0
        36    226.4773    967.4551 307.8141032  +6.2745145     1650.868       2517.2      2435.53     89.17543     177.6462     355.1864      1.796     4.79     1165.535     62.60738     220.4244        19     1.441     0.991  50.74   0
        37    625.4220    965.6744 307.6484219  +6.2886191     927.2296     1444.929     1448.783     88.61102     177.5049     355.1158      1.701     5.17     1158.477     62.60738     121.3062         8     0.950     0.794 -76.39   0
        38    816.9520    962.4741 307.5689552  +6.2963403     2316.635     3407.122     3569.971     88.89367     177.7168     355.2217      1.604     3.36     1153.937     62.60738     346.3385        20     1.343     0.892  58.07   0
        39    765.1717    960.5455 307.5905331  +6.2954075     6820.426     10726.17      11105.3     88.75246     177.7168     355.0805      1.712     3.64     1155.121     62.60738     837.2642        32     1.438     1.126  56.51   0
        40    731.8522    961.2628 307.6043522  +6.2939983     558.3497     772.9517     670.9498     89.03466     177.5756     355.1511      1.596     5.65     1156.076     62.60738     93.99219         7     1.344     0.669   8.34   0
        41    234.5799    959.6968 307.8109989  +6.2779893     1366.055     2246.509     2140.027     88.89367     177.4342     354.9391      1.715     4.72     1165.367     62.60738      175.873        17     1.370     0.988  48.35   0
        42    551.5924    959.7762 307.6792935  +6.2885838     865.5948     1179.676     1350.278     88.46935     177.4342     355.0098      1.576     4.82     1160.247     62.60738     129.1985         6     0.934     0.706  23.13   0
        43    199.6773    959.1700 307.8255165  +6.2770347     754.2078     1331.117     1345.482     88.89367     177.7168     355.1864      1.862     5.13     1165.429     62.60738     113.8853         7     1.289     0.577  57.41   0
        44     59.7597    957.9771 307.8836831  +6.2728247      2390.77     4017.688      3685.44     88.61102     177.4342     354.9391      1.731     4.22     1165.328     62.60738     304.8462        26     1.479     1.076  52.02   0
        45    953.3095    955.5953 307.5125327  +6.3037292     6947.238     10373.16      11343.2     88.46936     177.2928     354.8685      1.609     3.36     1149.538     62.60738     977.9104        29     1.379     0.993  48.61   0
        46    614.8755    952.4934 307.6532468  +6.2937078     1517.175     1290.209     1132.266     88.89367     177.8579     355.1864      0.730     1.09     1158.068     62.60738     553.8796         5     0.531     0.424  55.89   0
        47    927.1071    947.3003 307.5236973  +6.3062800     2253.026     3350.291     3537.682     89.03466     178.2101     355.1158      1.585     3.53     1150.495     62.60738     332.3412        18     1.218     0.944  39.67   0
        48    786.5543    943.6730 307.5822156  +6.3030871     1335.573     2044.575     2664.079     88.89367     177.7168     355.1864      1.796     4.91     1153.411     62.60738     174.2772        17     1.334     0.987  70.29   0
        49    647.9380    943.3683 307.6398171  +6.2985807     4212.947     7060.644     7828.305     88.75246     177.7168     355.1158      1.817     3.76     1157.238     62.60738     559.4397        31     1.435     1.189  61.55   0
        50    260.2807    943.4919 307.8008685  +6.2855417     4042.087     6806.777     7106.736     88.75246     177.9284      355.257      1.810     3.94     1164.879     62.60738     472.8029        32     1.487     1.190  53.61   0
        51    997.4000    942.8491 307.4946410  +6.3104609     761.0566     1276.237     2221.613     88.18534     177.1512     354.6563      1.824     4.95     1145.934     62.60738     113.2468         7     1.070     0.648  47.96   0
        52    470.6554    942.3269 307.7135068  +6.2930771     1078.641     1647.374     1187.802     88.89367     177.5049     355.0805      1.647     5.00     1161.389     62.60738      139.949        10     0.962     0.818 -44.02   0
        53     28.8466    941.2157 307.8970920  +6.2787041     2022.178     3399.749     3909.331     88.46935     177.5049     354.9038      1.778     4.65     1164.793     62.60738     240.3246        25     1.515     1.123  36.33   0
        54    879.7424    939.8665 307.5436256  +6.3077690     959.8829     1273.317     1064.277     89.17543     177.5756     355.1864      1.354     4.18     1151.474     62.60738      149.329         9     1.024     0.617  60.64   0
        55    970.8282    938.0349 307.5058424  +6.3115628      569.772     1016.022     907.5039     88.46935     177.3635     354.9391      1.829     4.66      1147.22     62.60738     91.72937         5     0.926     0.666  61.18   0
        56    951.4702    936.7932 307.5139270  +6.3114301     769.2614     1133.304     1573.893     88.46935     177.1512     355.0452      1.629     5.07     1148.399     62.60738     129.8663         9     1.372     0.530  46.91   0
        57   1003.3340    935.7593 307.4924129  +6.3135856     873.6943     1465.055     1726.201     89.03466     177.5756     355.2924      1.828     4.49     1145.095     62.60738     178.0763         8     0.980     0.644  78.71   0
        58    572.5036    935.5278 307.6714214  +6.2992940     1539.371     2227.172      2229.24     88.75246     177.8579     355.1511      1.605     4.15     1158.921     62.60738     175.7007        16     1.136     0.958  28.33   0
        59     61.7428    932.8477 307.8837088  +6.2832650     676.0878     1317.946     1322.359     89.03466     177.6462     355.3277      1.768     6.43     1164.747     62.60738     99.88196         9     1.506     0.770  58.00   0
        60    611.8629    932.2936 307.6551775  +6.3019461     1208.513     2040.974      1486.27     89.03466     177.7168      355.257      1.781     4.96     1157.337     62.60738     175.3291        17     1.287     1.061  37.02   0
        61    291.8689    930.3604 307.7881882  +6.2920229     1144.277     2497.635     3517.928     88.89367     177.6462     355.2924      3.132     8.05     1164.339     62.60738     132.4087        19     1.577     1.149  36.90   0
        62    758.6838    926.3021 307.5943783  +6.3093275     770.7621     1340.284     1240.025     89.03466     178.0693      355.257      1.867     3.76      1153.54     62.60738     128.3104         6     0.970     0.808 -43.74   0
        63    896.0695    922.4987 307.5374243  +6.3154838     7153.658     10726.72     11143.37     89.03466     177.7873     355.1864      1.637     3.42      1149.84     62.60738     922.5513        34     1.504     1.043  49.66   0
        64    432.1152    919.7037 307.7302807  +6.3011252     1735.296     2768.776     2235.499     89.03466     178.0693      355.257      1.723     4.80     1161.728     62.60738     196.8618        21     1.294     1.156  29.46   0
        65    333.6611    918.1620 307.7712367  +6.2984607     8098.752     13983.39     14672.69     89.03466     177.7168     355.1864      1.839     4.14      1163.93     62.60738     934.9248        38     1.581     1.222  48.96   0
        66    253.8012    917.1382 307.8044495  +6.2962035     5866.783     10402.53     11150.17     88.32746     177.4342     354.8685      1.882     4.45     1164.485     62.60738     699.9252        37     1.622     1.210  51.92   0
        67    582.2349    911.4706 307.6681875  +6.3095511     1016.716     1865.173     1479.387     88.89367     177.5756     355.1864      2.056     5.73     1157.555     62.60738     128.4441        11     1.247     0.822  31.16   0
        68    912.0017    907.7819 307.5312981  +6.3220908     1091.466     1669.466     2044.567     88.61102     177.1512     354.8685      1.477     3.79     1148.478     62.60738     162.1388        10     0.976     0.704  56.24   0
        69    868.4332    906.7395 307.5494354  +6.3210676     667.7844     1087.817     1066.359     88.75246     177.7168     355.1158      1.979     5.16     1149.841     62.60738     120.6527         6     1.063     0.707 -79.25   0
        70    979.4022    903.1790 307.5034478  +6.3262384     950.6721      1327.94     1611.839     88.61102     177.2928     354.9038      1.569     4.68      1144.79     62.60738     118.4171         8     1.062     0.585  68.41   0
        71    572.2535    901.5801 307.6726671  +6.3133001     624.9542     760.8787     1181.786     88.46936     177.6462     354.9745      1.311     3.83     1157.574     62.60738     98.52454         5     1.004     0.419  82.59   0
        72    748.1336    900.5685 307.5996258  +6.3195987     1443.342     2191.572     2951.032     88.89367     177.7168     355.1158      1.746     4.37     1152.771     62.60738     166.8359        13     1.124     0.818  35.77   0
        73    979.7198    896.5602 307.5035375  +6.3289814     1512.837     2258.156     3405.712     89.03466     177.7168     355.1158      1.781     4.18     1144.427     62.60738     177.7098        15     1.095     0.980 -34.94   0
        74    533.5203    896.6146 307.6889270  +6.3140536     1169.862     1989.086     1935.463     88.61102     177.3635     354.9745      1.790     6.15     1158.851     62.60738     135.5282        15     1.284     1.044  45.85   0
        75    611.6868    897.0250 307.6564366  +6.3165000     579.4492     728.3317     348.7929     89.17542     177.4342     355.0452      1.508     4.17     1155.713     62.60738     89.28564         5     1.078     0.460  24.90   0
        76    666.6879    893.9579 307.6336875  +6.3196057     2209.351     3545.444      3485.17     89.03466     177.6462     355.2217      1.737     3.80     1154.274     62.60738     273.6305        21     1.298     1.009  40.59   0
        77   1018.4046    892.7850 307.4875904  +6.3318291     585.8096      749.038     1424.991     88.61102     177.2928     342.8599      1.208     3.42     1142.156     62.60738     97.93787         5     0.762     0.444 -70.30  16
