#   1 NUMBER                 Running object number                                     
#   2 X_IMAGE                Object position along x                                    [pixel]
#   3 Y_IMAGE                Object position along y                                    [pixel]
#   4 ALPHA_J2000            Right ascension of barycenter (J2000)                      [deg]
#   5 DELTA_J2000            Declination of barycenter (J2000)                          [deg]
#   6 FLUX_APER              Flux vector within fixed circular aperture(s)              [count]
#   9 FLUXERR_APER           RMS error vector for aperture flux(es)                     [count]
#  12 FLUX_RADIUS            Fraction-of-light radii                                    [pixel]
#  13 FWHM_IMAGE             FWHM assuming a gaussian core                              [pixel]
#  14 BACKGROUND             Background at centroid position                            [count]
#  15 THRESHOLD              Detection threshold above background                       [count]
#  16 FLUX_MAX               Peak flux above background                                 [count]
#  17 ISOAREA_IMAGE          Isophotal area above Analysis threshold                    [pixel**2]
#  18 A_IMAGE                Profile RMS along major axis                               [pixel]
#  19 B_IMAGE                Profile RMS along minor axis                               [pixel]
#  20 THETA_IMAGE            Position angle (CCW/x)                                     [deg]
#  21 FLAGS                  Extraction flags                                          
         1      4.0460     48.8412 307.9361106  +6.6321750     547781.9      1339892      1510252     94.36176     186.4633     331.2596      2.421     8.63      1288.63     66.45853     54764.96       223     2.375     1.587  42.66  31
         2     92.2375     13.4102 307.9006109  +6.6497736     2598.124     5414.592       6608.6     93.76072     188.3487     376.6599      2.305     7.41      1283.61     66.45853     302.0427        35     2.131     1.122  22.51  19
         3     94.9464      9.7180 307.8996081  +6.6513906     2769.146     6873.451     8185.052     94.51142     188.5737     377.1099      2.569     9.90     1283.367     66.45853     284.9543        43     2.571     1.194  29.19  19
         4    421.8204     12.8513 307.7634911  +6.6610074     802.2111     1875.347     3310.573     93.91134     188.6486     376.8099      3.438     5.96     1264.698     66.45853     108.2769         8     1.128     0.886  36.10   2
         5    635.0518      4.7255 307.6750347  +6.6714654     5708.893     11926.83     14602.17     94.51142     188.6486     341.3873      2.321     6.83     1248.628     66.45853     696.6986        41     2.262     1.153  29.30  19
         6    637.9553      1.7406 307.6739265  +6.6727960     4158.253     7713.665     8762.851     87.68497     156.9097     291.5462      1.959     8.44     1248.586     66.45853     493.9594        25     1.955     1.017  15.90  27
         7    535.6855      1.4988 307.7164913  +6.6694935     1238.565     1870.588     2072.933     84.73398     153.2644     287.0516      1.751     5.81     1251.964     66.45853      208.764        12     1.497     0.635  10.09  24
         8    256.2847      1.4973 307.8327531  +6.6601800     544.5693     1062.265     2041.194     84.73398     153.1721     287.0516      2.691     4.31     1278.994     66.45853     92.93237         6     1.089     0.485  -7.06  25
         9    574.2980    982.1315 307.6675555  +6.2653339      1901.65     5260.016     8120.938     94.51142     188.7235     376.9974      3.331    15.77     1309.201     66.45853       291.73        51     3.344     2.067  34.35   3
        10    576.2075   1023.7234 307.6653687  +6.2482010     857.6546     1063.522     524.5151     80.98129     148.4869     282.2853      1.473     4.86     1310.826     66.45853     186.1556        10     1.546     0.433   4.40  24
        11    585.2927    986.1232 307.6628503  +6.2640490      35147.8      93649.5     117849.5     94.21185     188.7984     377.0349      2.750     6.84     1309.337     66.45853     4416.904       106     2.327     2.230 -69.74   3
        12    582.4830    995.4921 307.6637048  +6.2600820     48572.82     81987.95     84675.07     94.21186      188.948     377.1848      1.797     4.87     1309.701     66.45853     5736.722        33     1.485     1.047  29.66   3
        13    583.8951    992.5212 307.6632172  +6.2613573     76509.11     146687.9     184695.4     94.21185     188.8732     377.0724      2.330     5.58      1309.62     66.45853     9429.894        67     2.466     1.292  22.93   3
        14    215.2396    997.6631 307.8163244  +6.2469536     999.1873     1878.906     2145.563     94.51142     188.4987     377.0724      2.160     6.67     1308.926     66.45853     132.2968        11     1.815     0.688  45.04   3
        15    217.8688    995.4994 307.8153039  +6.2479359     1867.061     3562.608     4979.113     94.51141     188.7235     377.0349      2.633     6.16     1308.946     66.45853     261.3198        25     1.803     1.070  31.61   2
        16    794.3119    990.3685 307.5757985  +6.2692352     3766.253     9179.396     10694.33     94.66084     188.3487     376.9599      2.479     6.03     1307.972     66.45853     480.8813        54     2.017     1.661  11.66   0
        17    215.6123    986.0179 307.8165608  +6.2517807     1110.452      2738.51     3708.634     94.21185     188.1985     376.9224      3.113     8.08     1308.631     66.45853     169.6448        19     1.728     1.394  73.20   0
        18    891.9107    986.6205 307.5353415  +6.2740211     829.5031     2012.357     1998.065     94.36176     188.2736     376.8474      2.515     4.35     1306.356     66.45853     134.4023         7     0.899     0.600 -35.29   0
        19    431.7329    985.0033 307.7267365  +6.2594033     1118.169     1838.668     3021.978     93.76072     188.1985     376.7724      2.093     5.90     1309.558     66.45853     157.9327        12     1.469     0.667  44.76   3
        20    433.8498    982.1982 307.7259504  +6.2606335     1852.665     3786.893     5251.062     93.76072     188.1234     376.5472      2.592     7.17     1309.458     66.45853     229.1322        25     1.926     1.071  21.66   2
        21    717.9000    982.7460 307.6078255  +6.2698509     3674.875     9513.742     11857.32     94.21185     188.5737     377.3721      2.714     6.94     1308.148     66.45853     465.7664        56     2.292     1.654   9.88   0
        22    750.7242    977.0021 307.5943692  +6.2733153     774.2122     1231.206     1368.965     93.91134     187.9731     376.8849      1.518     3.76     1307.344     66.45853      138.433         5     0.810     0.501  32.63   0
        23    957.6057    972.1503 307.5085077  +6.2821807     4114.871     8950.522     10309.65     93.91134     188.3487     376.5848      2.248     5.14     1304.706     66.45853     540.4249        43     1.749     1.538  23.34   0
        24    716.0930    972.0330 307.6089352  +6.2742202     1132.238     2334.365     4149.027     94.66084     188.4237     377.1099      3.532     8.15      1307.66     66.45853     164.4821        16     2.054     0.904  12.63   2
        25    717.9196    969.2999 307.6082670  +6.2754109     1491.607     2535.279     3208.255     94.51142     189.1723     377.0724      1.950     5.09     1307.467     66.45853     195.2369        16     1.522     0.753  27.60   2
        26    364.6737    966.9142 307.7552257  +6.2646488     889.8652     1763.389     2388.233     94.66084      188.948     377.0349      2.345     6.51     1309.493     66.45853     116.3302        11     1.716     0.693  14.27   0
        27    545.6380    960.3790 307.6802009  +6.2733745     1134.911     1859.459     2179.995     94.06172     188.2736     376.7349      1.948     6.07     1308.543     66.45853     197.9495        12     1.733     0.597  23.42   3
        28    547.0254    957.1739 307.6797314  +6.2747458     1998.464     4616.296     6199.755     93.91134     188.3487     376.9599      2.784     8.18     1308.436     66.45853     267.7438        32     2.061     1.334  19.36   3
        29    542.2509    952.3756 307.6818774  +6.2765709     2275.372     4000.202     5430.481     94.06172     188.5737     376.9224      2.073     5.22     1308.294     66.45853      279.355        18     1.554     0.771  24.31   3
        30    544.3906    949.4897 307.6810844  +6.2778353     3925.973     7881.349     9997.428     94.21186     188.1985     376.8099      2.328     6.07     1308.191     66.45853     462.5278        40     2.150     1.166  26.55   3
        31    295.9788    959.4187 307.7840398  +6.2654583     4061.426     7868.478     8645.941     94.21185     188.4987     376.9599      2.046     7.05     1309.439     66.45853     470.4358        29     2.056     0.896  28.23   3
        32    297.4551    956.1279 307.7835365  +6.2668681     6959.273     13842.36     17515.91     94.36176     188.4237     376.9974      2.281     5.86      1309.41     66.45853     875.3154        48     2.225     1.267  23.36   3
        33    749.9872    959.2313 307.5952697  +6.2806383     2574.157     4581.487     5574.137     93.91134     188.2736     376.9599      1.950     5.79     1306.438     66.45853     308.5468        20     1.838     0.807  14.90   3
        34    751.3737    956.3995 307.5947879  +6.2818552     4052.048     7248.353      8541.71     94.06172     188.1985     376.8099      1.967     5.61     1306.277     66.45853     477.4137        34     2.028     1.053  18.61   3
        35    912.2200    950.8212 307.5280917  +6.2894958     5022.284     11867.76     13435.07     94.21185     188.4987     376.9599      2.333     5.30     1304.985     66.45853     622.7531        52     1.885     1.628  23.65   0
        36    885.8140    946.9049 307.5392026  +6.2902399     6793.383     16847.87     19160.15     94.21185     188.2736     376.8474      2.419     5.58     1305.313     66.45853     823.4536        56     1.934     1.640   9.58   0
        37    528.6702    947.9799 307.6876716  +6.2779366     1154.269     2167.709     2769.094     94.06171     188.4237     376.9599      2.065     6.36       1308.2     66.45853     174.7395        11     1.658     0.685  30.02   3
        38    530.9205    945.1235 307.6868316  +6.2791924     1967.062      3981.15     4985.608     94.81004     188.8732     377.1848      2.542     6.95     1308.098     66.45853     246.2207        27     2.068     0.966  24.72   3
        39   1007.4379    946.3083 307.4886485  +6.2945155     3354.639     7005.656     7822.768     94.66084     188.4987     377.0724      2.174     5.26     1302.571     66.45853     404.0553        40     1.769     1.438  11.81   0
        40    599.7528    947.1585 307.6581426  +6.2806398     634.7018     1629.995      2375.97     94.36176     188.5737     376.8849      2.734     6.10     1307.619     66.45853     99.44727         7     1.764     0.594  27.14   0
        41    483.6262    941.4195 307.7066209  +6.2791504     977.4329     1786.334     2219.555     93.91134     188.2736     376.9224      1.863     4.50     1308.123     66.45853     142.2412         7     1.278     0.569  41.54   0
        42    917.5705    934.4916 307.5264119  +6.2964248     25221.05     59812.94      67809.9     94.66084     188.2736     376.9599      2.423     5.45     1304.418     66.45853     2809.152        84     2.046     1.723   7.69   0
        43    225.2172    932.1949 307.8143762  +6.2743539     865.5847     1899.216     2485.504     94.06171     188.1985     376.8474      2.393     5.94     1307.242     66.45853     140.4441        11     1.819     0.546  24.75   0
        44    815.6954    928.4586 307.5689756  +6.2955418     1306.489     3147.222     3516.624     94.36176     188.5737     377.1848      2.457     9.31     1304.288     66.45853     176.6523        23     1.659     1.597 -88.16   0
        45    763.6703    926.3370 307.5906798  +6.2946929     3168.765     9016.821     10454.03     94.51142     188.5737     377.0724      2.674     6.26     1304.526     66.45853      465.936        53     1.941     1.808 -30.89   0
        46     58.6969    923.9143 307.8838915  +6.2722173      1251.19     3381.343     3888.711     94.51142     189.0228     377.1099      2.681     8.95     1305.905     66.45853     193.3912        24     1.808     1.500 -36.25   0
        47    233.7229    924.9028 307.8110847  +6.2776525     708.6699      1417.17     2221.046     94.06171     188.7984     377.1099      2.225     6.13      1307.33     66.45853     112.0905         8     1.727     0.611  17.49   0
        48    951.8497    921.2564 307.5125993  +6.3030327     4111.428     9614.893      10298.3     94.51142     188.5737     377.1099      2.311     5.53     1302.827     66.45853     474.9031        47     1.831     1.570  -0.76   0
        49    924.8405    913.2498 307.5240979  +6.3054484     1151.273      2695.92     3303.073     94.66084     188.5737     376.9599      2.480     7.73      1303.11     66.45853     140.9135        15     1.608     1.040 -84.85   2
        50    646.5933    909.1889 307.6399367  +6.2978952     1900.639     5616.775     6756.706     94.06172     188.3487     376.9224      2.794     7.56     1305.757     66.45853     267.5292        44     1.984     1.796 -54.45   0
        51    259.4980    908.6006 307.8009153  +6.2852524     2044.404     4643.534     5995.971     93.91134     188.1234     376.5848      2.740     7.64     1307.654     66.45853     244.2544        35     2.035     1.540  34.15   2
        52    570.8104    904.0594 307.6716207  +6.2974972      628.527      1181.64     1826.974     93.76072     188.4237     376.6974      2.528     7.11     1306.541     66.45853     106.9972         7     1.405     1.009 -26.76   2
        53    571.9591    900.4212 307.6712648  +6.2990396     711.0584     1269.209     1816.458     94.06171     188.3487     376.8099      1.412     4.50     1306.422     66.45853     138.4517         7     1.777     0.324  40.63   2
        54     28.4461    906.3101 307.8970620  +6.2784845     1100.319     2551.804       3359.9     94.51142     188.4237     377.1848      2.868     6.97     1305.724     66.45853     172.3429        15     1.921     0.708  36.16   0
        55    893.3348    889.6624 307.5379865  +6.3141569     2555.448     4054.375     4364.576     94.51142     188.5737     377.0349      1.795     5.38      1301.98     66.45853     294.9644        18     1.610     0.706  33.37   3
        56    895.1249    887.3643 307.5373189  +6.3151663     3603.555     7017.113      7391.01     94.36176     188.6486     377.0724      2.085     5.52     1301.749     66.45853     463.0015        30     1.961     0.947  26.59   3
        57    331.5058    886.5116 307.7717160  +6.2967858     2196.979     4325.429     4759.102     94.51142     189.0976     377.1099      2.104     6.44     1307.849     66.45853     252.2504        24     2.007     0.792  23.64   3
        58    333.0974    883.0916 307.7711690  +6.2982529     4019.254     8342.271     10729.58     94.51142     189.1723     376.9974      2.400     6.29     1307.722     66.45853     519.3064        44     2.292     1.182  22.70   3
        59    251.4256    885.2012 307.8050581  +6.2946575     1877.312     3856.862     4520.608     94.06172     188.1985     376.7724      2.102     7.49     1306.801     66.45853     231.5447        25     1.986     0.875  22.74   3
        60    253.3584    882.1480 307.8043570  +6.2959843     2981.253     5668.055     6963.675     94.51142     188.6486     377.0349      2.164     6.72     1306.772     66.45853     388.3148        34     2.176     1.008  27.50   3
        61    431.7007    884.5795 307.7301182  +6.3009225     826.4213     1850.162     2127.811     94.51142     188.3487     376.7724      2.089     5.89     1307.199     66.45853     138.4553         8     1.549     0.630  45.31   0
        62    977.9545    867.9890 307.5035212  +6.3259215      556.079     954.7637     1705.315     93.91134     188.4237     376.6974      1.465     3.74     1297.535     66.45853     86.29236         5     1.034     0.389  57.82   0
        63    746.6436    865.2529 307.5998024  +6.3193836     678.0434     1678.697     2176.454     94.51142     188.5737     377.0349      2.603     5.01     1301.176     66.45853     117.4106         7     1.639     0.433  20.81   0
        64    664.2747    857.9132 307.6343004  +6.3196830     1003.097     2513.473     4327.953     94.51142      188.948     377.1099      3.616     7.64     1302.994     66.45853     121.9637        15     1.529     1.069 -35.94   2
        65    977.0026    860.9694 307.5041512  +6.3287923     576.8566     1109.438      1281.68     93.91134     188.3487     376.8099      2.436     3.73     1297.066     66.45853      88.9585         5     1.015     0.395  30.56   0
        66     62.9494    855.8032 307.8844164  +6.3005191     1249.786     3275.781     4102.608     93.76072     188.2736     376.5473      2.914     8.14     1304.077     66.45853     159.9591        21     2.209     0.838  31.46   2
        67    206.0024    854.3825 307.8249815  +6.3058838     913.8986     1872.233     1913.531     94.06171     188.0483     376.7724      1.984     4.65     1305.578     66.45853     151.0466         8     1.030     0.595  45.32   0
        68     80.8029    854.7279 307.8770290  +6.3015603     737.3594     1475.296     2494.382     93.91134     188.1234     376.8474      2.160     4.97     1304.015     66.45853      139.077         9     1.522     0.460  35.68   0
        69    659.9131    849.0067 307.6364122  +6.3232205     2673.015     8360.463      10232.8     93.91134     188.1985     376.7349      2.812     7.05     1302.405     66.45853      344.246        61     2.089     1.960  17.07   0
        70    897.8152    844.9214 307.5376173  +6.3328041     1387.898     3576.727     4240.485     94.06171     188.2736     376.8474      2.528     6.42      1298.36     66.45853      193.298        25     1.713     1.496 -60.89   0
        71    342.1718    844.8640 307.7686792  +6.3143605      4024.21     7389.089     9204.858     94.06171     188.5737     376.9599      2.017     6.58     1306.704     66.45853     477.0085        29     2.157     0.854  26.33   3
        72    343.9951    841.2727 307.7680416  +6.3159060     6424.674     14017.59     17245.54     94.06171     188.0483     376.9224      2.486     6.55     1306.614     66.45853      812.567        53     2.509     1.206  25.46   3
        73     20.5781    845.7960 307.9023716  +6.3032402      490.324     1139.247     1472.868     94.06172     188.2736     376.7724      1.843     4.92     1303.529     66.45853     89.56604         6     1.559     0.440  20.37   0
        74    215.1920    841.3405 307.8215988  +6.3115826     607.3522     1403.908     1351.249     93.76072     188.3487     376.6974      1.920     4.36     1305.582     66.45853     103.0247         7     1.299     0.416  40.95   0
        75    106.1067    831.5618 307.8672872  +6.3119835     664.8561     1596.383     2413.404     94.66084     188.4987     377.1099      2.350     4.35     1303.644     66.45853     140.2573         7     1.320     0.408  33.45   2
        76    422.2280    832.4317 307.7358066  +6.3221676     555.7729     1254.094     1319.337     93.91134     188.2736     376.8099      2.291     4.42     1304.935     66.45853     96.93628         5     1.127     0.493  -2.76   0
        77    888.3942    826.4455 307.5421520  +6.3401309     905.7211     2295.713     2183.614     93.76072     188.2736     376.6223      2.454     8.70     1296.839     66.45853     134.7892        17     1.926     1.098 -41.64   0
