#   1 NUMBER                 Running object number                                     
#   2 X_IMAGE                Object position along x                                    [pixel]
#   3 Y_IMAGE                Object position along y                                    [pixel]
#   4 ALPHA_J2000            Right ascension of barycenter (J2000)                      [deg]
#   5 DELTA_J2000            Declination of barycenter (J2000)                          [deg]
#   6 FLUX_APER              Flux vector within fixed circular aperture(s)              [count]
#   9 FLUXERR_APER           RMS error vector for aperture flux(es)                     [count]
#  12 FLUX_RADIUS            Fraction-of-light radii                                    [pixel]
#  13 FWHM_IMAGE             FWHM assuming a gaussian core                              [pixel]
#  14 BACKGROUND             Background at centroid position                            [count]
#  15 THRESHOLD              Detection threshold above background                       [count]
#  16 FLUX_MAX               Peak flux above background                                 [count]
#  17 ISOAREA_IMAGE          Isophotal area above Analysis threshold                    [pixel**2]
#  18 A_IMAGE                Profile RMS along major axis                               [pixel]
#  19 B_IMAGE                Profile RMS along minor axis                               [pixel]
#  20 THETA_IMAGE            Position angle (CCW/x)                                     [deg]
#  21 FLAGS                  Extraction flags                                          
         1    300.6905     30.4505 307.8143674  +6.8702594     7266.876     34226.79     55621.66     95.89929     191.1145     382.7617      3.583    10.28     1302.758     67.43446     1063.986       121     2.721     2.563 -79.69   0
         2    628.8042     21.1668 307.6773792  +6.8850439     1405.708     3012.907     4915.935     94.98449     191.1907     382.3052      2.689     8.15     1272.326     67.43446     150.8149        22     1.621     1.145  82.12   3
         3    343.0000     21.5889 307.7969690  +6.8753384     1030.792     1912.162     3532.319      95.2904      190.886     382.3052      3.337     8.09     1296.325     67.43446     143.4604        15     2.555     0.716 -86.04   3
         4    346.0000     23.0335 307.7956636  +6.8748410     1167.387     2425.431     4170.134      94.6776     191.0384     382.2291      3.882     7.26     1295.833     67.43446     178.6001        16     2.686     0.549  80.47   3
         5    348.9740     21.0183 307.7944888  +6.8757739     1362.244     2844.619     5125.592     95.44299     191.1145     382.4574      4.068    10.69     1295.403     67.43446     152.0085        31     2.645     1.203  83.56   2
         6    470.8228     11.5970 307.7438235  +6.8837378     1407.623     4818.167     8135.197     95.44299     190.9622     382.3433      3.513    13.18     1282.496     67.43446      166.912        51     2.635     1.835 -50.97  18
         7    585.1555      7.9061 307.6961039  +6.8890756      1547.66     3926.972     5891.953     95.74743     191.2668     380.3973      3.300     9.60     1274.264     67.43446     176.4468        29     2.076     1.239 -46.83  19
         8    586.4341     11.9579 307.6954289  +6.8874422     1532.781     2572.496     4121.931     95.59533     191.3428     382.3813      2.255     7.06     1274.189     67.43446     188.7821        13     1.577     0.886  -6.88   3
         9    589.4370      9.3457 307.6942624  +6.8886228     1530.227     2949.482       4671.4     95.74743     191.3428     382.6096      2.441     6.08     1274.099     67.43446     194.9637        15     1.632     0.648 -75.98  19
        10    283.8405     10.7363 307.8221017  +6.8778509     1224.654     2672.636     4030.464     95.89929     191.2668     382.6856      2.257     6.93     1305.059     67.43446     154.7917        17     1.801     0.748  38.86  18
        11    288.0157      7.8031 307.8204562  +6.8792038     1432.551     3283.675     5010.788     95.44299      190.886     379.5931      2.984     6.86     1305.098     67.43446     209.0857        21     1.767     1.121 -80.52  18
        12    324.3011      2.8993 307.8054414  +6.8824446     540.3495     1602.585     2358.335     95.89929     177.4539     317.2374      2.414     4.42     1299.703     67.43446     87.42041         5     1.602     0.346  44.57  24
        13    924.5826   1000.9296 307.5198920  +6.4895812     2970.348     6908.729       7446.7      95.2904     191.1907     382.4574      2.354     5.58     1331.368     67.43446     340.9906        44     1.842     1.518  66.14   0
        14    926.3820   1021.8778 307.5184196  +6.4809754     861.0092     1495.099      1674.98      95.2904     179.5733     321.1126      1.852     5.50     1332.452     67.43446     124.2375        11     1.374     0.620 -87.02  24
        15    751.1246   1020.3029 307.5917578  +6.4758090     7768.669     19705.47     22266.62     95.44299     191.5708     345.9381      2.460     5.87     1336.137     67.43446     862.5731        64     1.984     1.789  84.19  24
        16    454.8209   1019.1516 307.7156940  +6.4664251     17731.25     52181.28     67301.38     95.44299     191.3428     360.9652      2.873     6.60      1336.84     67.43446     1764.721       111     2.320     2.160  63.67  24
        17    227.9143   1023.6357 307.8104140  +6.4569992     2643.802     4064.113     4863.689     83.92271     152.6821     288.3042      1.610     4.82     1335.673     67.43446     594.8862        16     1.595     0.671  -1.11  24
        18    499.4939    993.0331 307.6979163  +6.4787176     604.2391     1235.098      1458.99     96.05091     191.1907     382.6856      1.623     4.93     1335.448     67.43446      94.2583         6     1.376     0.500  52.08   0
        19    396.2192    987.9481 307.7412754  +6.4773787     16268.33     50694.08     64642.69      95.2904     191.4189     382.3433      2.879     7.04     1336.417     67.43446     1849.231       104     2.357     2.086  81.35   0
        20    604.1427    987.4988 307.6543487  +6.4844912     4906.731     14594.32     18843.22     95.59533     191.3428     382.7997      2.852     7.08     1334.559     67.43446     547.6431        68     2.127     1.910  89.86   0
        21    161.5155    985.7990 307.8394869  +6.4704312     7780.697     23270.99     30519.09     94.98449     190.8097     382.2291      2.897     6.59     1335.282     67.43446     907.4622        91     2.414     2.007  74.14   0
        22    525.9440    984.3693 307.6871554  +6.4831824     1221.112     3543.036     4629.818     95.74743     191.4189     382.4955      2.884     9.46     1335.128     67.43446     163.4557        26     1.703     1.466 -74.50   0
        23    127.6766    986.8979 307.8535977  +6.4688453     763.5335     1564.727     1444.457     95.44299     191.6468     382.6096      2.137     4.78     1335.075     67.43446     112.9685         5     1.015     0.639  -3.04   0
        24    939.4613    984.9300 307.5142202  +6.4966931     701.8887     1679.361     1889.196     96.05091     191.3428     382.6096      2.074     4.24     1330.183     67.43446     107.7079         6     1.320     0.388  20.30   0
        25    899.5839    980.9676 307.5310319  +6.4970095       2683.5     6072.002     7031.922     95.44299     191.0384     382.4194      2.384     5.82     1330.815     67.43446     288.9314        37     1.745     1.506 -79.24   0
        26    572.8231    979.7847 307.6677110  +6.4866397     2521.171     7637.966     9124.076     95.59533     191.1145     382.4574      2.779     8.10     1334.658     67.43446     304.2308        52     2.102     1.753 -81.23   0
        27    922.3440    973.1589 307.5217827  +6.5009947     1888.183     4443.064     4976.063     95.74743     191.3428     382.6096      2.446     6.93     1329.944     67.43446     192.5884        31     1.735     1.392 -74.71   0
        28    485.3177    970.9216 307.7046075  +6.4873917      2915.44         8814     11392.35     96.05091     191.6468     382.7237      2.920     7.16     1334.817     67.43446     311.8826        60     2.043     1.948  76.58   0
        29    331.4280    970.9034 307.7689565  +6.4822678     1012.039      3175.07     3985.202     96.05091     191.0384     382.4955      2.842     9.99     1336.134     67.43446     134.3302        24     1.744     1.596  47.41   0
        30    841.2012    966.5499 307.5559415  +6.5010361     1610.774     3882.831     5222.701     95.13757      190.886     382.0387      2.750     7.02     1330.852     67.43446     207.8834        29     1.609     1.482  89.10   0
        31    848.0428    959.8935 307.5533096  +6.5040167     1007.227     2288.054     2873.747     96.05091     191.2668     382.7237      3.304     8.52      1330.37     67.43446     129.5497        15     2.129     0.952 -15.28   2
        32    674.4850    956.7190 307.6259955  +6.4995635     1193.042     3099.245     4950.204     95.59533     191.7227     382.6476      3.333     6.11     1332.531     67.43446     140.1416        13     1.222     0.860  61.33   2
        33    344.6934    955.1570 307.7639541  +6.4892239     1462.883     4011.503     5437.283     95.89929     191.3428     382.7237      3.391    10.45      1335.74     67.43446     183.0282        31     2.215     1.374  66.93   2
        34     36.2923    955.8911 307.8928825  +6.4786135     984.8034     2030.949     3427.985     95.89929     191.9503     382.6096      3.114     5.33       1333.2     67.43446     157.1407        11     1.095     0.825  63.61   0
        35    571.6408    951.9584 307.6691654  +6.4981109      4017.78      12021.5     15565.27     95.59533     191.3428     382.4194      2.902     6.82     1333.679     67.43446     409.4043        67     2.104     1.997 -83.21   0
        36    734.3909    948.3552 307.6012329  +6.5050148     6815.366     20065.16     26208.09      95.2904     191.1907      382.191      2.869     6.84     1331.117     67.43446     754.6628        87     2.385     2.030 -75.68   0
        37    254.2330    948.6736 307.8020040  +6.4888859     1039.674     2928.967     3093.124     95.74743     191.2668     382.5715      2.624    10.08     1335.418     67.43446     136.3033        23     1.903     1.489  43.31   0
        38    887.7654    959.0138 307.5367289  +6.5056989     614.6942     1224.208     1086.789      95.2904     191.0384     382.4194      2.041     4.91     1329.765     67.43446     95.39697         5     0.895     0.762 -84.77   0
        39    763.5811    945.2304 307.5891339  +6.5072774     711.7097     1871.059     1682.385     95.44299     191.1145     382.4194      2.089     4.24     1330.476     67.43446     97.09326         5     1.137     0.450 -32.87   0
        40     72.0838    940.7461 307.8784423  +6.4860759     1959.565     5725.736     7051.844     95.89929     191.3428     382.7617      2.845     8.56     1333.033     67.43446     226.2281        45     2.122     1.774  54.70   0
        41    919.2444    942.4673 307.5241339  +6.5135879     1065.053     2223.428     2340.969     95.89929     191.2668     382.6096      2.219     7.82     1328.332     67.43446     122.2152        16     1.437     1.189  77.32   0
        42    973.4783    938.0497 307.5016060  +6.5172138      2432.96     5693.987     6461.828     95.89929     191.4189     382.5715      2.432     6.69     1326.937     67.43446     294.2993        42     2.012     1.459  54.26   0
        43    709.6851    939.2508 307.6118777  +6.5079597     993.6553     2992.142     3716.422     95.89929     191.2668     382.6856      2.773     9.77     1330.834     67.43446      137.672        22     1.846     1.442 -20.68   0
        44    308.4477    934.5332 307.7798235  +6.4965453     1464.539      3496.01     5516.205     95.89929     191.2668     382.6096      3.144    10.00     1335.293     67.43446     163.2153        26     1.927     1.447  64.88   2
        45    665.9902    933.2285 307.6303573  +6.5089981     746.8967     1331.032       1784.2     95.44299     191.1145     382.3813      1.996     3.83     1331.304     67.43446     112.9679         5     0.829     0.508 -60.42   0
        46    672.6615    920.1115 307.6280196  +6.5146459     5898.988     17886.86     23275.02     95.89929     191.4949     382.6476      2.872     7.00     1330.674     67.43446     572.0465        80     2.260     2.027  86.12   0
        47    775.3464    921.2128 307.5850408  +6.5176034      812.711     2021.948     2189.015     95.13757     191.2668     382.2291      2.601     8.41     1329.008     67.43446     117.8657        13     1.903     1.038  -3.99   0
        48    593.3942    914.9993 307.6613437  +6.5141234     1161.713     3086.753     4114.799     95.13757     190.9622     382.3433      2.934     9.45      1332.16     67.43446     132.6891        22     1.767     1.411  22.78   2
        49    566.2195    911.4175 307.6728311  +6.5147004     5842.007     18646.43     28563.71     95.59533     191.1145     382.4955      3.341     8.50     1332.203     67.43446     691.7172       104     2.805     2.177  39.40   0
        50    897.8446    909.8293 307.5342052  +6.5263792     1823.869     4699.364     5521.751     95.44299     191.4189     382.4194      2.586     7.73     1326.709     67.43446     232.6504        33     1.733     1.450 -67.59   0
        51    337.2314    906.3932 307.7687607  +6.5091461     9565.646     33516.83     44668.17     95.13757     191.1907     382.3052      3.051     7.74     1333.907     67.43446     1145.275        98     2.412     2.159  80.49   0
        52     83.8738    905.5154 307.8747339  +6.5010432     1013.193     2578.726     3749.485     96.05091     191.7227     382.6096      3.115     8.19     1331.985     67.43446     125.9471        14     1.442     1.300  12.86   0
        53    866.8925    900.1775 307.5474811  +6.5293447     2188.911     6058.839      6854.95     95.89929     191.1145     382.3813      2.551     7.49     1326.717     67.43446     281.9832        43     1.925     1.650 -62.67   0
        54    194.8842    897.1043 307.8286062  +6.5082345     4728.725     15896.27      21682.7     95.89929     191.7986     382.6856      3.108     7.48     1333.406     67.43446     641.8497        83     2.356     2.108  83.85   0
        55   1021.3241    898.5093 307.4829554  +6.5351562     2454.441     5784.917     6221.708     95.89929      186.334     330.5362      2.263     6.52     1322.412     67.43446     260.8104        36     1.777     1.431 -84.52  24
        56    999.2545    886.9161 307.4925832  +6.5392205      4697.09      11552.7      13372.8     95.89929     191.3428     382.7617      2.477     6.08     1322.026     67.43446     490.5005        51     1.911     1.584  87.62   0
        57     95.3551    886.1358 307.8706049  +6.5094435     1861.257     6001.937      7134.07     95.89929     191.2668     382.5715      2.887     8.43     1331.382     67.43446     234.9844        49     2.084     1.873  48.83   0
        58    117.3312    881.1946 307.8615868  +6.5122225      1009.39     2698.346     3867.056      95.2904      190.886     382.3813      2.981     9.09     1331.693     67.43446     120.5022        19     1.832     1.260  43.53   0
        59    340.8570    875.1638 307.7683246  +6.5221851     931.2449     2434.428     3317.778     95.74743     191.3428     382.6096      2.783     7.36     1332.232     67.43446     119.6582        14     1.793     0.846  38.56   0
        60    928.1088    874.2782 307.5227710  +6.5420895     560.1453     1165.852      1843.06     95.59533     191.6468     382.6476      2.398     4.67     1323.655     67.43446     120.6228         5     1.204     0.514  67.81   0
        61    392.7267    871.1753 307.7467717  +6.5255655     1977.375     4320.581     6713.587     95.44299     191.1907     382.4955      2.625     9.92      1331.83     67.43446     241.6838        36     2.762     0.994  55.83   3
        62    396.6201    869.4039 307.7452048  +6.5264281     2363.708     4751.049     6601.642     95.44299      190.886     382.3433      2.388     7.52     1331.738     67.43446     284.9532        27     2.112     0.961  68.44   3
        63    393.3136    867.9276 307.7466386  +6.5269284      1654.92     2735.508     4169.072     96.05091     191.6468     382.5715      1.741     5.70     1331.707     67.43446     304.1791        13     1.631     0.560  63.34   3
        64    734.8154    866.6484 307.6038696  +6.5388278     4783.299     15290.51     19985.03     95.13757     191.2668     382.2671      2.918     7.41     1328.203     67.43446     545.0475        75     2.225     2.055  85.67   0
        65    978.4495    861.2516 307.5021658  +6.5491474     1947.168     4508.279     5088.469     96.05091     191.1907     382.5335      2.363     6.68     1320.659     67.43446     207.5677        32     1.788     1.372 -54.48   0
        66    441.8150    851.4674 307.7269248  +6.5353546     1087.136      2751.86     3970.534      95.2904     191.1907     382.4574      2.929     7.71     1330.783     67.43446     170.0267        16     1.797     0.926 -55.49   2
        67    800.1838    849.5381 307.5771214  +6.5480776     13336.62      39881.1     51324.52      95.2904     191.2668     382.3433      2.866     6.94     1325.254     67.43446     1435.757        99     2.345     2.033 -87.34   0
        68    414.0182    852.4781 307.7385142  +6.5340097     939.4324     2653.934     3959.019      95.2904     190.9622     382.4955      3.054     6.92     1330.863     67.43446     134.9629        14     1.713     0.785 -24.45   0
        69    573.6091    840.0955 307.6722017  +6.5444494     944.6387     2382.807     4009.558     95.59533      190.886     382.3052      3.390     8.92     1328.103     67.43446     123.5848        14     2.003     1.109 -78.36   2
        70    656.6643    835.7129 307.6376188  +6.5490262     26668.06      89884.8     118492.1     95.89929     191.5708     382.6096      3.004     7.71     1327.309     67.43446     2783.254       126     2.430     2.209  89.13   0
        71     56.6922    831.1042 307.8886807  +6.5309130      2071.05     6714.653     9105.824     95.89929     191.9503     382.5335      3.061     8.78     1330.098     67.43446     286.7701        48     2.211     1.831  -3.19   2
        72    521.4156    832.5591 307.6942892  +6.5458287     855.4471     2036.665     3385.508     95.29041     191.1145     382.3052      3.574    10.83     1328.383     67.43446      110.354        15     2.608     1.254  -7.55   2
        73    517.8197    829.7955 307.6958884  +6.5468521     795.8636     1456.334     2869.166     95.44299     190.9622     382.3433      2.509     3.60     1328.193     67.43446     132.2296         6     0.924     0.642  29.06   3
        74    502.3883    828.7341 307.7023785  +6.5467771     2105.485      8095.94     11319.49      95.2904     191.1145     382.4194      3.171     8.56     1328.525     67.43446       311.71        65     2.210     2.180 -67.97   0
        75    365.4622    824.0159 307.7598038  +6.5441635     7635.511     29021.15     40839.61      95.2904     191.2668     382.3433      3.218     8.46     1330.395     67.43446     1052.367       101     2.451     2.278  80.53   0
        76    232.1669    825.8756 307.8154822  +6.5389438     925.9318      2899.75     4537.171     95.74743     191.3428     382.5335      3.287     9.98     1330.882     67.43446      124.837        24     2.191     1.267  15.71   0
        77    452.7479    817.0400 307.7235422  +6.5499601      2048.24     3892.464     6115.784     95.74743     191.4189     382.5715      2.357     7.17     1328.486     67.43446     255.2059        24     1.708     1.147  24.96   3
