#   1 NUMBER                 Running object number                                     
#   2 X_IMAGE                Object position along x                                    [pixel]
#   3 Y_IMAGE                Object position along y                                    [pixel]
#   4 ALPHA_J2000            Right ascension of barycenter (J2000)                      [deg]
#   5 DELTA_J2000            Declination of barycenter (J2000)                          [deg]
#   6 FLUX_APER              Flux vector within fixed circular aperture(s)              [count]
#   9 FLUXERR_APER           RMS error vector for aperture flux(es)                     [count]
#  12 FLUX_RADIUS            Fraction-of-light radii                                    [pixel]
#  13 FWHM_IMAGE             FWHM assuming a gaussian core                              [pixel]
#  14 BACKGROUND             Background at centroid position                            [count]
#  15 THRESHOLD              Detection threshold above background                       [count]
#  16 FLUX_MAX               Peak flux above background                                 [count]
#  17 ISOAREA_IMAGE          Isophotal area above Analysis threshold                    [pixel**2]
#  18 A_IMAGE                Profile RMS along major axis                               [pixel]
#  19 B_IMAGE                Profile RMS along minor axis                               [pixel]
#  20 THETA_IMAGE            Position angle (CCW/x)                                     [deg]
#  21 FLAGS                  Extraction flags                                          
         1    612.6766     17.3170 307.6838090  +6.7065284      12344.9     18997.09     19709.97     80.93502     161.5506      322.493      1.667     4.00      883.977     56.82204     1868.457        39     1.642     0.982  78.24   0
         2    752.0314     12.1633 307.6260735  +6.7133098     5082.067     7691.349     8350.332     80.42277      160.974     322.1083      1.595     4.21     880.2769     56.82204     857.7878        29     1.594     0.845  70.38   0
         3    238.9687      7.1991 307.8394389  +6.6981882     10542.16     16595.58     16824.81     80.16541     161.0381     315.9551      1.647     3.99     905.8905     56.82204     1618.654        35     1.647     0.918  75.18  16
         4     14.0193      5.0853 307.9329805  +6.6915033     19487.36     30349.75     31761.04     80.42277      160.974     295.9987      1.633     3.95     907.4452     56.82204     2943.807        49     1.704     1.031  70.33  24
         5    900.8325      5.5493 307.5644600  +6.7210019     714.0931      1524.97      2207.75      80.6793     161.2946     301.2233      2.265     6.19     875.8295     56.82204     127.1639        10     1.615     0.667  62.35  16
         6    755.2018      3.9696 307.6250313  +6.7167971     1553.871     2193.388     2549.658     80.16541     158.6465     282.2037      1.463     4.15     879.7759     56.82204     256.8843        14     1.311     0.658  64.37  16
         7    331.9608      2.9039 307.8009430  +6.7030796     1258.379     1857.243     2224.562     80.80726     149.2506     267.5443      1.646     6.02     899.7629     56.82204     179.2181        15     1.469     0.694  75.98  24
         8    988.1853   1007.6558 307.4945949  +6.3103369      793.146      1398.58     1978.288     80.16541     161.1023     322.0762      2.135     5.48     910.6141     56.82204     112.6963        10     1.284     0.714  25.76   0
         9    944.1124   1020.2587 307.5124734  +6.3036688     6340.816     10361.06     10920.55     80.80726     161.2946     292.0631      1.742     4.26     915.3256     56.82204     754.5619        36     1.673     1.037  76.77  24
        10    755.7361   1023.4156 307.5905856  +6.2960890     3582.902     4201.595     4564.318     73.15714     131.8271     246.6469      1.081     2.53     919.1786     56.82204     765.3158        14     0.984     0.721 -12.36  24
        11    542.5300   1023.3372 307.6791140  +6.2890030       689.05     847.2067     1031.762     74.41736     133.2304     248.2337      1.174     3.47      925.607     56.82204     140.9103         5     0.758     0.457 -70.72  24
        12    225.1866   1023.1989 307.8108788  +6.2784374     1191.034     1394.602     1292.863     75.65659     135.0023     250.1409      1.140     3.59     929.7372     56.82204     254.8301         9     0.969     0.685 -52.18  24
        13    189.3847   1022.9955 307.8257501  +6.2773208     772.0504     1018.728     832.5519     77.67804     137.8049     253.5053      1.392     2.87     929.6653     56.82204     124.5278         7     0.724     0.665  76.48  24
        14     50.2339   1021.9703 307.8835574  +6.2730740      2559.19     3943.947     4001.231     80.29419     150.6288      269.123      1.581     3.95     930.5676     56.82204     403.2563        19     1.431     0.836  81.84  24
        15    460.5720   1006.2070 307.7137196  +6.2933323     1311.197     1970.453     2076.172      80.2942     161.0381     322.1725      1.561     4.57     925.4681     56.82204     174.6471        13     1.340     0.666  80.14   0
        16     19.5523   1005.3605 307.8968568  +6.2788981     2223.138     3354.286     3358.531      80.6793     161.2305     322.1725      1.691     4.19     930.7885     56.82204     367.5201        19     1.411     0.829  71.86   0
        17    870.2223   1004.1498 307.5436942  +6.3078563      998.815     1464.255     1088.606     80.29419     161.2946     322.2366      1.701     4.32     917.9402     56.82204     146.5373        11     1.131     0.848  63.88   0
        18    286.7230   1001.5538 307.7860590  +6.2894326     808.4117     1177.826     1567.783      80.6793     161.2946     322.3648      1.627     5.75     929.7013     56.82204     125.1466        11     1.357     0.686  83.97   0
        19    994.8038   1000.5420 307.4920847  +6.3134931     842.8686     1432.932     1560.225     80.16541     161.1023     322.1083      2.055     5.54     909.8986     56.82204     106.4101        11     1.403     0.617 -75.27   0
        20    941.9370   1001.5622 307.5140027  +6.3113125     728.2762     1084.429     789.8887     80.80726     161.2946     322.3648      1.580     3.85     914.7443     56.82204     127.0829         8     0.918     0.639  56.12   0
        21    563.1764   1000.4037 307.6713122  +6.2991576      1589.85     2450.563     2962.246     80.42277     160.9098     322.2045      1.609     4.07     924.6021     56.82204     235.5826        18     1.448     0.753  82.06   0
        22    602.4517    996.7132 307.6551285  +6.3019929     1229.491     1736.664     1473.439     80.80726     161.1023     322.4289      1.543     4.74     923.5559     56.82204     194.7454        14     1.433     0.704  66.96   0
        23     52.0217    997.1222 307.8836544  +6.2833885     652.6019     1080.896     1549.666     80.42277      160.974     322.3648      1.499     3.81     930.1852     56.82204     118.1628         5     0.838     0.497  65.72   0
        24    282.2262    994.4022 307.7881671  +6.2922333     1333.443     2252.078     2374.586      80.2942     160.9098     322.1725      1.794     4.94     929.6642     56.82204     188.2491        19     1.534     0.920  71.63   0
        25    550.2748    992.4200 307.6769375  +6.3020214     619.5373     861.6257     917.2004     80.42277     161.0381     322.3007      1.466     3.85     924.7247     56.82204      103.637         6     1.177     0.446  88.96   0
        26    749.3798    990.6560 307.5943238  +6.3093970     960.4751     1509.154     1670.026      80.2942     161.2305     322.1725      1.614     5.01     918.9423     56.82204     161.3941         9     1.273     0.558  61.43   0
        27    886.7924    987.1929 307.5373818  +6.3154065     6796.986     10708.95     10971.78     80.16541     161.0381     322.2366      1.663     3.89     916.5344     56.82204     809.7115        31     1.587     0.966  78.31   0
        28    591.5609    984.0368 307.6600764  +6.3068606     601.8988     616.3401     1072.625     80.55113     161.1023     322.2366      1.336     5.12     923.4703     56.82204     102.9186         8     1.268     0.584  71.92   0
        29    422.6159    984.2141 307.7302194  +6.3011388      2166.19     2994.138     2990.967     80.55114     160.9098     322.3007      1.515     3.68     926.1693     56.82204     288.5961        16     1.228     0.771  74.84   0
        30    324.3386    982.6051 307.7710794  +6.2985127     9685.381     14913.73     15589.98     80.16541     161.0381     322.1404      1.636     3.79     929.0948     56.82204     1590.939        36     1.568     0.975  76.97   0
        31    244.4157    981.4977 307.8043010  +6.2962917      7363.33     10973.18     11989.55     80.80727      160.974     322.1725      1.651     3.95     929.6212     56.82204     1103.496        34     1.583     0.963  79.13   0
        32    756.9368    975.9938 307.5916778  +6.3157002     695.8794     1110.248     611.7072     80.16541      160.974     322.1404      1.565     4.78     918.5687     56.82204     115.0914         8     1.444     0.449  51.75   0
        33    572.5599    976.0197 307.6682355  +6.3095345     1249.486     1751.482     1574.125     80.42277     161.0381     322.1083      1.532     3.69     923.7439     56.82204     216.3007        11     1.199     0.613  63.39   0
        34    902.3767    972.1321 307.5314152  +6.3221413     995.9406     1352.844     1202.706     80.42277     161.1664     322.3328      1.558     5.67     915.2652     56.82204     144.5618        11     1.272     0.712  70.43   0
        35    859.1094    971.0312 307.5494184  +6.3211543     685.6162     1419.604     1465.913     80.93502     161.0381     322.3648      1.994     5.16     916.5915     56.82204     110.4943        10     1.447     0.520  71.66   0
        36    135.0437    971.9532 307.8500343  +6.2965624     668.8624     1093.267     633.4566     80.80726     161.1664     322.3328      1.669     2.33     929.5372     56.82204     107.2472         5     0.600     0.593  75.16   0
        37    970.0109    968.0563 307.5034670  +6.3260752     906.4478     1270.573       1346.1     80.16541     161.1664     322.0442      1.592     6.00     911.3642     56.82204      137.016        11     1.227     0.825  80.22   0
        38    738.8605    965.1042 307.5995490  +6.3195914      1764.39     2588.279     2838.364     80.55113     161.2305      322.461      1.624     4.60     918.7532     56.82204     268.7692        18     1.600     0.734  83.49   0
        39    562.5271    966.0712 307.6727357  +6.3133050     702.7834     973.9016     568.4629     81.06258     161.3586     322.3648      1.440     4.33     923.7437     56.82204       105.04         8     1.160     0.460  79.43   0
        40    603.0049    962.3218 307.6560541  +6.3162047      849.067     1228.793     692.3146     80.42277      160.717     322.1404      1.560     5.03     922.6243     56.82204     132.0092         9     1.286     0.557  50.91   0
        41    970.2211    960.9937 307.5036162  +6.3289970     1261.048     2268.065     2414.578     80.42277     161.0381     322.1725      1.903     5.33     911.1946     56.82204     172.9363        17     1.506     0.869  67.83   0
        42    523.9435    960.9791 307.6889278  +6.3141169     1233.343     1928.992     2388.416     80.42277     161.2305     322.1725      1.724     5.49     924.4005     56.82204     171.9263        14     1.327     0.813  81.26   0
        43    657.6015    958.5114 307.6335119  +6.3196005     2590.068     4180.077     4011.481     80.03643     160.7813     322.1404      1.683     4.24     920.5058     56.82204     417.1342        23     1.563     0.879  84.36   0
        44    947.5860    956.9139 307.5131519  +6.3299273     583.3629     987.0461     553.7937     80.42277     161.0381     322.2687      1.590     3.71     912.4127     56.82204     114.7493         5     1.225     0.323  41.22   0
        45     54.0661    954.5731 307.8842428  +6.3010164     2926.527     4810.818     5475.418     80.42277     161.1023     322.2687      1.771     4.54     929.6035     56.82204     410.9984        22     1.617     0.795  82.52   0
        46    818.4587    955.7740 307.5668096  +6.3260964     757.3156     727.3061     633.1358     80.42277     161.2305     322.2045      1.284     4.28     917.1276     56.82204     108.8103         7     1.091     0.478  41.69   0
        47    197.5910    953.8396 307.8246756  +6.3061359      2165.21     3498.062     3622.198     80.16541     161.0381     322.1083      1.739     4.21     929.5446     56.82204     312.6428        21     1.537     0.847  69.35   0
        48     71.6071    953.8727 307.8769835  +6.3018945     2016.785     3107.278     3424.798     80.42277     160.7813     322.2687      1.699     4.18     929.5443     56.82204     282.9626        23     1.540     0.937  79.44   0
        49    935.5474    953.5744 307.5182628  +6.3309048     777.9489     940.2329     218.0181     80.42277     161.2946     322.2687      1.489     4.44     912.9857     56.82204      119.661         6     1.174     0.478  62.19   0
        50    336.3171    949.7887 307.7672112  +6.3124570       801.32     1372.189     2268.527     80.42277     160.9098     322.2045      1.938     5.04     928.9744     56.82204      138.433         9     1.264     0.577  78.35   0
        51    231.5034    950.2505 307.8107159  +6.3087542     826.0453     1247.766     597.4916      80.6793     161.1664     322.5571      1.324     3.44     929.5387     56.82204     181.2468         7     0.961     0.471  78.54   0
        52    652.0681    947.6885 307.6361730  +6.3238824     7368.991     11075.18     10921.84     80.93502     161.4226     322.3328      1.575     3.85     920.5433     56.82204     1076.895        31     1.547     0.897  78.27   0
        53    789.5180    948.3993 307.5790743  +6.3281751     809.8342     1076.896     595.3422     80.03643      160.717     322.0442      1.225     4.49     917.7621     56.82204     138.1824         9     1.193     0.496 -86.84   0
        54    889.8695    943.9588 307.5375525  +6.3333521     2823.836     4326.682     4417.757      80.6793     161.2305     322.4289      1.587     3.92     914.2578     56.82204     331.7067        25     1.526     0.933  72.71   0
        55     12.0280    945.9605 307.9019880  +6.3031586     1042.705     1778.562     1786.554     80.42277      160.974     322.2366      1.689     4.68     929.5068     56.82204     206.1578        11     1.339     0.556  73.05   0
        56    441.6926    945.9417 307.7235864  +6.3175720     425.1643     641.2583     316.6023      80.6793     161.1664      322.493      1.399     4.25     925.8019     56.82204     83.76947         5     1.031     0.500  52.25   0
        57     24.9410    944.4307 307.8966782  +6.3042237      1122.96     1606.786     1870.048     80.55113     161.2305     322.3328      1.515     5.13     929.4588     56.82204     164.1255        12     1.060     0.828  71.62   0
        58    335.1145    940.7651 307.7680145  +6.3161407     16914.14     25593.04     27349.86     80.80726     161.1023     322.3648      1.600     3.83      928.999     56.82204     2621.221        43     1.597     1.012  79.24   0
        59     69.8448    941.9113 307.8781192  +6.3067716     1270.623     1926.069     2099.493     80.80726     161.1023     322.3969      1.683     5.13     929.4393     56.82204     185.7235        13     1.351     0.828  67.13   0
        60    342.9071    940.7611 307.7647790  +6.3164033      568.562     888.2581      1328.54     80.93502     161.1664     322.4289      1.768     3.72     928.9265     56.82204     97.23639         5     0.834     0.477  54.59   0
        61    205.7887    940.2217 307.8217312  +6.3120307      1288.32     1901.919     1689.041     80.42277      160.974     322.2687      1.513     4.73     929.5183     56.82204     189.5308        15     1.226     1.011  82.34   0
        62    385.3523    939.5328 307.7471961  +6.3183314     686.1256     882.2786     904.8916     80.80727     161.1664     322.3969      1.704     4.24     927.5609     56.82204     103.7602         7     0.996     0.727  78.22   0
        63    412.5820    931.7471 307.7361517  +6.3224560     1080.254     1520.036     1680.164      80.2942     161.2946     322.1404      1.531     4.50     926.4437     56.82204     160.7735         9     1.225     0.469  82.28   0
        64     98.5017    931.3224 307.8665783  +6.3121036     1708.569     2697.302     2675.507     80.42277     161.4866     322.3969      1.668     3.71     929.4285     56.82204     274.3484        16     1.268     0.836  77.78   0
        65    666.2009    927.8820 307.6309695  +6.3325284     895.6015     1394.765     1741.182     80.03642     160.7813     322.0762      1.844     3.80       919.73     56.82204     150.3381        10     1.049     0.715  75.18   0
        66    880.1624    925.8015 307.5421918  +6.3405224     1930.628     2961.893     3017.564     79.90723     161.0381     322.1404      1.651     4.47     913.7632     56.82204     349.6102        19     1.497     0.807  88.28   0
        67    850.9630    925.2158 307.5543366  +6.3397912     1973.351     3063.152     3445.302     80.42277     161.0381     322.1083      1.655     4.83     914.9536     56.82204      249.437        17     1.370     0.833  85.84   0
        68    814.2142    924.5657 307.5696185  +6.3388347     2935.799     4460.014     4813.251     80.42277      160.974     322.2366      1.638     4.25     916.7144     56.82204      446.137        23     1.467     0.920  69.12   0
        69     81.7425    924.8943 307.8737539  +6.3141938     2487.911     3994.001     4404.057      80.6793     161.2305     322.5251      1.673     3.91     929.3555     56.82204      337.875        21     1.388     0.946  75.23   0
        70    550.1932    916.0426 307.6795388  +6.3335396     343097.5     517474.8     540359.5      80.2942      160.974     322.0762      1.592     4.78     922.8079     56.82204     52913.51       161     1.730     1.156  77.01   4
        71    444.5517    922.3743 307.7231923  +6.3273939     556.3541     706.9053      703.826     80.42277     161.2946     322.2687      1.267     4.13     925.6393     56.82204     96.39648         7     1.045     0.466  79.23   0
        72    329.6539    922.4916 307.7708975  +6.3234991     653.6921     859.5906     921.8073      80.6793     161.1023      322.493      1.551     3.94     929.0528     56.82204     93.54803         6     0.934     0.475  87.83   0
        73    394.4876    918.6317 307.7441066  +6.3272630     8113.664     12064.85     12220.51     80.93502     161.0381     322.3007      1.602     3.85      927.111     56.82204      1305.51        30     1.533     0.898  75.55   0
        74    637.9704    919.1884 307.6429841  +6.3351737     1119.222       1846.5      1726.34      80.2942     161.0381     322.2366      1.636     3.55     920.4199     56.82204     200.2402        11     1.163     0.652  77.17   0
        75    337.6409    916.9789 307.7677668  +6.3260417     12931.15     19785.13     20731.22     80.42277     161.0381     322.1725      1.597     3.94     928.9931     56.82204     1875.854        40     1.607     0.983  75.72   0
        76    888.5367    912.3061 307.5391665  +6.3463710     5281.803      8009.78     8186.061     80.80726     161.2946     322.4289      1.624     3.99     912.9346     56.82204     700.2455        26     1.539     0.866  75.55   0
        77    656.0577    913.2559 307.6356726  +6.3382260     3604.486     5601.413     5492.382     80.93502     161.2946     322.4289      1.667     4.03     919.7147     56.82204      588.668        25     1.581     0.890  83.60   0
