#   1 NUMBER                 Running object number                                     
#   2 X_IMAGE                Object position along x                                    [pixel]
#   3 Y_IMAGE                Object position along y                                    [pixel]
#   4 ALPHA_J2000            Right ascension of barycenter (J2000)                      [deg]
#   5 DELTA_J2000            Declination of barycenter (J2000)                          [deg]
#   6 FLUX_APER              Flux vector within fixed circular aperture(s)              [count]
#   9 FLUXERR_APER           RMS error vector for aperture flux(es)                     [count]
#  12 FLUX_RADIUS            Fraction-of-light radii                                    [pixel]
#  13 FWHM_IMAGE             FWHM assuming a gaussian core                              [pixel]
#  14 BACKGROUND             Background at centroid position                            [count]
#  15 THRESHOLD              Detection threshold above background                       [count]
#  16 FLUX_MAX               Peak flux above background                                 [count]
#  17 ISOAREA_IMAGE          Isophotal area above Analysis threshold                    [pixel**2]
#  18 A_IMAGE                Profile RMS along major axis                               [pixel]
#  19 B_IMAGE                Profile RMS along minor axis                               [pixel]
#  20 THETA_IMAGE            Position angle (CCW/x)                                     [deg]
#  21 FLAGS                  Extraction flags                                          
         1    993.0069     17.8742 307.5284941  +6.6976544     2077.947     3359.662     3861.494     77.42989     154.7979     310.2448      1.832     3.68     811.3466     54.70745     326.2349        22     1.347     1.078  79.70   0
         2    712.5922     14.3261 307.6451315  +6.6897525     7939.283     11186.43     11202.44     77.42989     154.7979     310.2448      1.495     3.08     815.9013     54.70745     1389.037        31     1.375     0.966  52.20   0
         3    632.7377     13.4596 307.6783412  +6.6874378     4025.062     5805.944     5884.681     77.80007     155.1687     310.3991      1.539     3.38     816.4904     54.70745     661.4429        26     1.374     0.915  57.08   0
         4    334.9156     12.4944 307.8021198  +6.6778498     957.0463     1537.159     2156.655     77.67687     155.6001     310.4916      1.602     3.88     822.9474     54.70745     173.3601        11     1.117     0.809  38.50   2
         5    432.9332      9.7627 307.7614857  +6.6822676     6663.166     9748.951     9833.521     77.67687     155.1687     310.4608      1.533     3.17     818.6752     54.70745     1014.437        31     1.429     0.994  47.03   0
         6     33.9258      9.3257 307.9272831  +6.6690339     9017.351     13137.38     13927.25     78.04588      155.477     310.4608      1.532     3.20     824.1412     54.70745     1322.329        34     1.394     1.034  50.70  16
         7    679.6181      8.3752 307.6590325  +6.6911059     989.8488     1177.651     1040.481     77.55347     155.1069     310.0904      1.207     2.86     815.6934     54.70745      173.194         9     0.973     0.598 -89.57   0
         8    508.3827      6.7792 307.7302365  +6.6860295     1000.006     1456.262     1229.751     77.55347     155.0452     301.1594      1.404     4.14     817.7512     54.70745     183.2019         9     1.153     0.544  58.67  16
         9    329.5368      4.7083 307.8046170  +6.6808833     13721.57     20101.33     21797.59     77.80007     155.4154     280.8192      1.583     3.15     822.8937     54.70745     2249.047        41     1.455     1.089  57.06  24
        10    424.8905      5.4671 307.7649720  +6.6837710     955.2523     1643.313     2043.105     77.92307     155.3537      289.286      1.939     5.37     818.7926     54.70745     154.8962        15     1.428     0.852  23.01  16
        11    102.9555      4.8898 307.8987527  +6.6731896     2769.435     4084.823     4431.087     77.80007     155.1069     283.0274      1.517     3.61     823.7874     54.70745     465.9916        21     1.320     0.879  48.18  16
        12     94.3028      3.7570 307.9023860  +6.6733659     1547.316     2268.549     2577.504     77.80007     151.4201     269.2229      1.558     4.15     823.8497     54.70745     258.4213        17     1.450     0.741  57.40  24
        13    798.0275      3.2468 307.6100031  +6.6971829     895.4914      1125.85     963.4619     77.42989     147.3165     262.2308      1.396     3.97     815.6096     54.70745     138.1055         9     1.068     0.585  62.93  16
        14    395.6740      2.7155 307.7772041  +6.6839264     2254.242     3403.833     3330.653     77.92307     142.0204     254.8592      1.555     3.81      820.182     54.70745     379.7953        20     1.307     0.881  56.69  24
        15    464.0071      2.6114 307.7488150  +6.6862620     539.8049     809.9694     531.8405     77.42989     140.4608     253.2003      1.575     4.60     818.2029     54.70745     91.07526         5     1.049     0.573  74.58  24
        16    657.4550      1.1044 307.6684857  +6.6933656     741.4395      1041.31     1020.878     64.47128     119.7781     229.9275      1.077     2.62     815.8088     54.70745     221.4801         5     0.922     0.299   4.30  24
        17    815.0932   1004.3392 307.5693743  +6.2844764     1095.349     1627.903      2063.26     77.67687     155.2304     310.4299      1.702     5.22     845.9108     54.70745     161.2991        10     1.179     0.654  35.95   0
        18    960.8254   1020.1695 307.5083380  +6.2828043     5888.432     10346.73     10697.18      77.3061     155.0452     282.1462      1.853     4.29     845.0379     54.70745     649.4237        39     1.592     1.226  49.89  24
        19    270.8370   1002.0630 307.7954137  +6.2671924     1015.439     1703.581     2203.801     77.80007     155.2921     310.3682      1.665     4.25      849.334     54.70745     149.2001        10     1.145     0.719  66.83   0
        20    915.3244    998.7322 307.5279465  +6.2901366     8070.972     13601.71     14527.95     77.92307     155.3537     310.3682      1.813     3.93     845.2919     54.70745       951.98        42     1.560     1.248  48.24   0
        21    888.9158    994.9623 307.5390373  +6.2908118     11491.49     19816.88     21281.23     77.80007     155.1687     310.3065      1.852     4.01     845.3236     54.70745     1416.635        52     1.623     1.375  43.17   0
        22     45.3308    997.5342 307.8891862  +6.2614829     462.8567     501.2071     107.2991     77.80007     155.2921     310.3682      1.127     4.16     846.6833     54.70745      85.0802         5     0.985     0.502  42.30   0
        23   1010.6340    994.3558 307.4885202  +6.2951215     4343.883     7709.507     8215.256     77.42989     155.2304     310.2448      1.876     4.41     842.7238     54.70745     511.8959        37     1.550     1.277  50.26   0
        24    601.7316    995.3178 307.6582617  +6.2810681      1337.52     2098.024     1816.942     78.04588      155.477     310.3991      1.704     4.01     850.7999     54.70745     209.1434        19     1.376     0.970  49.28   0
        25    642.4902    993.2757 307.6414078  +6.2832748     1554.833      2228.89     1651.438     77.80007      155.477     310.3991      1.538     4.00     849.8051     54.70745     191.2764        17     1.260     0.878  51.99   0
        26    533.3926    993.8094 307.6866855  +6.2794031     4113.608     6593.274     7097.075      77.3061     155.0452     310.2448      1.763     3.76      850.676     54.70745     624.9504        33     1.671     1.113  23.45   0
        27     67.7034    992.5685 307.8800657  +6.2642854      874.184     1613.294     1332.678     77.92307     155.0452     310.4608      1.956     6.14     846.4581     54.70745     103.0076        11     1.151     1.004 -17.50   0
        28    486.0544    990.1404 307.7064625  +6.2793321     2374.849     3321.616     3307.995     77.92307     155.1687     310.3374      1.431     2.93     850.2536     54.70745     375.9713        19     1.177     0.854  52.51   0
        29    920.6825    982.4601 307.5262659  +6.2970330     41571.94     67663.75     72078.04     77.92307     155.2921     310.3991      1.789     3.84     844.8684     54.70745      5066.21        75     1.703     1.307  50.48   0
        30    325.0464    983.0324 307.7735480  +6.2768680      494.463     624.9117     317.6994     77.55347     155.2304     310.2756      0.950     2.22     849.7546     54.70745     112.8167         5     0.608     0.577  -2.30   0
        31    227.9560    980.7330 307.8139343  +6.2745578     1699.702     2814.018     2891.561     77.80007     155.1687     310.3991      1.740     4.08     847.8936     54.70745     241.9934        20     1.391     0.982  50.28   0
        32    626.7598    978.3823 307.6484384  +6.2888969     987.7444      1588.57     922.8752     77.42989     155.0452     310.1521      1.485     3.60     849.6844     54.70745     155.3477         8     0.937     0.579  85.95   0
        33    818.5046    976.1884 307.5689002  +6.2962118     2486.891     3837.737     4441.281     77.42989     154.9216     310.1213      1.663     3.53     845.4898     54.70745     363.9533        22     1.297     0.995  53.57   0
        34    766.8403    974.1694 307.5904188  +6.2953195     6616.118     10718.13      11928.7      77.3061     154.9834     310.2139      1.718     3.58     846.7654     54.70745     853.4312        40     1.517     1.245  67.33   0
        35    553.4674    973.2377 307.6790412  +6.2885677       914.49     1418.511     1366.051     77.67687     155.2304     310.4608      1.585     5.18     849.9663     54.70745     131.5204        12     1.138     0.853   9.59   0
        36    236.2723    973.0219 307.8107413  +6.2780204     1419.675     2089.846     2176.638     77.42989     155.0452     310.3374      1.553     3.47     847.8694     54.70745     226.9829        13     1.137     0.748  58.11   0
        37    200.3529    972.9855 307.8256551  +6.2768288     903.5265     1295.979     1285.356     77.18211     155.0452     310.1213      1.598     4.27     847.3589     54.70745     147.7771        11     0.972     0.878 -62.81   0
        38    954.9984    969.2336 307.5124600  +6.3036379     6078.006     10338.84     10379.73     77.05792     155.0452     310.1213      1.799     3.98     843.5701     54.70745     763.4235        40     1.589     1.224  53.09   0
        39     61.0810    971.1606 307.8835370  +6.2729000     2790.636     4309.047     4489.235     77.80007     155.2921     310.3065      1.635     3.48     845.5808     54.70745     415.1516        24     1.366     1.005  52.10   0
        40    637.3398    963.5251 307.6445438  +6.2953843     724.4641     963.7463      789.621     78.04588     155.2304     310.3374      1.465     5.86      848.962     54.70745     86.93439        10     1.151     0.839  66.90   0
        41    928.6302    960.7090 307.5236933  +6.3062777     2098.295     3244.689     3535.839     77.92307     154.9834     310.3374      1.691     4.02     844.3219     54.70745     269.5896        19     1.277     0.940  48.41   0
        42    788.2408    957.3086 307.5820979  +6.3029951     1404.714     1981.383     1700.655     77.80007     155.1687     310.4299      1.494     4.00      845.821     54.70745     176.4929        15     1.199     0.841  47.90   0
        43    649.5150    956.8265 307.6397134  +6.2985569      4842.52     7360.939     7262.096     77.92307     154.9834     310.2448      1.623     3.49     848.4554     54.70745      710.497        31     1.435     1.092  54.41   0
        44    261.6870    956.9761 307.8007300  +6.2854977     4440.685     6740.892     7005.501     77.80007     155.0452     310.2448      1.604     3.31     848.0906     54.70745     655.3945        27     1.341     1.012  50.13   0
        45    999.2980    956.2003 307.4945019  +6.3104955     688.7755     1217.897     1302.813      77.3061     154.8598     309.9977      1.942     4.85     841.4034     54.70745     144.5716         9     1.430     0.768  36.24   0
        46    471.4955    955.0574 307.7136855  +6.2933273     1061.792     1647.724     1627.409     77.67687     155.2304     310.5225      1.602     4.96     849.4462     54.70745     147.7471        12     1.348     0.735  57.28   0
        47     30.3208    954.3159 307.8968756  +6.2788186     2276.856     3633.143     3765.868     77.80007     155.5386     310.4608      1.721     3.78     844.5135     54.70745     325.9427        23     1.407     0.984  44.86   0
        48    881.0427    953.3392 307.5436986  +6.3077324     816.2297     1241.979     842.6202     77.80007     155.2304     310.4916      1.655     5.28     844.4969     54.70745     95.17596        11     1.078     0.729  74.82   0
        49    973.8282    952.2862 307.5052081  +6.3112622     471.4703     909.7124     305.5506     77.92307     154.9216     310.2139      1.749     3.61      842.256     54.70745      90.7832         5     1.006     0.373  86.76   0
        50   1005.1906    949.2301 307.4922881  +6.3135695     633.2834       1369.6     1237.785      77.3061     155.0452      310.183      2.244     5.75     840.8438     54.70745     116.1729         9     1.299     0.837  69.74   0
        51    297.5529    950.2880 307.7860643  +6.2894627     823.5038     863.3273     895.7419     77.80007     155.1069     310.4299      1.326     3.73     848.7194     54.70745     122.7032         9     0.986     0.663  59.71   0
        52    952.6287    949.9975 307.5140870  +6.3115001     752.8125     1169.736     1664.217      77.3061     154.9834      310.183      1.627     3.09     843.0583     54.70745     108.9165         7     0.724     0.674 -86.66   0
        53    574.1791    949.2104 307.6712482  +6.2991801     1714.309     2372.867     2043.472     77.42989     154.9216     310.2139      1.490     3.95     849.0339     54.70745     278.7188        15     1.250     0.785  49.45   0
        54    613.2214    945.6479 307.6551573  +6.3019575     1309.119     1959.093     1711.214     77.42989     155.2304     310.2448      1.509     3.92     848.7984     54.70745     196.5201        12     1.127     0.747  77.99   0
        55     62.7829    946.0005 307.8836790  +6.2833435     709.0425     1093.563     1518.541     77.42989     154.7979     310.0595      1.792     4.18     844.6141     54.70745     96.61084         8     0.828     0.767 -80.26   0
        56    293.3384    943.6002 307.7880391  +6.2920821     1764.199     2534.946     2145.302     77.05792     154.9834     310.0286      1.606     3.77     848.5209     54.70745     280.3447        19     1.216     1.038  61.48   0
        57    760.4882    939.5847 307.5942146  +6.3093848     933.6228     1493.508     1530.142     77.55347     154.9834     310.2756      1.677     3.50     846.3492     54.70745     161.4211         9     0.954     0.775  39.82   0
        58    897.7701    936.0845 307.5373304  +6.3154138     6907.227     10943.07     10703.71     77.80007     155.0452     310.2448      1.667     3.62     843.9975     54.70745     851.8423        38     1.514     1.159  52.05   0
        59    433.6364    933.1829 307.7301392  +6.3010887     2087.386     3097.499     3204.006      77.3061     155.0452     310.1521      1.631     3.11      849.112     54.70745     337.4341        19     1.283     0.881  58.69   0
        60    335.3216    931.5646 307.7710132  +6.2984595     10122.39     14814.97     15466.21     77.67687     155.2921     310.3682      1.603     3.20     848.8951     54.70745     1604.488        40     1.469     1.103  50.56   0
        61    106.6140    934.2052 307.8658794  +6.2896870     421.9912      621.515     500.1997     77.42989     154.9834     310.2448      1.690     3.10     845.0042     54.70745     88.88153         5     0.729     0.454 -72.10   0
        62    255.4447    930.5697 307.8042105  +6.2961890     7451.563     10970.21     11676.78     77.42989     155.2304     310.2139      1.630     3.23      847.298     54.70745      1236.14        34     1.431     1.083  45.21   0
        63    173.8468    928.7571 307.8381496  +6.2941962     538.4686     652.0727     317.3361     77.80007     155.2304     310.3065      1.374     5.32     846.1449     54.70745     81.36902         7     1.018     0.785 -68.99   0
        64    583.2164    924.9745 307.6683092  +6.3094878     1195.904     1609.411     1667.368     77.55347     155.1069     310.3065      1.413     3.71     848.1825     54.70745     177.8757        11     1.003     0.772  36.13   0
        65    767.3678    924.7856 307.5918538  +6.3157242     811.2296     1273.245     1969.385     77.42989     154.9834     310.2756      1.687     5.17     845.8701     54.70745     107.1272        10     1.022     0.739   9.39   0
        66    913.2941    921.2223 307.5313816  +6.3220674     1186.024     1800.698     1666.933     77.80007     155.0452     310.2139      1.530     5.69     843.5577     54.70745     173.4014        13     1.248     0.783  74.95   0
        67    869.3570    919.8909 307.5496698  +6.3211508     843.2081     1568.995     1644.722     77.80007     155.2304     310.4608      1.792     6.37      844.049     54.70745      109.364        13     1.340     1.040  67.84   0
        68    145.6252    920.6550 307.8501396  +6.2965922     609.0254     940.8319     1160.995     77.42989     155.2304      310.183      1.864     3.83     845.5545     54.70745      90.9389         5     0.966     0.436  75.94   0
        69    216.7969    920.4826 307.8205962  +6.2990551     550.9512     796.9654      1041.02     77.18211     154.8598     310.0595      1.310     2.29      846.389     54.70745     119.5896         5     0.710     0.462  20.55   0
        70    980.2789    916.5456 307.5037242  +6.3262322     812.4144      1129.75       1793.6     77.92307     155.2304     310.3991      1.897     3.90     840.9572     54.70745     107.5521         8     1.074     0.544 -71.58   0
        71    776.9555    916.8178 307.5881397  +6.3193338     446.2376     623.2607     741.7529     77.42989     155.1069     310.1213      1.410     4.29     845.4517     54.70745     115.4866         6     1.443     0.363  32.96   0
        72    749.5447    914.2601 307.5996068  +6.3194739     1812.564     2396.445     2488.557     77.92307     155.2304     310.3682      1.499     3.33     846.0256     54.70745     249.2577        16     1.070     0.966  25.27   0
        73    573.3337    914.7982 307.6727540  +6.3133580     749.9034     899.2379     1085.862     77.18211     154.8598     310.1521      1.191     2.65      848.026     54.70745     133.5581         5     0.840     0.468 -85.40   0
        74    842.3276    914.2358 307.5610823  +6.3225831     611.2086     851.7462     903.2964     77.67687     155.2304     310.3682      1.483     3.45     844.3331     54.70745     107.1603         5     0.779     0.441  75.46   0
        75    825.5537    911.9592 307.5681234  +6.3229628     501.2923     997.8402     1485.049     77.67687     155.2304     310.2139      2.115     4.16     844.4981     54.70745     81.89746         5     1.524     0.324  62.37   0
        76    613.7706    910.4423 307.6561103  +6.3165096     804.0435     1097.606     708.6818     77.42989     155.1687     310.2448      1.510     4.94     847.8299     54.70745     115.2104         9     1.174     0.588  83.93   0
        77      1.0000    911.0037 307.9105101  +6.2957112     419.5454      629.765      589.915     62.35689     117.6808     227.7933      1.243     3.58     842.4926     54.70745     116.9158         5     1.277     0.289  90.00  24
