#   1 NUMBER                 Running object number                                     
#   2 X_IMAGE                Object position along x                                    [pixel]
#   3 Y_IMAGE                Object position along y                                    [pixel]
#   4 ALPHA_J2000            Right ascension of barycenter (J2000)                      [deg]
#   5 DELTA_J2000            Declination of barycenter (J2000)                          [deg]
#   6 FLUX_APER              Flux vector within fixed circular aperture(s)              [count]
#   9 FLUXERR_APER           RMS error vector for aperture flux(es)                     [count]
#  12 FLUX_RADIUS            Fraction-of-light radii                                    [pixel]
#  13 FWHM_IMAGE             FWHM assuming a gaussian core                              [pixel]
#  14 BACKGROUND             Background at centroid position                            [count]
#  15 THRESHOLD              Detection threshold above background                       [count]
#  16 FLUX_MAX               Peak flux above background                                 [count]
#  17 ISOAREA_IMAGE          Isophotal area above Analysis threshold                    [pixel**2]
#  18 A_IMAGE                Profile RMS along major axis                               [pixel]
#  19 B_IMAGE                Profile RMS along minor axis                               [pixel]
#  20 THETA_IMAGE            Position angle (CCW/x)                                     [deg]
#  21 FLAGS                  Extraction flags                                          
         1      6.1027     89.0043 307.9358911  +6.6321848     725161.6      1611274      1776972     78.04105     155.8956     296.9429      2.239    12.23     842.9666     55.05138     62191.58       407     2.358     1.764 -54.02  28
         2    182.9733     16.0170 307.8648714  +6.6682692     9998.886     16563.12     17436.43     77.91668     155.9578     312.2263      1.729     4.47     836.9421     55.05138     1344.973        39     1.720     0.982 -45.18   0
         3    928.4627     13.8106 307.5551758  +6.6941741     3952.105     6411.585     6984.833     77.79211     156.0199     312.1331      1.759     4.65     825.1613     55.05138     530.3317        27     1.618     0.878 -39.76   0
         4    527.1473     14.1215 307.7219263  +6.6806148     2684.114     4355.749     4569.384     78.28918     156.2063     312.3195      1.692     4.76     827.0599     55.05138     377.5822        21     1.548     0.820 -40.73   0
         5    729.4549     12.4255 307.6379183  +6.6880927     1878.922     3012.813      3383.25     77.91668     156.2063     312.1642      1.713     4.60     825.4633     55.05138     291.4469        19     1.635     0.726 -49.07   0
         6    465.2900     12.7028 307.7476773  +6.6791253     1793.632     2679.065     2411.422     78.28919     156.6403     312.3195      1.629     4.48     828.0278     55.05138     268.6485        17     1.466     0.771 -51.39   0
         7    993.2534     10.2330 307.5283722  +6.6978140     1839.521     2981.295     3017.272     78.16521     156.1442     312.2574      1.737     4.82     820.7016     55.05138     243.2656        19     1.560     0.824 -40.09  16
         8    712.7858      6.5957 307.6450407  +6.6899412     7025.543      11006.7     11462.41     77.91668     155.9578     301.5128      1.656     4.45     825.3545     55.05138     1051.548        32     1.617     0.901 -40.49  16
         9    632.9171      5.6708 307.6782601  +6.6876484     3602.793     5979.731     6213.604     78.53654     156.4545      293.196      1.761     4.66     826.4509     55.05138     482.3877        24     1.638     0.806 -47.06  16
        10    334.6984      5.5488 307.8021816  +6.6776928     1075.888     1480.132     1344.485     78.16521     156.2063     291.9032      1.526     3.85     836.7402     55.05138     148.0725        12     1.055     0.788 -38.71  16
        11    433.0114      2.2807 307.7614408  +6.6823438     5909.774     8473.892     8937.462     77.04047     137.3772      249.795      1.543     4.74     828.6254     55.05138     786.7561        24     1.452     0.855 -36.36  24
        12    388.9564      3.6913 307.7796991  +6.6802823     743.1357     1281.217     1116.569     78.28918     151.9897     270.0909      1.774     5.76     832.0873     55.05138     106.5044        10     1.489     0.628 -43.27  16
        13     33.8012      2.0734 307.9273234  +6.6690001     7452.608     10332.52     10954.63     75.38624     134.3795     246.4729      1.457     4.32     838.3264     55.05138     1051.758        24     1.360     0.875 -26.02  24
        14    679.0727      1.6287 307.6592167  +6.6908628     710.2606     938.4471     796.6989     71.69373     128.7026     239.9331      1.224     2.73     825.3389     55.05138       156.99         6     0.795     0.600 -35.68  24
        15    424.0911    997.3000 307.7316485  +6.2713183     879.6708     1502.203     1519.865     78.28918     156.5784     312.2884      1.845     5.90     860.0892     55.05138     123.0867        12     1.494     0.655 -27.73   0
        16    721.4773   1022.5688 307.6073260  +6.2708484     6602.988     9821.944     10492.81     78.16521      139.479     252.3444      1.655     4.91     859.5715     55.05138     824.6641        26     1.515     0.918 -31.71  24
        17    713.6789   1022.1703 307.6105772  +6.2707521     1098.331     1859.962     2245.806     78.16521     143.9949     258.2327      1.951     6.54     859.7134     55.05138     131.5895        16     1.556     0.770 -45.61  24
        18    589.2844   1023.5804 307.6621780  +6.2660067     8889.762     11968.06     13407.04     68.93524     125.3432     236.5135      1.274     3.15     860.5215     55.05138     2449.089        33     1.701     0.771   0.73  24
        19    577.4659   1021.9268 307.6671406  +6.2662935     3967.325     6438.289     7126.135     78.41296     146.4657     261.5538      1.783     4.36     860.4857     55.05138      454.054        27     1.524     0.988 -43.47  24
        20    436.3770   1022.6656 307.7256943  +6.2612598         3583     5328.969     6491.968     77.29183     137.9408     250.6864      1.630     5.39      860.127     55.05138     431.3075        23     1.500     0.890 -29.62  24
        21    219.2253   1023.8066 307.8158124  +6.2534982     483.7676      496.944     461.8787      65.7674     121.8117     232.5854      0.833     2.52     859.5908     55.05138     164.5331         5     0.878     0.391   4.05  24
        22    271.5302    994.2464 307.7950928  +6.2674576     990.7226     1640.651     1449.535     78.28919     156.1442     312.3195      1.704     5.71     860.8131     55.05138     132.9847        12     1.338     0.687 -50.59   0
        23    915.5255    991.0134 307.5278126  +6.2903583     7584.021     13682.16     15114.68     77.79211     155.9578     312.1331      1.939     4.52      855.417     55.05138     856.3906        47     1.773     1.223 -43.88   0
        24    546.8411    990.3512 307.6809166  +6.2783017     8053.871     12789.81     14156.89     78.28918     156.1442     312.2574      1.703     4.37     860.1464     55.05138     1048.436        38     1.659     0.992 -40.34   0
        25   1010.6446    986.7711 307.4884591  +6.2952833     3915.947     7392.876     7802.689     77.91668     156.2684     312.2263      1.979     4.70       852.88     55.05138     445.8543        37     1.696     1.237 -44.03   0
        26    889.0215    987.1985 307.5389453  +6.2910482     10872.77     19509.99     20988.11     77.91668     155.8956     312.0399      1.905     4.53     855.8302     55.05138     1238.954        52     1.795     1.223 -41.42   0
        27    602.0468    987.6399 307.6580861  +6.2812700     1299.037     2330.792     2784.956     78.16521     156.2063     312.1331      2.118     6.21     860.1166     55.05138     150.9548        18     1.522     0.895 -51.18   0
        28    533.2786    986.2011 307.6866872  +6.2795604     3963.251     6890.347       7816.3     77.54237     155.6465      312.102      1.918     4.79     860.1021     55.05138     517.5846        36     1.689     1.294 -18.85   0
        29    642.9651    985.5687 307.6411660  +6.2834949     1446.328     2270.307     2311.751     77.91667     155.9578      312.071      1.743     5.28      859.898     55.05138     174.7087        15     1.331     0.750 -39.31   0
        30    486.2382    982.8003 307.7063328  +6.2793876     2086.894     3378.454      3363.13     77.29183     156.0199     312.1331      1.676     4.59     860.0697     55.05138     297.6172        17     1.467     0.747 -50.59   0
        31     67.6485    984.8482 307.8800569  +6.2644811     877.8744     1247.631     1176.576     78.28918     156.0821     312.3195      1.690     5.67     857.4901     55.05138     107.3972        11     1.228     0.738 -31.82   0
        32    920.8605    974.7689 307.5261412  +6.2972420     37792.39      67443.3     73071.04     78.04105     156.2684     312.2884      1.927     4.49     854.8983     55.05138       4357.9        82     1.848     1.334 -42.49   0
        33    326.5179    975.6050 307.7728903  +6.2769991     579.6924     911.9922      790.732     77.79211     155.8333      312.102      1.987     4.86        860.9     55.05138     80.29578         7     1.144     0.585 -41.96   0
        34    227.9109    973.2476 307.8139105  +6.2746598     1545.834     2741.595     2881.531     78.28918     156.0821     312.4747      1.992     5.05     859.1137     55.05138     199.3108        20     1.527     0.871 -41.10   0
        35    115.9666    972.2350 307.8604221  +6.2713135     797.5144     1192.569     923.2346     77.91667     155.9578      312.071      1.468     4.30     858.0988     55.05138     118.1262         8     1.080     0.489 -52.12   0
        36    626.6131    971.4075 307.6484310  +6.2887931     896.3164     1408.672      1171.32     77.91668     156.0199     312.2263      1.653     5.03       859.75     55.05138     132.6932        12     1.248     0.689 -53.55   0
        37    818.7529    968.5690 307.5687463  +6.2963911     2093.994     3620.834     3323.712     77.91668     156.2063     312.2263      1.854     4.61     856.6959     55.05138     263.6016        24     1.502     1.011 -51.37   0
        38    767.0051    966.3663 307.5903070  +6.2955708     6140.095     10299.98      11099.4     77.54237     156.0199      312.102      1.790     4.42      857.572     55.05138     806.3239        38     1.707     1.032 -41.97   0
        39    236.3771    965.4594 307.8106579  +6.2781592     1513.458     2399.575     2598.036     77.91668     156.1442     312.1952      1.632     5.11     859.2065     55.05138     189.0216        17     1.565     0.780 -43.11   0
        40    553.3932    965.8442 307.6790196  +6.2886374     885.5795     1478.583      1699.71     77.79211     155.9578     312.0088      1.699     5.16     859.9109     55.05138     118.3394         9     1.258     0.599 -49.74   0
        41    200.8752    965.0073 307.8254132  +6.2771525     821.8436     1397.845     1601.992     77.91668     155.7088     312.1952      1.705     5.37     858.6909     55.05138     115.2388        11     1.358     0.600 -34.88   0
        42     61.3378    963.4605 307.8833990  +6.2730970     2575.625     4097.682     4052.379     78.28919     156.2063     312.3505      1.694     4.24     857.0226     55.05138     349.2501        24     1.651     0.806 -44.02   0
        43    955.1846    961.6047 307.5123295  +6.3038218     5798.896     10453.53     10941.05     77.91668     155.8956     312.1642      1.904     4.65     853.8042     55.05138     633.8781        44     1.824     1.177 -42.85   0
        44    638.0976    955.3055 307.6442030  +6.2958243     598.9885     989.6207     681.4211     78.28918     156.7641     312.1642      1.693     5.38     859.3571     55.05138     91.54987         6     1.227     0.667 -40.53   0
        45    929.0373    952.9680 307.5234757  +6.3065144     1679.313     3118.162     3310.427     77.91668     155.9578      312.102      1.922     5.32     854.1187     55.05138     209.4042        21     1.512     0.943 -40.06   0
        46    788.4010    949.4361 307.5819905  +6.3032748     1304.293     1977.739     2005.318     77.41721     156.0199     312.1331      1.593     4.92     857.0769     55.05138     169.2457        17     1.466     0.827 -45.79   0
        47    649.6956    949.0598 307.6395970  +6.2987907     4424.031     6984.747     7295.917     78.16521     156.2063     312.4126      1.683     4.17     859.0806     55.05138       577.67        29     1.621     0.913 -47.74   0
        48    261.7267    949.2574 307.8006789  +6.2856988     4295.623     6816.914     6774.117     78.28919     156.2063     312.2884      1.697     4.52     859.4308     55.05138     581.8793        26     1.578     0.894 -38.91   0
        49    471.8592    947.4980 307.7134900  +6.2934778     1073.482     1640.507     1499.103     78.04105     156.1442     312.4437      1.697     4.94     860.0165     55.05138     165.0566        14     1.378     0.825 -52.54   0
        50     30.6597    946.6441 307.8967038  +6.2790054     1982.922     3256.783     3299.202     78.16521     156.1442     312.4437      1.707     4.58     856.4698     55.05138     289.8794        19     1.520     0.748 -38.45   0
        51    881.6130    945.4086 307.5434209  +6.3080515      833.699     1241.171     573.6868     77.91668     156.0199     312.2263      1.701     6.12     855.0912     55.05138      112.421        10     1.322     0.796 -33.79   0
        52    574.2158    941.8962 307.6711782  +6.2992204     1638.446     2686.383     3047.918     78.04105     155.9578     312.1331      1.827     5.53     859.6346     55.05138     219.6685        21     1.675     0.872 -45.44   0
        53    972.7974    943.3681 307.5056263  +6.3119375     440.0901     869.0837     688.9179     77.66734     156.0199      312.102      1.614     3.77     853.0489     55.05138     79.17786         5     1.033     0.394  85.29   0
        54    953.3869    942.4080 307.5137184  +6.3116861     619.5486     1280.369     1567.362     77.91668     156.0199     312.1952      1.883     6.85     853.3856     55.05138     117.2001        12     1.694     0.776 -51.21   0
        55   1004.2419    942.8565 307.4925865  +6.3131977     677.9497     896.0856      1903.23     78.16521     156.1442     312.3505      1.583     3.48     852.4911     55.05138     115.0698         5     0.736     0.476 -77.26   2
        56   1006.7216    940.8214 307.4916249  +6.3141205     598.3867     1167.247     1298.917     77.91668     155.9578     312.3195      2.058     3.92     852.4122     55.05138     108.9634         5     0.939     0.469  42.65   2
        57    297.9231    942.8782 307.7858650  +6.2895479     807.0685     1303.267     1600.373     78.53654     156.4545     312.4126      1.696     5.66      859.782     55.05138     106.0251        11     1.483     0.608 -19.63   0
        58    613.7232    937.7133 307.6549144  +6.3022702     1176.206     1787.984     1461.383     78.28919     156.5164     312.3816      1.530     4.77      859.436     55.05138     158.8322        13     1.315     0.687 -41.85   0
        59     63.3050    938.0213 307.8834412  +6.2836638     576.0313     1081.283     1382.945     78.16521     156.0199     312.1642      1.953     5.13     856.7338     55.05138     98.91333         9     1.518     0.491 -44.76   0
        60     57.5487    938.1549 307.8858266  +6.2834149     585.0682     940.3194     1373.643     78.41296     156.1442     312.3505      2.066     3.46     856.6937     55.05138      87.4765         5     0.762     0.453 -70.41   0
        61    293.3771    935.7250 307.7879935  +6.2923480     1376.704     2182.039     2658.876     77.91668     156.0821     312.2574      1.640     5.30     859.5131     55.05138     219.5016        12     1.340     0.691 -37.02   0
        62    761.0096    931.5681 307.5939632  +6.3097349     667.9313      1314.23     1659.419     77.79211     155.9578     312.1642      2.245     6.40     857.2159     55.05138     102.1532         8     1.634     0.704 -49.07   0
        63    897.9084    928.3567 307.5372256  +6.3156346      6510.39     10767.01     11330.99     78.28918     156.2063     312.4126      1.770     4.36     854.2995     55.05138     797.5503        36     1.665     1.032 -42.54   0
        64    433.9262    925.4383 307.7299823  +6.3013117     1986.049       3090.6     3336.814     78.16521     156.2063     312.3816      1.670     5.54     859.9118     55.05138     282.7324        20     1.677     0.763 -35.44   0
        65    335.3961    923.9154 307.7709447  +6.2986338     9386.172     14984.92     15644.81     77.79211     155.8333     312.0088      1.693     4.23     859.7098     55.05138     1359.615        36     1.688     0.923 -42.28   0
        66    255.4233    922.8231 307.8041869  +6.2963985     7046.312     10926.79     11243.76     77.79211     156.0199     312.2574      1.681     4.50     858.8737     55.05138     946.5776        34     1.596     0.976 -45.49   0
        67    583.5514    917.3411 307.6681267  +6.3096692     1167.012     1862.405     2246.234     78.28919     156.2063     312.3816      1.824     6.03     859.2205     55.05138     162.5111        14     1.682     0.608 -33.98   0
        68    913.3639    913.8064 307.5312950  +6.3221570     906.9948     1718.827     2143.386     77.41721     155.9578      312.102      2.146     5.05     853.6514     55.05138     128.2925        10     1.418     0.509 -45.19   0
        69    869.6707    912.3661 307.5494866  +6.3212925     776.7962     1292.098     940.1531     78.16521     156.2063     312.3816      1.686     5.37     854.9277     55.05138     111.5074        11     1.235     0.834  -6.60   0
        70    412.0535    911.6270 307.7395289  +6.3062790     711.9896     983.5862     1357.485     78.04105     156.3304     312.2574      1.662     4.19     859.6628     55.05138     139.9942         7     1.189     0.421 -51.90   0
        71    980.5558    909.8198 307.5035272  +6.3260451     552.4944     926.1477     1413.139     77.79211     156.0821     312.1642      1.478     3.58     851.7766     55.05138     96.79944         5     0.989     0.374  -5.50   0
        72    750.0311    906.5925 307.5993594  +6.3196776     1471.784     2458.488     2831.053     77.79211     156.0199      312.102      1.820     4.47     856.9926     55.05138      239.215        16     1.506     0.732 -35.76   0
        73    573.5219    906.9695 307.6726397  +6.3136146     620.4262     923.1281     680.6686     78.16521     156.2684     312.2884      1.667     4.95     859.0804     55.05138     103.7714         8     1.327     0.523 -54.86   0
        74    614.5155    902.9868 307.6557516  +6.3166315     751.6047     1399.978     1481.487     77.91667     156.0821     312.1642      2.082     5.45     858.6326     55.05138      153.554        11     1.564     0.606 -32.40   0
        75    981.1471    902.2397 307.5035353  +6.3291938      1065.16     1915.923     2408.305     78.16521     156.2063     312.2884      2.031     6.15     851.4052     55.05138     146.1959        14     1.578     0.678 -38.93   0
        76    625.5631    902.9621 307.6511650  +6.3170116      704.462     980.2468     1126.445     78.04105     156.0821     312.1952      1.655     4.07     858.4482     55.05138     131.6212         8     1.166     0.477 -24.38   0
        77    535.0034    902.3442 307.6887892  +6.3142333     1224.574       1570.3     1279.373     77.66734     156.0199     312.0088      1.516     6.14     859.2549     55.05138     177.2017        15     1.504     0.706 -31.85   0
