#   1 NUMBER                 Running object number                                     
#   2 X_IMAGE                Object position along x                                    [pixel]
#   3 Y_IMAGE                Object position along y                                    [pixel]
#   4 ALPHA_J2000            Right ascension of barycenter (J2000)                      [deg]
#   5 DELTA_J2000            Declination of barycenter (J2000)                          [deg]
#   6 FLUX_APER              Flux vector within fixed circular aperture(s)              [count]
#   9 FLUXERR_APER           RMS error vector for aperture flux(es)                     [count]
#  12 FLUX_RADIUS            Fraction-of-light radii                                    [pixel]
#  13 FWHM_IMAGE             FWHM assuming a gaussian core                              [pixel]
#  14 BACKGROUND             Background at centroid position                            [count]
#  15 THRESHOLD              Detection threshold above background                       [count]
#  16 FLUX_MAX               Peak flux above background                                 [count]
#  17 ISOAREA_IMAGE          Isophotal area above Analysis threshold                    [pixel**2]
#  18 A_IMAGE                Profile RMS along major axis                               [pixel]
#  19 B_IMAGE                Profile RMS along minor axis                               [pixel]
#  20 THETA_IMAGE            Position angle (CCW/x)                                     [deg]
#  21 FLAGS                  Extraction flags                                          
         1     25.7159     19.9166 307.9273679  +6.6691435     9316.795     13386.84     13841.51     77.86878     156.1091      311.723      1.528     3.67     834.8996     54.92987     1393.791        34     1.462     0.930 -44.38   0
         2    321.2608     15.1884 307.8047412  +6.6809478     14254.97     20421.54     21321.04      77.4959     155.7376     311.3511      1.504     3.81     837.2803     54.92987     2091.363        36     1.475     0.919 -44.55   0
         3     94.9364     15.4918 307.8987590  +6.6732805     2783.058     4021.947     4065.149     78.11638     156.0472      311.692      1.523     3.91     835.6442     54.92987       384.72        17     1.348     0.738 -48.04   0
         4     86.2538     14.2440 307.9024081  +6.6735059     1622.883      2145.42     2534.387     78.11638     155.8615     311.6301      1.450     3.61     835.4357     54.92987     241.8698        16     1.306     0.747 -48.99   0
         5    789.8450     13.6249 307.6101074  +6.6971518     876.5093     1028.644     1019.297     77.62039     155.9234     311.5061      1.364     4.14     826.6473     54.92987     130.5719        11     1.143     0.648 -50.55   0
         6    387.5161     12.9791 307.7772884  +6.6840644     2718.138     3796.087       3609.2     77.86878     155.5515     311.5371      1.467     4.05     834.7916     54.92987     414.3237        17     1.331     0.735 -49.50   0
         7    648.2293      8.4846 307.6691182  +6.6945800      12048.5     16617.06     17429.87     78.11638     155.6135     311.4751      1.475     3.93     826.6153     54.92987     2085.688        33     1.458     0.848 -45.53  16
         8     66.0619     10.0752 307.9109366  +6.6745531     695.0209     1078.006      1266.36     78.36319     155.8615     311.6301      1.483     4.50     834.7802     54.92987     112.4769         8     1.082     0.531 -52.66   0
         9    982.7354      9.7323 307.5300922  +6.7051412     804.0709     1003.374      1052.63     78.11638     155.8615      311.661      1.349     4.19     823.7091     54.92987      135.712         8     1.097     0.584 -16.29   0
        10    525.7869      8.2505 307.7199985  +6.6906124     1489.382     2075.515      2055.42      77.4959     155.7995     310.8856      1.445     4.62     827.1559     54.92987     248.5446        12     1.226     0.624 -47.28  16
        11    812.8004      7.6573 307.6007684  +6.7003758     1605.723     2402.607     2051.333     77.37122     155.4894     308.2031      1.457     3.72     826.5218     54.92987     251.1394        14     1.127     0.781 -46.02  16
        12    883.3359      5.8363 307.5715220  +6.7034624     1524.634     2319.847     2062.514     77.99268     155.8615     294.1288      1.575     4.00     825.8516     54.92987     234.3518        18     1.407     0.881 -50.49  16
        13    248.6841      5.4076 307.8352217  +6.6825691     7036.126     10484.13     11435.11     77.74469     155.5515     289.8299      1.667     4.30     836.4271     54.92987     1177.801        36     1.865     0.880 -33.74  16
        14    409.7538      4.0212 307.7683488  +6.6885022     8978.693     12830.66     13401.72     77.74469     154.0545     273.5485      1.471     3.64     833.2595     54.92987     1471.883        30     1.453     0.859 -49.85  24
        15    670.9788      2.4129 307.6598687  +6.6978412      11835.6     21124.79     22628.27     77.86878     138.4058     251.2884      1.923     8.07     826.4719     54.92987     1971.534        43     2.100     0.867 -28.61  24
        16    639.8989      3.8183 307.6727350  +6.6962301     9958.573     13704.05     14451.06     78.11638     152.6062     271.0665      1.453     3.75     826.5562     54.92987     1526.179        30     1.455     0.822 -46.65  24
        17    725.4543      2.6145 307.6372280  +6.6995640     2120.634     2879.524     2662.313      77.4959     141.3054     254.2298      1.482     3.84      826.502     54.92987     355.4802        16     1.293     0.724 -46.26  24
        18    648.3102      1.2048 307.6693275  +6.6975881      1285.52     1592.542     2041.184     66.06216     121.7809     232.3215      0.918     2.32     826.4904     54.92987     380.3718         7     0.886     0.394  -6.32  24
        19    188.2624      1.3699 307.8604599  +6.6822227     917.1317     1236.423     1215.647     68.21927     124.2921     234.9663      1.346     4.67     835.6057     54.92987     237.9512        10     1.494     0.426  -9.14  24
        20    913.1094    992.6508 307.5263415  +6.2970267     36573.72     67828.36     72834.41     78.11638     155.6756     311.7849      1.987     4.41     855.6075     54.92987     3954.063        75     1.792     1.415 -47.30   0
        21    514.8292    995.5399 307.6915944  +6.2826400     473.9102     791.6036     951.0475     77.86878     155.8615     311.5991      1.525     4.64     859.5004     54.92987     104.8111         5     0.947     0.803  79.77   0
        22    220.3969    991.3399 307.8139655  +6.2745870     1654.595     2599.211     2529.331      77.4959     155.6135     311.3511      1.601     4.34     856.7878     54.92987     221.1072        17     1.402     0.877 -41.81   0
        23    811.0677    986.6627 307.5689047  +6.2961236     1957.168      3362.11     3320.966     78.11638     155.7995      311.661      1.863     5.78     856.9688     54.92987     215.0447        22     1.515     1.060 -65.85   0
        24    108.4420    990.0952 307.8604830  +6.2713720     723.7432     1139.248     550.9375     78.11638     155.7995      311.754      1.584     3.91      855.209     54.92987     147.8997         8     1.105     0.543 -30.44   0
        25    759.2643    984.3964 307.5904870  +6.2953443     5969.001     10410.75     11458.45      77.4959     155.6756     311.4131      1.904     4.30     857.5875     54.92987     715.8208        38     1.720     1.150 -54.10   0
        26    619.7109    988.5204 307.6482866  +6.2890176     790.1207     1252.295      1354.68     77.86878     156.1091      311.723      1.657     4.40     859.4597     54.92987     112.9766         9     1.034     0.716  26.56   0
        27    228.6207    983.8490 307.8108021  +6.2779533     1407.403     2443.827      2510.75     77.62039     155.9234     311.5061      1.754     5.61     856.8629     54.92987     201.3132        20     1.560     1.025 -61.56   0
        28    545.7706    983.4932 307.6791508  +6.2886405     881.3334     1349.312     1189.876     78.23988     155.6135     311.5371      1.624     4.81     859.6151     54.92987      141.963         8     1.057     0.621 -39.22   0
        29    193.1125    983.2914 307.8255615  +6.2770014     808.4962      1365.64      1501.71     77.99268     156.2945      311.754      1.736     5.88     856.1982     54.92987     102.8704        11     1.206     0.807 -32.55   0
        30     53.6027    981.6587 307.8835307  +6.2730269     2579.909     3947.826     4320.948      77.4959     155.6756     311.3821      1.717     4.59     854.1713     54.92987     308.1604        23     1.516     0.914 -36.98   0
        31    947.4701    979.3828 307.5125168  +6.3036404      5557.43     10582.38     11412.73      77.6204     155.7376     311.5371      2.018     4.53      854.312     54.92987      647.744        43     1.701     1.339 -56.52   0
        32    203.8977    975.6193 307.8213409  +6.2805279     632.1103     958.7178     1031.117     77.99268     155.7376     311.3821      1.685     5.60     856.2589     54.92987     80.78955         9     1.088     0.814 -36.17   0
        33    630.0541    973.6173 307.6444891  +6.2955134     655.2132     1001.182      1322.49     77.62039     155.8615     311.3821      1.823     5.95     859.0389     54.92987     98.90356        10     1.736     0.574 -53.30   0
        34    921.1461    970.7679 307.5237319  +6.3063270     1930.683     3421.488      3414.06     77.99268     155.9234     311.5681      1.853     5.59     854.8958     54.92987     228.0205        26     1.640     1.058 -43.00   0
        35    641.9091    967.0880 307.6397848  +6.2986021     4361.126     7009.759     7378.262     78.11638     156.2945      311.754      1.735     4.17     858.7213     54.92987      494.744        28     1.525     0.976 -44.31   0
        36    254.1402    967.4053 307.8007580  +6.2855914     4365.031     6582.702     6541.702     77.62039     155.7376     311.4131      1.599     4.14     857.1671     54.92987     552.9467        26     1.486     0.900 -44.90   0
        37    780.9099    967.4029 307.5820659  +6.3030770     1128.557     1861.511      2186.01      77.4959     155.5515     311.3821      1.778     4.91     857.1109     54.92987     126.6843        13     1.121     0.843 -35.91   0
        38    464.0685    965.3831 307.7136740  +6.2934052     1114.141     1676.479     1611.409     77.62039     155.7995     311.5371      1.535     5.30     858.8792     54.92987     152.0106        10     1.157     0.687 -65.39   0
        39     22.8680    965.1340 307.8968433  +6.2788241     2103.355     3248.051     3318.623     78.11638     155.9234      311.661      1.621     4.51     853.2834     54.92987     241.1008        21     1.529     0.855 -50.56   0
        40    965.1677    961.0336 307.5057785  +6.3118010     560.1274     821.9487       812.25     77.62039     155.6135     311.3821      1.441     4.87     853.3791     54.92987     90.56158         7     1.041     0.645 -32.00   0
        41    566.5378    959.6157 307.6713253  +6.2991876     1604.112     2479.161     2181.227      77.6204     155.7995     311.4441      1.612     5.23      859.236     54.92987       194.51        16     1.371     0.805 -41.60   0
        42    290.2127    960.6734 307.7860078  +6.2895710     741.9864     1207.257     1450.222      77.6204     155.5515     311.4131      1.709     5.14     857.8316     54.92987     113.4705         9     1.200     0.621 -42.90   0
        43    997.4879    958.6119 307.4924402  +6.3138688     698.3205     1565.885     2114.634     77.74469     155.5515     311.5061      2.912     5.27     852.4357     54.92987      104.449         8     1.200     0.653 -45.50   0
        44    605.8713    955.7311 307.6551249  +6.3020960     1255.673     1803.438     1672.852     78.11638     155.9854     311.5991      1.522     4.92       859.17     54.92987     174.5484        13     1.393     0.677 -42.69   0
        45     55.8014    956.5641 307.8834589  +6.2834604     668.7889     917.1862     1018.474     77.24632     155.6756     311.4441      1.485     3.88      853.694     54.92987     121.1973         7     0.892     0.749 -67.96   0
        46     50.5852    955.7781 307.8856507  +6.2836110     416.9615     711.6898     1002.458     77.86878     155.6756     311.5681      1.623     4.55     853.5865     54.92987     68.71277         5     0.826     0.712 -39.52   0
        47    285.7722    953.8037 307.7880809  +6.2922594     1414.937     2171.764     2582.945     77.62039     155.6756     311.4751      1.699     5.01     857.5714     54.92987     183.6595        16     1.298     0.855 -44.36   0
        48    752.6563    949.3830 307.5943955  +6.3095813     745.0352     984.6253     1158.589      77.6204     155.7995     311.3821      1.591     5.97     857.2398     54.92987     100.5823        11     1.276     0.825  -8.20   0
        49    890.1401    946.3026 307.5374178  +6.3154028     6226.434     10980.06      11222.3     77.86878     155.8615      311.754      1.874     4.31     854.9787     54.92987     705.3689        40     1.574     1.286 -42.91   0
        50    426.0056    943.6874 307.7302003  +6.3010981     2149.687     3108.571     3093.238     77.62039     155.5515     311.3821      1.582     3.97     858.5837     54.92987     274.9233        20     1.335     0.931 -49.28   0
        51    327.6367    942.0226 307.7710946  +6.2985157     9699.905     14672.42     15649.64     77.74469     155.6135     311.4131      1.638     4.08     857.5833     54.92987     1188.217        38     1.558     1.001 -43.96   0
        52    247.7578    940.9648 307.8042919  +6.2962950     7155.548     10768.86     11138.56     77.86878     155.8615     311.4751      1.607     4.00     856.5029     54.92987      886.608        31     1.539     0.937 -41.35   0
        53    760.5444    935.0971 307.5915959  +6.3157406     601.7324     1135.844      1468.87     77.99268     155.8615     311.8159      2.066     5.37     856.9658     54.92987      82.0191         9     0.977     0.835 -81.13   0
        54    575.9168    935.0251 307.6682512  +6.3096512     1126.945     1734.575     1445.259     77.99268     155.6135     311.6301      1.691     4.47     858.8239     54.92987     173.5089        15     1.493     0.710 -41.32   0
        55    138.6992    931.3767 307.8498884  +6.2966219     739.4877     1027.094     1379.291     78.23988     155.6135     311.4441      1.302     4.83     854.2946     54.92987     141.2167         8     0.951     0.696 -89.15   0
        56    905.9854    930.8046 307.5313541  +6.3223254     818.9437     1451.308     1770.295     77.74469     155.5515     311.4751      2.043     4.97     854.2137     54.92987     121.3893         9     1.253     0.558 -46.02   0
        57    862.1207    930.4826 307.5495768  +6.3210076     645.2249     1282.526     1454.234     78.23988     156.1091      311.754      1.899     4.52     855.4882     54.92987     94.18939         6     1.023     0.568  62.85   0
        58    972.7851    926.9276 307.5037484  +6.3261341     590.9955     1467.168     2024.721     77.62039     155.7376     311.5371      2.714     7.07     852.7885     54.92987     106.9466         8     1.739     0.805 -59.80   0
        59    742.0029    924.4858 307.5996471  +6.3195076     1722.685     2918.389     3480.643      77.4959     155.4894     311.3511      1.888     5.17     857.0829     54.92987     191.5563        20     1.488     0.959 -43.30   0
        60    565.9001    925.2041 307.6727373  +6.3133736     723.4007      1043.61     745.5731     77.86878     155.6135     311.2891      1.435     4.48     858.6735     54.92987     122.1747         8     1.343     0.424 -31.18   0
        61    606.0775    921.1552 307.6561916  +6.3163779     690.4244     865.0341     395.4461     77.99268     155.9234     311.6301      1.462     5.07     858.5992     54.92987     115.7103         8     1.141     0.637 -51.15   0
        62    973.8621    919.9730 307.5035322  +6.3290409     1053.669      1718.85     2292.057     77.74469     155.9234     311.5681      1.938     6.04     852.6143     54.92987     124.3807        13     1.040     0.987  34.95   0
        63    527.5016    920.2425 307.6888448  +6.3141478     1035.062      1429.25     1071.496     78.11638     155.7376     311.8469      1.432     3.24     858.6362     54.92987     164.6812        10     1.041     0.665 -37.13   0
        64    660.8040    917.8005 307.6335821  +6.3195774     2467.891     3800.971     4064.555      77.4959     155.4273     311.3821      1.649     4.06     857.9152     54.92987     319.8977        23     1.417     0.956 -46.37   0
        65    951.6277    915.3856 307.5129161  +6.3302002     774.3788     1291.124       1825.7     77.74469     155.6756     311.5371      1.827     4.62      852.962     54.92987     126.9578         9     1.280     0.762  89.34   0
        66     57.3737    914.1406 307.8842278  +6.3010271     2924.124      4557.38     4725.193     77.74469     155.8615     311.4751      1.676     4.48     852.6243     54.92987     384.9696        27     1.648     0.981 -53.45   0
        67    200.9411    913.1793 307.8246576  +6.3062078     2311.294      3595.26     3722.734     77.74469     155.7376     311.4751      1.595     4.02     855.0599     54.92987     297.4285        21     1.368     0.929 -43.69   0
        68     74.9339    913.5489 307.8769576  +6.3018569     2057.071     3000.352     3121.968     77.99268     155.7995     311.6301      1.634     3.95     852.9052     54.92987     259.4868        17     1.289     0.828 -44.53   0
        69    821.6808    913.2343 307.5669404  +6.3267908     744.7432     1203.323     1433.541     77.99268     155.8615      311.661      1.731     5.24     855.7452     54.92987     114.9697        10     1.214     0.701 -63.68   0
        70    938.8505    912.7296 307.5183093  +6.3308744      891.361     1298.007     944.9343     77.99268     155.7995      311.661      1.533     5.69     853.2233     54.92987     127.0334        11     1.154     0.789 -31.57   0
        71    655.3939    907.0009 307.6361880  +6.3238568     6847.379     10669.16      11254.5      77.4959     155.5515     311.4441      1.679     3.81     857.8106     54.92987     833.4554        35     1.508     1.075 -47.02   0
        72    339.5691    909.2366 307.7672364  +6.3124484     1060.532     1457.312     1918.323     77.74469     155.6135     311.4131      1.502     5.83     857.0494     54.92987     137.3812        11     1.227     0.781 -28.45   0
        73    234.9590    909.4379 307.8106600  +6.3088849     766.0311     1225.423     1433.221     77.86878     155.8615     311.5061      1.812     5.38      855.633     54.92987      95.5296         8     1.023     0.797 -56.92   0
        74    793.1877    907.7120 307.5789541  +6.3281277     680.5116     993.9166      881.538     77.74469     155.6135     311.5061      1.686     5.04     856.1015     54.92987     89.96808         8     0.965     0.745 -87.25   0
        75    893.1783    903.1712 307.5375897  +6.3333108     2457.669     4308.549     4385.744      77.4959     155.6135     311.5061      1.874     4.25     854.2377     54.92987     300.4224        27     1.503     1.134 -39.12   0
        76     15.7667    905.4918 307.9017907  +6.3032101     1070.191     1402.473     940.5626     78.23988     155.7376      311.661      1.515     3.88     851.7205     54.92987     149.9024        11     1.067     0.707 -47.78   0
        77     28.5663    903.8856 307.8965308  +6.3043001     1096.777     1611.175     1472.871     78.11638     155.7376     311.6301      1.540     4.23     851.8785     54.92987     150.1709        11     1.203     0.636 -51.60   0
