#   1 NUMBER                 Running object number                                     
#   2 X_IMAGE                Object position along x                                    [pixel]
#   3 Y_IMAGE                Object position along y                                    [pixel]
#   4 ALPHA_J2000            Right ascension of barycenter (J2000)                      [deg]
#   5 DELTA_J2000            Declination of barycenter (J2000)                          [deg]
#   6 FLUX_APER              Flux vector within fixed circular aperture(s)              [count]
#   9 FLUXERR_APER           RMS error vector for aperture flux(es)                     [count]
#  12 FLUX_RADIUS            Fraction-of-light radii                                    [pixel]
#  13 FWHM_IMAGE             FWHM assuming a gaussian core                              [pixel]
#  14 BACKGROUND             Background at centroid position                            [count]
#  15 THRESHOLD              Detection threshold above background                       [count]
#  16 FLUX_MAX               Peak flux above background                                 [count]
#  17 ISOAREA_IMAGE          Isophotal area above Analysis threshold                    [pixel**2]
#  18 A_IMAGE                Profile RMS along major axis                               [pixel]
#  19 B_IMAGE                Profile RMS along minor axis                               [pixel]
#  20 THETA_IMAGE            Position angle (CCW/x)                                     [deg]
#  21 FLAGS                  Extraction flags                                          
         1   1005.5638     18.9272 307.5286514  +6.6978706      1807.42     3260.969     2819.011     78.31448     156.5046     312.9159      1.879     5.98     828.3141     55.15651     233.7747        22     1.614     0.946  43.35   0
         2    724.9436     15.5305 307.6453521  +6.6898979     7473.795     11099.18     11352.21     78.56271     156.3801     312.8848      1.623     5.01     830.6721     55.15651      1136.01        26     1.554     0.781  43.00   0
         3    645.0914     14.6650 307.6785561  +6.6875825     3801.185     5778.713     5800.875     78.31448     156.6911     312.9159      1.606     4.94     830.1831     55.15651     581.4329        23     1.538     0.787  46.98   0
         4    347.4385     14.6127 307.8022149  +6.6776215      1005.11     1477.425     1676.035     78.06547     156.3179     312.6358      1.734     5.33      835.966     55.15651     140.1314        11     1.328     0.604  43.49   0
         5    400.6700     13.0635 307.7801532  +6.6800487       621.42     749.9343     895.0404     78.43869     156.5046      312.947      1.573     5.19      833.061     55.15651     116.8837         9     1.665     0.458  40.14   0
         6    445.3663     11.0731 307.7616521  +6.6823706     6466.485     9914.364     10540.81     78.31448     156.4424     312.9159      1.701     5.13      831.041     55.15651     948.5429        29     1.616     0.823  40.01   0
         7     46.2522     10.6733 307.9274676  +6.6691156     8619.624     13559.26      13872.2     78.43869     156.5668      312.947      1.697     5.11     828.5281     55.15651     1203.387        31     1.675     0.856  43.29  16
         8    692.2719      9.7801 307.6591197  +6.6911789     960.3318     1297.635     1266.616     78.06547     156.3801     312.8537      1.598     5.95     830.3088     55.15651     159.9966        11     1.373     0.726  31.59   0
         9    521.0786      8.1560 307.7302967  +6.6861146     914.1023     1555.103     2149.914     78.31448     156.5046     312.0748      1.896     5.13     829.0054     55.15651     174.3021        10     1.424     0.522  41.67  16
        10    341.8412      5.9853 307.8048324  +6.6809956     12948.08     20268.95     21305.46     77.94067     156.3179     296.5595      1.651     4.99     836.0826     55.15651     2125.481        38     1.630     0.931  43.69  16
        11    115.4388      6.3853 307.8988721  +6.6732163     2455.778       3729.1     3757.259     78.19008     156.3179     300.1812      1.661     5.04     830.0837     55.15651     350.6868        20     1.501     0.797  44.34  16
        12    436.8979      6.7825 307.7653153  +6.6838580     840.3144     1376.446     2449.952     78.43869     156.3179     303.4711      2.258     5.13     831.2088     55.15651     119.7884         9     1.216     0.612  38.05  16
        13    106.9216      5.3213 307.9024464  +6.6733688     1628.381     2375.713     2603.832     78.68652     156.7532     290.0205      1.561     4.59     829.9109     55.15651     235.4697        17     1.386     0.836  42.92  16
        14    810.5604      4.6031 307.6101505  +6.6972731     812.4631     1133.493     952.4009     77.56505     156.1933     281.6765      1.656     5.11     830.4579     55.15651     126.4695        10     1.345     0.549  42.14  16
        15    407.9324      3.9710 307.7774439  +6.6840466      2344.72     3870.908     3969.901     78.19008     154.1859      274.003      1.748     5.13     832.4678     55.15651     423.7164        19     1.556     0.808  38.77  16
        16    476.3904      3.8994 307.7490060  +6.6863734     530.2166     645.8809     621.1615     78.19007     153.4263     272.9707      1.353     3.84     829.6572     55.15651     96.54651         6     1.224     0.346  41.39  16
        17    669.8423      1.1843 307.6687283  +6.6939773     3203.513     3564.694      3694.41     65.74509     121.8048     232.8624      0.814     1.62     829.8702     55.15651     1309.305         9     0.919     0.388   0.70  24
        18     87.8391      1.2886 307.9105105  +6.6743912     481.1887     427.6549     354.5913     67.64267     123.7081     234.8191      1.095     3.81     829.2524     55.15651     97.89038         6     1.014     0.410  11.99  24
        19    545.8228    995.2587 307.6866823  +6.2793710     3964.003     6799.088     7398.998     78.06547     156.5046     312.7914      1.860     4.90     862.8734     55.15651     498.6671        30     1.719     1.000  29.86   0
        20    973.3004   1021.3311 307.5083481  +6.2828930     5215.111     9948.678        10790     78.43869      152.216     270.1385      2.022     5.00     861.3756     55.15651     592.5688        41     1.845     1.217  41.52  24
        21    727.7429   1022.1389 307.6102578  +6.2743597     962.1656     1383.495     1961.542     78.56271     144.4722     259.1018      1.711     4.76     861.8266     55.15651     115.3917        10     1.043     0.716  51.15  24
        22    257.8455   1021.4863 307.8053369  +6.2588831     1271.709     2182.704     2139.274     78.43869     150.7378     268.0765      1.823     5.91      861.235     55.15651     158.6071        17     1.465     0.851  53.42  24
        23    655.1516    994.3823 307.6413272  +6.2833927     1320.364     2350.481     2236.589     77.94067     156.5668      312.698      1.843     5.46     862.5306     55.15651      239.717        18     1.681     0.721  35.10   0
        24     80.6691    993.8878 307.8798157  +6.2643225     810.8146      1324.53     1339.749     78.43869     156.7532      312.947      1.715     5.96     857.0038     55.15651     122.4816        10     1.392     0.718  42.15   0
        25    498.7747    991.5403 307.7063383  +6.2793302     2032.118     3491.285     3576.438     78.06547     156.5046     312.7914      1.805     5.16     862.3878     55.15651      312.905        21     1.622     0.863  45.79   0
        26    933.2331    983.7153 307.5262456  +6.2970884     36828.22     67914.21     73081.95     78.43869     156.3179     312.8848      1.962     4.77     860.4743     55.15651     4471.153        75     1.921     1.259  43.95   0
        27    338.2281    984.8071 307.7732108  +6.2767265     518.8333     690.6389     735.0278     77.94067     156.3179     312.7292      1.899     3.46     861.6906     55.15651     78.27063         5     0.995     0.348  46.65   0
        28      6.0603    983.5891 307.9111341  +6.2660636     2787.259     4953.307     4644.735     77.81566     156.3801     297.1826      1.854     5.43      856.063     55.15651     358.4426        25     1.602     0.955  45.24  16
        29    240.4536    981.9788 307.8138932  +6.2746113      1624.78     2670.536     2578.483     77.94067     156.5046     312.7292      1.733     4.92     860.0795     55.15651     226.7984        20     1.520     0.818  36.52   0
        30    128.6620    981.3321 307.8603198  +6.2711209     688.2243     832.0507     253.0842     78.43869     156.4424     312.9159      1.525     5.22     857.3436     55.15651     93.92236         8     1.120     0.688  32.50   0
        31    779.4163    975.2821 307.5903846  +6.2954343     5856.935     10508.55     11827.64     78.06547     156.1933     312.7914      1.915     4.70     861.1149     55.15651     683.1262        35     1.724     1.036  46.38   2
        32    639.1766    979.8288 307.6484494  +6.2888674      772.337     1485.416     1506.963     77.94067     156.3801     312.7603      1.871     5.64     862.4503     55.15651     133.0624         8     1.445     0.620  34.97   0
        33    831.2383    977.5815 307.5687939  +6.2962162     2094.135      3512.98     3475.757     78.06547     156.3801      312.698      1.785     5.05     860.7256     55.15651     241.5854        22     1.517     0.959  46.84   0
        34    566.4572    975.2626 307.6787912  +6.2883185     934.5359     1509.043     1588.807     78.56271     156.4424      312.947      1.797     5.12     862.6121     55.15651     137.6807        10     1.428     0.520  44.51   0
        35    248.7652    974.6243 307.8106919  +6.2779271     1418.528     2285.988     2781.691     77.94067     156.3179      312.698      1.705     5.55     859.9688     55.15651     189.9943        16     1.395     0.802  33.20   0
        36    212.8144    973.8499 307.8256415  +6.2770391     950.7726     1538.681     1567.578     77.81566     156.4424     312.6358      1.621     5.20       859.21     55.15651      135.914        11     1.295     0.623  35.68   0
        37     73.6395    972.4295 307.8834611  +6.2729458     2410.697     4060.692     4693.092     77.94067     156.1933     312.7603      1.839     4.89     856.3777     55.15651     312.1683        25     1.556     0.977  44.66   0
        38    967.5905    970.4844 307.5124271  +6.3036977     5740.906     10570.18     11311.59     78.06547     156.1933     312.7603      1.964     4.72     860.1371     55.15651     677.0958        42     1.797     1.213  42.32   0
        39    223.6546    966.6514 307.8213854  +6.2803755     565.2993     973.8623      922.542     78.56271     156.5046      312.947      1.671     4.64     859.1946     55.15651     125.3717         5     1.493     0.408  45.10   0
        40    941.3598    962.1774 307.5235958  +6.3062527     1755.695     3339.032     3328.143     78.06547     156.3179      312.698      1.988     5.08     860.0729     55.15651     202.2215        22     1.560     0.948  39.62   0
        41    662.0016    958.0178 307.6397092  +6.2986369     4222.128      7206.88     7191.649     78.06547     156.0686     312.6358      1.772     4.89     861.9883     55.15651     552.2764        32     1.628     1.016  42.57   0
        42    274.2764    958.2429 307.8006563  +6.2855477     4183.352     6983.225     7168.238     78.31448     156.5046      312.947      1.777     4.77     860.1293     55.15651      569.939        31     1.595     1.031  40.13   0
        43    801.1131    958.3156 307.5819485  +6.3031649     1133.067     1913.844     2215.542     78.19007     156.6911     312.9781      1.955     4.92     860.7155     55.15651     162.0264        13     1.459     0.618  47.92   0
        44    484.2893    956.4588 307.7135359  +6.2933300     1177.228     2191.574     2309.862     78.31448     156.5046     313.0403      1.887     6.22     862.1314     55.15651     156.4552        16     1.551     0.742  55.00   0
        45     42.8342    955.9406 307.8968073  +6.2787172     1928.706     3410.502     3463.403     78.31448     156.5046     312.8537      1.836     5.20     855.7916     55.15651     243.7783        21     1.523     0.974  42.15   0
        46    894.1389    954.1863 307.5434682  +6.3079765     736.5875     1356.195     1701.929     77.94067     156.3801      312.698      2.125     6.08     860.0659     55.15651     120.7573         9     1.292     0.803  64.93   0
        47    586.8381    950.7451 307.6711576  +6.2991243     1623.995     2589.277     2341.873     78.43869     156.5668      312.947      1.664     4.86     862.2705     55.15651     237.3824        18     1.504     0.820  44.41   0
        48    310.3337    951.8326 307.7859052  +6.2894052     745.3001     1376.615     1058.008     78.31448     156.5668     312.8848      1.668     5.86     860.7263     55.15651     115.6526        12     1.402     0.690  46.01   0
        49   1018.4581    950.6957 307.4919742  +6.3135650      762.145     1403.484     1400.323     78.31448     156.5046     301.8306      2.016     7.06     859.3486     55.15651     88.36102        11     1.485     0.940  74.22  16
        50     75.1676    947.7480 307.8836635  +6.2831878     705.1155     1464.344     2071.043     78.31448     156.5046     312.8225      2.376     7.65     855.7777     55.15651      122.606        11     1.980     0.826  24.13   0
        51    626.2989    947.2132 307.6548951  +6.3019035     1095.386     1648.147      1294.02     78.19008     156.2556      312.698      1.639     5.36     862.0737     55.15651     170.4753        12     1.375     0.691  45.28   0
        52    305.9081    944.8771 307.7879777  +6.2921285     1607.032     2440.995     2724.903     78.19008     156.7532     312.9159      1.725     5.28     860.6168     55.15651     212.7198        17     1.424     0.785  40.92   0
        53    573.9821    943.0720 307.6767534  +6.3018621      640.312     909.8552     742.3077     77.94067     156.4424     312.8537      1.522     5.94       862.18     55.15651     104.9462         8     1.507     0.658  86.08   0
        54    772.8501    940.8732 307.5942690  +6.3094226     816.9334     1362.418     851.0146     78.43869     156.5668      312.947      1.706     5.31     860.8214     55.15651     119.9668        10     1.531     0.521  58.93   0
        55    910.3768    937.4207 307.5372908  +6.3154412     6202.311     10888.09     11344.17     78.19008     156.3179     312.8537      1.887     4.80     859.7837     55.15651     748.5341        38     1.734     1.088  39.11   0
        56    446.4048    934.8427 307.7299930  +6.3009853     2147.259     3520.694     3549.182     77.81566     156.1933     312.6046      1.733     4.49     861.4315     55.15651      279.717        22     1.561     0.951  46.86   0
        57    347.8510    932.9230 307.7709705  +6.2984721     9072.561     14581.03     15133.85     78.43869     156.5668     312.8848      1.709     4.79     860.6631     55.15651     1229.169        34     1.616     0.956  43.92   0
        58    267.8964    931.8901 307.8041965  +6.2962143     6811.502     10896.31     11683.36     78.43869     156.9394     312.9159      1.714     4.81     859.5029     55.15651     878.6806        32     1.602     0.948  43.86   0
        59    595.9937    926.3686 307.6681790  +6.3094959     1090.554     1699.547     1689.092     77.81566     156.3179      312.698      1.717     5.29     861.8771     55.15651     160.5206        14     1.520     0.696  46.23   0
        60    779.9528    925.1807 307.5918487  +6.3161395     666.4929     998.2939     734.2741     77.94067     156.5046     312.7292      1.662     6.35     860.5333     55.15651     110.2729         9     1.544     0.733  44.65   0
        61    926.1572    922.0982 307.5312546  +6.3222946     926.5747     1530.357     1732.538     78.43869     156.3801     313.1336      1.791     5.70     859.4153     55.15651       124.59        11     1.319     0.694  57.15   0
        62    158.6807    922.7328 307.8498441  +6.2963252     634.3119     1046.758     689.9316     78.56271     156.7532      312.947      1.651     3.64      856.864     55.15651     116.9197         5     0.980     0.598  29.75   0
        63    424.6080    920.7397 307.7395180  +6.3060775     621.0549     1066.998       822.46     77.81566     156.3179     312.6669      1.873     5.96     860.6027     55.15651     114.7576         9     1.617     0.619  43.24   0
        64    881.2457    920.7512 307.5499454  +6.3213518     510.2452     1066.932     664.8768     78.43869     156.3801      312.947      2.160     5.82     859.6378     55.15651      87.9104         7     1.638     0.583  28.36   0
        65    762.4186    915.4236 307.5994566  +6.3195823     1669.213      2997.19     3204.274     78.19008     156.4424     312.8537      1.954     5.28     860.5767     55.15651     238.8893        22     1.671     0.876  45.51   0
        66    586.2312    915.7160 307.6725912  +6.3135676     662.0431     1307.304     1205.723     78.43869     156.3179     312.7914      2.041     5.00     861.6477     55.15651      97.4101         7     1.604     0.441  35.60   0
        67     12.6521    912.6202 307.9108053  +6.2955874     804.0656     1329.708      1248.01     77.94067     156.5668     312.7292      1.739     5.03      854.136     55.15651     139.3123         8     1.117     0.641  35.90   0
        68    638.3094    911.7396 307.6511051  +6.3169527     506.4582     548.0712     560.1915     78.31448     156.5668     312.9781      1.400     3.50      861.282     55.15651     88.18744         5     1.276     0.277  35.13   0
        69    626.2783    911.8844 307.6560949  +6.3164902     718.7589      1101.89     1066.778     78.56271     156.8153     313.0403      1.666     5.02     861.3789     55.15651     120.5986         8     1.490     0.478  27.28   0
        70    547.3703    911.2977 307.6888732  +6.3140905     1116.583     1628.629     1664.069     78.56271     156.2556      312.947      1.606     5.89     861.5778     55.15651     155.8123        13     1.498     0.653  36.84   0
        71    993.6072    910.9661 307.5036260  +6.3291412      1110.15     1888.911     2079.853     77.94067     156.3179      312.698      1.766     5.43      858.196     55.15651     190.1456        12     1.338     0.696  26.85   0
        72    680.8990    908.8494 307.6335213  +6.3195710     2198.686     3717.482     3994.514     78.43869     156.4424     313.1025      1.837     5.23     860.8882     55.15651     299.9317        19     1.515     0.797  40.79   0
        73    842.1367    905.7352 307.5666870  +6.3262461     812.7159     1376.541     1055.584     78.43869     156.5046      312.947      1.731     5.86     859.7191     55.15651     124.2085        12     1.430     0.677  44.42   0
        74     77.5863    905.0350 307.8841075  +6.3009048     2646.357     4506.706     5036.975     77.94067     156.3179     312.7914      1.893     5.20      854.407     55.15651     344.5267        24     1.577     1.000  56.33   0
        75    221.0009    904.0914 307.8246049  +6.3061168     2082.738     3627.678     3871.031     77.69045     156.0062      312.698      1.859     4.84     857.4013     55.15651     291.1206        19     1.558     0.811  43.02   0
        76     94.8856    904.3062 307.8769510  +6.3017878     1806.265     2992.421     3195.672     78.43869     156.9394     313.0092      1.806     5.07     854.5756     55.15651     222.6078        17     1.478     0.780  41.61   0
        77    958.8231    903.6407 307.5183134  +6.3310058     611.8338     1117.854     1288.684     78.06547     156.3179      312.698      1.616     4.07     858.4331     55.15651     81.60699         6     1.179     0.402  32.45   0
