#   1 NUMBER                 Running object number                                     
#   2 X_IMAGE                Object position along x                                    [pixel]
#   3 Y_IMAGE                Object position along y                                    [pixel]
#   4 ALPHA_J2000            Right ascension of barycenter (J2000)                      [deg]
#   5 DELTA_J2000            Declination of barycenter (J2000)                          [deg]
#   6 FLUX_APER              Flux vector within fixed circular aperture(s)              [count]
#   9 FLUXERR_APER           RMS error vector for aperture flux(es)                     [count]
#  12 FLUX_RADIUS            Fraction-of-light radii                                    [pixel]
#  13 FWHM_IMAGE             FWHM assuming a gaussian core                              [pixel]
#  14 BACKGROUND             Background at centroid position                            [count]
#  15 THRESHOLD              Detection threshold above background                       [count]
#  16 FLUX_MAX               Peak flux above background                                 [count]
#  17 ISOAREA_IMAGE          Isophotal area above Analysis threshold                    [pixel**2]
#  18 A_IMAGE                Profile RMS along major axis                               [pixel]
#  19 B_IMAGE                Profile RMS along minor axis                               [pixel]
#  20 THETA_IMAGE            Position angle (CCW/x)                                     [deg]
#  21 FLAGS                  Extraction flags                                          
         1     10.7751     86.3343 307.9359504  +6.6319726     733071.1      1660107      1837634     77.73064     155.8333     311.4498      2.264     6.17     838.0043     54.91994     61545.28       489     2.309     1.957  50.11  28
         2    265.0486     15.2653 307.8326934  +6.6698480     674.1996     1227.029      1769.24     77.97859     155.7094     311.5738      2.162     5.60     833.0291     54.91994     106.0024        10     1.509     0.585  53.38   0
         3    187.6160     13.2088 307.8649385  +6.6681001     10006.21     16223.87     16921.98     77.85471     155.5854     311.4189      1.753     4.18     832.2149     54.91994     1369.074        38     1.575     1.090  43.10   0
         4      1.6820     13.2841 307.9421959  +6.6618247     399.2291      740.747     488.7616     71.92626     129.0701     240.2056      1.699     4.46     831.7338     54.91994     93.71942         6     1.806     0.313  63.28  24
         5    531.7518     11.3145 307.7219994  +6.6804077      2899.49     4448.291     4359.617     78.10226     155.7714     311.5738      1.654     4.11     822.4218     54.91994     387.5908        24     1.472     0.951  49.24   0
         6    933.3325     10.9258 307.5551307  +6.6939656      3820.55     5993.182     6840.384     78.22575     155.9572     311.5428      1.733     4.37     820.9926     54.91994     552.4497        27     1.509     0.954  41.02   0
         7    734.1213      9.5358 307.6379629  +6.6879005     1867.812     2967.069     3173.898     78.34904     155.8953     311.5428      1.683     4.78     820.7654     54.91994     236.1904        16     1.460     0.762  44.47  16
         8    470.1662      9.7727 307.7476432  +6.6789847     1715.654     2726.053     3076.065     77.60637     155.5854     311.3568      1.639     4.83     822.6896     54.91994     222.2025        17     1.554     0.764  47.38  16
         9    997.9192      7.3335 307.5284104  +6.6975981     1884.226     3269.008     3419.072     78.22575     156.0809     306.4513      1.883     4.33     815.0306     54.91994     250.2924        22     1.440     1.008  53.91  16
        10    717.4164      3.7797 307.6450979  +6.6897196     6907.314     10950.83     11276.82     77.85471     152.1352     270.3757      1.726     4.43     820.9433     54.91994     1053.181        35     1.590     1.024  45.93  24
        11    637.6207      2.9678 307.6782852  +6.6873911      3588.93     5463.631     5525.795     77.60637     144.7888     259.2966      1.613     4.63     822.0192     54.91994     520.8846        23     1.476     0.918  45.06  24
        12    339.5496      2.1392 307.8021774  +6.6777636     817.3898     1147.748     1074.885     76.22604     135.1343     247.1764      1.483     4.13     831.0578     54.91994     108.9879         8     0.888     0.677  36.62  24
        13     39.7739      1.2464 307.9267745  +6.6680745      1331.91     1709.611     1625.473     66.77687     122.6278     232.9435      1.202     3.66     830.7616     54.91994     369.7844         9     1.271     0.455  11.43  24
        14    438.6620      1.2266 307.7610221  +6.6814589     1472.261      1897.57     1932.251     66.34184     122.3914     232.7362      1.292     3.79     823.7169     54.91994     361.2963        10     1.295     0.419  -0.07  24
        15    981.9491   1001.0471 307.5018323  +6.2867929     468.6777     1017.917     1302.796     78.22575     155.7094     311.6357      2.737     4.80     849.0342     54.91994     76.33008         5     1.087     0.602 -74.45   2
        16    988.7316   1022.9843 307.4982833  +6.2779613     489.6028     1028.565     1643.683      75.0778     133.8425     245.3736      2.314     3.78     849.0125     54.91994     91.04169         5     0.819     0.501  33.39  24
        17    899.6990   1023.5780 307.5352327  +6.2747540       867.83     1008.286     722.2904     69.05077     125.1982     235.9488      1.042     3.68     851.8859     54.91994      180.746         8     1.063     0.632  12.92  24
        18    592.8598   1022.8094 307.6626655  +6.2648427     59870.25      83910.6     87569.48     76.09931     135.7756     247.7614      1.525     4.06     856.3088     54.91994     7603.144        60     1.546     1.108  13.27  24
        19    222.6877   1022.4917 307.8163745  +6.2525931     1966.417     2854.237     2659.357     78.10226     140.1826     252.8132      1.620     3.74     855.5085     54.91994     241.1533        21     1.266     1.027  26.07  24
        20    554.3829    995.2925 307.6795647  +6.2749185     3892.851     6630.453     7312.448     77.85471     155.6474     311.4498      1.869     4.23     856.7632     54.91994     486.7317        33     1.639     1.118  62.23   1
        21    758.8702    994.6052 307.5946784  +6.2820251     6792.382     12051.85     12912.01     77.60638     155.4613     311.4498      1.893     4.25     853.8165     54.91994     791.5375        44     1.669     1.222  48.34   0
        22    524.5662    996.0247 307.6919207  +6.2736203     849.3625     1445.512     1259.963     77.60637     155.6474     311.3568      1.501     5.10     857.1021     54.91994      160.946        12     1.531     0.740  37.44   0
        23    304.7326    993.7816 307.7832749  +6.2671941     13140.97     23201.72     26749.08     77.73064     155.7714     311.4808      1.964    10.51     854.8658     54.91994     1733.776        62     1.956     1.575 -32.33   0
        24    429.0388    994.5475 307.7316353  +6.2710372     953.9653     1661.876     1550.174     77.97858     155.8333     311.5738      1.837     5.97     855.5496     54.91994     165.0803        14     1.539     0.747  48.60   0
        25      1.7875    994.6083 307.9090304  +6.2566952     507.7043     647.1581     777.9885     72.59412      130.261     241.5279      1.477     5.84     852.0092     54.91994     87.28149         7     1.175     0.817  29.86  24
        26    819.8763    993.7725 307.5693744  +6.2844017     996.9039     1699.005     1828.423     77.97858     155.8333     311.5428      1.740     4.12      852.551     54.91994     149.4549        12     1.008     0.870  74.10   0
        27    275.8867    991.6882 307.7953224  +6.2670925     1029.074      1838.66     2093.822     77.85471     156.2045     311.6977      1.916     5.82     854.7441     54.91994     153.1214        13     1.201     0.846  64.31   0
        28    920.2000    988.1513 307.5279039  +6.2900629     7137.588     13190.69     13685.38     77.35723     155.4613     311.1088      1.930     4.46     851.1186     54.91994     807.8901        42     1.691     1.239  46.87   0
        29    551.5114    987.4655 307.6810195  +6.2780542     7753.003     12845.84     14344.11     78.10226     156.0191     311.6048      1.825     4.12     856.4925     54.91994     1054.175        42     1.594     1.230  37.25   0
        30    893.8720    984.3459 307.5389636  +6.2907577     10181.03     19210.63     21396.37     77.97858     155.7094     311.5118      2.036     4.46      851.116     54.91994     1189.124        57     1.840     1.368  33.72   0
        31   1015.5267    983.5776 307.4884727  +6.2951221     3860.644     7331.811      7151.37     77.73064     155.6474     311.5118      1.967     4.63     847.3481     54.91994     453.7355        38     1.763     1.215  46.33  16
        32    606.6381    984.7139 307.6582216  +6.2810309     1346.619      2176.58      2498.67     78.10226     155.7714     311.5738      1.916     5.54     854.7772     54.91994     153.2266        20     1.447     1.120  34.12   0
        33    538.0906    983.2420 307.6867339  +6.2793495     3826.177     6645.959      7518.12     78.10226     155.8333     311.6357      1.961     4.25     856.5278     54.91994     542.7883        35     1.790     1.126  39.20   0
        34    647.7125    982.7121 307.6412333  +6.2832282     1275.857     2213.314     2507.926     77.85471     156.3281     311.6667      2.007     4.54     854.5628     54.91994     163.0883        15     1.230     0.905  33.49   0
        35     72.3885    982.0256 307.8801413  +6.2642598     842.5027     1686.878     1793.132     77.73064     155.6474     311.5118      1.915     7.20     851.7559     54.91994     102.7136        16     1.334     1.088  57.83   0
        36    491.1533    979.9388 307.7063344  +6.2791450     1858.318     3060.598     3213.145     77.97859     155.7094     311.6357      1.673     5.19     856.3952     54.91994     244.9863        21     1.565     0.898  49.51   0
        37    925.5557    971.8632 307.5262243  +6.2969660        36661     67036.56     72917.68     78.10226     155.7714     311.6048      1.964     4.41      850.613     54.91994     4084.668        76     1.842     1.373  43.28   0
        38    232.9841    970.2818 307.8138563  +6.2744931     1575.458     2661.489     2274.945     77.73064     155.5234     311.4498      1.726     5.01     854.1927     54.91994     211.0559        21     1.482     1.010  41.62   0
        39    631.8766    968.1140 307.6482981  +6.2887268     766.0167     1108.823     1120.402     78.10226     156.1427     311.6357      1.902     5.27      854.238     54.91994     118.2129         9     1.437     0.546  59.85   0
        40    120.5435    969.6426 307.8605644  +6.2709876     622.0983       805.98     931.8593     77.97859     155.7714     311.5738      1.656     4.03     852.1527     54.91994     84.80249         6     0.969     0.479   0.56   0
        41    823.5588    965.8426 307.5687796  +6.2960558     2049.967     3457.169      3716.02     77.85471     155.8333     311.4498      1.825     4.48     851.9489     54.91994     234.0909        19     1.370     0.928  40.90   0
        42    771.7662    963.4722 307.5903656  +6.2953087     6036.301     10426.86     11227.06     77.97859     155.7714     311.5428      1.864     4.12     852.8109     54.91994     679.1083        39     1.630     1.199  46.73   0
        43    240.9406    962.3831 307.8108184  +6.2780207     1329.323     2334.719     2308.329     77.73064     155.7094     311.3259      1.896     5.30     854.0848     54.91994     186.9327        21     1.447     1.181  84.71   0
        44    558.2593    962.6721 307.6790492  +6.2885157     624.8689     1135.571     998.9904     78.22575     155.8333     311.5428      1.800     4.06     855.3467     54.91994     114.0948         6     1.242     0.486  51.44   0
        45    205.0783    962.5547 307.8257032  +6.2767481      704.913     1337.548     1483.176     77.97858     155.8333     311.5738      2.139     6.05     853.6373     54.91994     131.3311         8     1.243     0.828  43.35   0
        46     66.1336    960.5950 307.8834607  +6.2728974     2448.533     4253.331     4490.785     77.60638     155.5234     311.3878      1.854     4.41     851.3483     54.91994     310.7527        27     1.517     1.072  51.53   0
        47    960.0114    958.6561 307.5123578  +6.3035652       5562.7     10256.99     10767.64      77.4819     155.7714     311.2639      1.950     4.45     849.1139     54.91994     616.9194        42     1.835     1.188  39.74   0
        48    933.6880    950.0632 307.5235759  +6.3062372     1874.808     3256.947     3412.549     77.97858      156.019     311.6048      1.799     4.51     849.7274     54.91994     254.4481        18     1.423     0.840  60.16   0
        49    793.2554    946.7158 307.5820030  +6.3029430     1309.681     2191.923     2437.899     78.10226     155.8333     311.6977      1.917     5.79      852.072     54.91994     140.4084        18     1.295     0.987  56.44   0
        50    654.3879    946.2597 307.6396829  +6.2985009     4187.066     6680.634     6517.604      77.4819     155.7094     311.2949      1.707     3.98     853.6338     54.91994      522.622        30     1.472     1.092  36.28   0
        51    266.6594    946.3914 307.8006774  +6.2854844     3980.561     6700.094      7161.88      77.4819     155.7094     311.2949      1.798     4.22     854.1694     54.91994     555.9337        30     1.575     1.023  39.06   0
        52   1003.7755    945.6934 307.4946175  +6.3103727     663.4743     1071.032     1489.617     78.22575     155.5854     311.4189      1.814     6.06     847.4913     54.91994       84.974         8     1.418     0.728  32.99   0
        53    476.6334    944.6675 307.7135475  +6.2932219     1202.447     1738.433     2356.233     77.97859     155.8953     311.6357      1.690     6.00     854.8336     54.91994     163.6581        13     1.271     0.796  39.44   0
        54     35.4011    943.5946 307.8967942  +6.2788845      2079.75     3578.111     3780.503      77.4819     155.5234     311.3878      1.843     4.14     850.9567     54.91994     299.1322        23     1.405     1.197 -83.93   0
        55    886.5324    942.0104 307.5434267  +6.3079924     692.2777     1097.711     533.2552     77.60637     155.6474     311.4189      1.724     5.18     850.5362     54.91994     97.68475         8     1.342     0.564  39.29   0
        56    978.6307    940.4359 307.5052347  +6.3117072     604.5933     1108.761     646.5356     77.73064     155.5854     311.3878      1.735     5.10     848.1453     54.91994     93.85999         8     1.529     0.482  43.42   0
        57    578.9897    938.4645 307.6712530  +6.2992025      1746.92     2984.061     2945.411     77.60637     155.6474     311.4808      1.839     4.90     854.0239     54.91994     216.3237        23     1.483     1.130  36.64   0
        58   1010.0217    938.8480 307.4922522  +6.3134067     767.4108     1384.588     1292.148     77.73064     155.8333     311.4498      2.000     5.18     847.2571     54.91994     93.97046        10     1.128     0.672   4.68   0
        59    618.4395    935.0585 307.6549858  +6.3019257      1121.71     1997.583     2271.413     78.10226     155.8953     311.6667      1.906     7.23     853.4689     54.91994     141.2312        17     1.753     0.835  37.14   0
        60     68.2286    935.7646 307.8834278  +6.2832189     636.3779      991.452     1131.972     77.73064     155.5854     311.3878      1.854     4.83      850.871     54.91994     110.0453         9     1.139     0.704  36.10   0
        61    297.8975    932.7543 307.7881651  +6.2921607     1355.033     2101.934     1649.472     78.10226     155.7094     311.7286      1.591     4.62     854.4756     54.91994     188.2054        16     1.414     0.835  42.54   0
        62    302.7639    939.5682 307.7859153  +6.2895105     694.2479     1061.626      1083.78     77.73064     155.5854     311.3259      1.720     5.01     854.5207     54.91994      94.2193         8     1.195     0.595  63.05   0
        63    764.8348    928.8181 307.5944038  +6.3093852     795.1132     1421.296     1269.741     77.60637     155.6474     311.3568      1.798     5.90       852.09     54.91994     108.1957        10     1.427     0.686  60.22   0
        64    902.6106    925.5472 307.5373004  +6.3153248     6149.398     10852.59     11354.72      77.4819     155.7714     311.3259      1.898     4.37     849.8505     54.91994     787.4912        43     1.695     1.220  45.66   0
        65    438.4466    922.7151 307.7301413  +6.3010085     1887.978     2985.556     3364.297     78.10226     155.7714     311.5738      1.759     5.05     854.2065     54.91994     220.2408        20     1.439     0.983  45.57   0
        66    340.2275    921.0429 307.7709820  +6.2984129     8600.305     14556.58     15577.62     77.73064     155.8953     311.4498      1.813     4.33     854.2864     54.91994     1110.455        41     1.590     1.182  43.37   0
        67    260.2819    919.9109 307.8042164  +6.2962034     6480.766     10483.73     11342.89     77.85471      156.019     311.6357      1.715     4.03     853.6833     54.91994     848.9955        35     1.527     1.115  46.25   0
        68    588.3431    914.5764 307.6681701  +6.3093773     1057.853     1934.144     1979.541     77.73064     155.8333     311.3878      1.887     6.11     853.3188     54.91994      145.851        14     1.650     0.637  28.79   0
        69    918.1926    910.4719 307.5313337  +6.3220676     1099.098     1789.607     2410.644     77.60638     155.3371     311.4808      1.839     5.44     849.0606     54.91994     151.6223        17     1.531     0.859  52.91   0
        70    874.0922    909.0464 307.5496948  +6.3211881     736.9132     1117.502     782.5244     78.10226     155.7714     311.6977      1.488     5.17     850.3323     54.91994     95.72644        10     1.073     0.705 -82.52   0
        71    754.5139    903.6537 307.5995321  +6.3194308     1502.691     2579.313      2264.66     78.10226     155.7714     311.6977      1.817     5.61     851.8539     54.91994     211.2141        22     1.645     0.980  43.67   0
        72      5.2572    900.6350 307.9107592  +6.2956081     859.3818     1479.488     1177.482     77.97859     155.8333     288.1073      1.707     4.80      849.596     54.91994     116.1504         8     1.177     0.554  63.53  16
        73    986.0923    899.3151 307.5035097  +6.3289329     1014.413     1733.553     2392.873     77.85471     156.2663     311.6667      2.255     5.51     846.6788     54.91994     153.1501        13     1.260     1.014  67.11   0
        74    539.7903    899.7609 307.6888289  +6.3138725     1054.598     1785.939     1905.442      77.4819     155.6474     311.2949      1.711     5.12     853.2998     54.91994     161.8489        12     1.268     0.827  54.46   0
        75    618.3766    900.2708 307.6561782  +6.3162863     805.2112     1316.575     1517.497     77.73064     155.7094     311.5428      1.806     4.99     852.8164     54.91994     120.8076         9     0.949     0.743  12.16   0
        76    629.6723    898.8298 307.6515358  +6.3172582     619.1788     796.0997     519.5435     77.97859     155.8333     311.5428      1.529     3.75     852.7324     54.91994     127.6247         5     1.055     0.383  74.01   0
        77    673.1816    897.0547 307.6335275  +6.3194430     2315.316     3817.197      4279.15     77.60638     155.8333     311.3568      1.812     4.90     852.4496     54.91994     281.0847        21     1.425     0.955  45.10   0
