#   1 NUMBER                 Running object number                                     
#   2 X_IMAGE                Object position along x                                    [pixel]
#   3 Y_IMAGE                Object position along y                                    [pixel]
#   4 ALPHA_J2000            Right ascension of barycenter (J2000)                      [deg]
#   5 DELTA_J2000            Declination of barycenter (J2000)                          [deg]
#   6 FLUX_APER              Flux vector within fixed circular aperture(s)              [count]
#   9 FLUXERR_APER           RMS error vector for aperture flux(es)                     [count]
#  12 FLUX_RADIUS            Fraction-of-light radii                                    [pixel]
#  13 FWHM_IMAGE             FWHM assuming a gaussian core                              [pixel]
#  14 BACKGROUND             Background at centroid position                            [count]
#  15 THRESHOLD              Detection threshold above background                       [count]
#  16 FLUX_MAX               Peak flux above background                                 [count]
#  17 ISOAREA_IMAGE          Isophotal area above Analysis threshold                    [pixel**2]
#  18 A_IMAGE                Profile RMS along major axis                               [pixel]
#  19 B_IMAGE                Profile RMS along minor axis                               [pixel]
#  20 THETA_IMAGE            Position angle (CCW/x)                                     [deg]
#  21 FLAGS                  Extraction flags                                          
         1    704.3412     16.0457 307.6452480  +6.6899384      7161.11     11237.61     11424.61     78.02477     155.9256     311.8513      1.677     4.27     816.2195     54.95247     919.2751        32     1.508     0.997 -35.26   0
         2    624.4932     15.3307 307.6784561  +6.6875540     3568.813     5572.209     5586.928     78.02477     156.0495     311.7583      1.676     4.26     816.0696     54.95247     474.3967        25     1.440     0.937 -37.17   0
         3    326.6430     14.8558 307.8022525  +6.6777351     977.4899     1369.553     1237.664     78.02477     155.9256     311.7583      1.548     3.69     828.7883     54.95247     168.1992        11     1.093     0.703 -38.95   0
         4    424.6718     11.5918 307.7616246  +6.6823822     6049.597     9582.682     10078.96     77.65234     155.4912     311.6653      1.725     4.08     819.0209     54.95247     735.1042        32     1.537     1.021 -35.79   0
         5     25.7005     11.0755 307.9274406  +6.6691455     7939.145     13282.66     13842.99     77.65234     156.0495     311.6653      1.782     4.20     830.5694     54.95247     1021.854        39     1.636     1.105 -37.85   0
         6    672.1443     10.1596 307.6588272  +6.6912883      976.658     1529.906     1428.812     78.02477     155.9876     311.7893      1.595     5.18     816.0154     54.95247     141.2244        11     1.265     0.599 -51.45   0
         7    500.4992      8.4933 307.7302170  +6.6862114      892.647      1577.08     1999.245     78.14852     156.4206     311.6963      1.828     5.46     816.5452     54.95247     132.0894        11     1.403     0.600 -36.46  16
         8    321.2417      6.4681 307.8047809  +6.6810160     12415.22     19955.15     20783.19     78.02477     155.8636     300.1029      1.746     4.25     829.2223     54.95247     1566.357        43     1.610     1.088 -34.36  16
         9    416.0691      7.1135 307.7653511  +6.6839416     767.0764     1302.376     1664.347     78.27207     156.1733     305.1164      1.795     6.31      819.375     54.95247     112.3511        11     1.244     0.899 -45.61  16
        10     94.8592      6.6569 307.8988513  +6.6733050     2443.696     4321.151     4991.789     78.27207     155.9256     301.6765      1.927     4.57      827.975     54.95247     294.9347        27     1.649     0.983 -35.22  16
        11     86.2463      5.4552 307.9024712  +6.6735104     1612.042      2661.26     3347.336     78.14852     155.9256     290.4153      1.821     4.36     828.1486     54.95247     201.1754        20     1.459     0.893 -41.95  16
        12    789.7374      5.2892 307.6101202  +6.6972425     886.5359     1461.761     1546.426     78.14852     156.0495     288.6465      1.717     4.49     813.1791     54.95247      130.107         9     1.187     0.652 -38.09  16
        13    387.5396      4.4059 307.7772989  +6.6840994     2246.266      3611.75     3709.132     77.52779     155.8016     278.3526      1.679     4.33     822.8691     54.95247     274.4611        19     1.408     0.845 -36.39  16
        14    982.7937      1.8115 307.5300026  +6.7051420     678.9932     946.6729      1122.34     73.29926     130.8561     242.1902      1.368     5.26     807.8821     54.95247     101.4022         8     1.186     0.658 -24.78  24
        15    647.5543      1.3139 307.6693450  +6.6941150     4892.522     5931.164     6147.239      67.6786     123.5637     234.2394      1.190     3.63     815.6113     54.95247     1072.303        14     1.262     0.520  -1.53  24
        16    813.1833      1.1203 307.6005165  +6.6997494     464.1552     930.3168     1142.606     64.61065     120.2342     230.9992      2.196     4.18     812.4078     54.95247     105.1679         6     1.680     0.297   4.60  24
        17     66.3570      1.1319 307.9108830  +6.6746237     370.8224     613.3879     694.3666     65.05779     120.7155     231.1664      1.985     3.95     828.4783     54.95247     97.60284         6     1.621     0.276  -7.05  24
        18    593.6282    997.0947 307.6581756  +6.2811855     1208.118     2012.333     2116.342     78.27207     155.6776     311.6653      1.827     6.17     851.8795     54.95247     173.3799        13     1.403     0.762 -29.00   0
        19    952.4552   1021.8532 307.5083360  +6.2829843     5585.268     9877.618     10000.61     78.39544     146.9277     261.9337      1.879     4.53     847.7369     54.95247     649.9433        38     1.684     1.186 -24.36  24
        20    712.2786   1019.9175 307.6081368  +6.2757423     2791.904     4686.531     6150.693     78.27207     156.1733     286.4958      2.128     8.55     851.8439     54.95247     329.1649        34     2.366     1.055 -19.75  18
        21    237.1066   1021.8287 307.8053843  +6.2589887      1221.02     1802.345     1653.154     78.27207     146.9935     262.2287      1.635     4.58      853.816     54.95247     155.5971        17     1.321     0.902 -26.33  24
        22    525.0236    995.5966 307.6867147  +6.2795010     4033.148     6763.311     7745.553     77.77668     155.6155     311.6033      1.877     4.76     852.5028     54.95247     533.1787        34     1.722     1.120 -16.39   0
        23    634.5986    994.7522 307.6412413  +6.2835273     1357.455     2117.505     2085.546     77.52779     155.5534     311.3241      1.767     5.38     851.6419     54.95247     163.0249        16     1.533     0.743 -42.97   0
        24     59.3691    994.4962 307.8801110  +6.2642824      852.805     1585.068     1060.088     78.27208     155.7396     311.8203      1.896     7.17      850.199     54.95247     124.4386        13     1.453     0.990 -37.98   0
        25    789.3574    994.3687 307.5769884  +6.2888732     571.2483     902.0632     1066.183     77.65234     155.8636     311.6033      1.957     4.51     849.3128     54.95247     97.56879         5     1.243     0.465  -6.43   0
        26    477.9454    991.9015 307.7063887  +6.2794452     2109.984     3241.994     3382.812     78.02477     155.9256     311.9752      1.627     4.25     853.1248     54.95247     263.8063        20     1.454     0.854 -32.50   0
        27    912.3511    984.2516 307.5262527  +6.2971674     38652.49     68075.34     72954.52     78.27208     155.8016     311.7273      1.900     4.27      847.094     54.95247     4320.817        84     1.782     1.387 -30.51   0
        28    219.7463    982.3450 307.8139281  +6.2747049     1770.346     2913.516     2902.649     78.39544     155.8636     311.7583      1.787     4.92      852.558     54.95247     222.1237        21     1.429     0.991 -19.86   0
        29    107.7842    981.2761 307.8604552  +6.2713731      706.239     1061.613     1256.347     77.65234     155.6776     311.6343      1.737     5.10     850.6409     54.95247     107.4395         7     1.061     0.693 -71.88   0
        30    618.4642    980.5889 307.6484184  +6.2888335     971.2408     1468.106     1500.882     77.65234     155.7396     311.6033      1.563     4.72     851.6008     54.95247      144.596        13     1.282     0.766 -36.49   0
        31    758.4941    975.9503 307.5904245  +6.2954436     6272.023     10519.55      11884.7     78.02477     155.8016     311.8823      1.878     4.13     849.6695     54.95247     791.1171        42     1.814     1.138 -45.71   0
        32    810.2815    978.0380 307.5688484  +6.2963164     2075.512      3643.41     3736.238     78.14852     155.9876     311.6963      1.863     4.87     848.3945     54.95247      296.099        25     1.624     0.936 -31.23   0
        33    545.2776    975.2684 307.6789894  +6.2885738     1046.388     1774.687     2135.607     78.27208     156.0495     311.7583      1.832     4.86     851.9536     54.95247     138.4534        11     1.201     0.784 -33.81   0
        34    192.4349    974.4966 307.8255344  +6.2770251      841.601     1687.753     1810.465     78.14852     155.8016     311.9132      2.073     7.05     851.5424     54.95247     121.7098        14     1.630     0.855 -23.20   0
        35    228.2405    974.7022 307.8106594  +6.2781464     1221.634     1993.673     2200.396     78.14852     155.8016     311.9752      1.771     5.11     852.5056     54.95247     163.1283        14     1.511     0.662 -30.24   0
        36     52.8225    972.8280 307.8835633  +6.2730072     2582.206     4398.943     4174.585     77.65234     155.7396     311.6343      1.874     5.04     849.7897     54.95247     320.6487        25     1.621     0.958 -33.76   0
        37    946.7632    970.9526 307.5124088  +6.3038092     6060.508     10769.28     11129.26     78.02477     155.9256     311.6963      1.886     4.31     845.7844     54.95247      719.277        36     1.604     1.163 -37.79   0
        38    628.7291    965.6422 307.6446592  +6.2953489     756.7321     936.4463     1115.878     78.02477     155.9256     311.8203      1.370     4.49     851.3226     54.95247     129.6606         7     0.889     0.645 -37.37   0
        39    920.5908    962.7401 307.5235535  +6.3063245     1980.776     2156.101     2331.612     77.52779     155.8016     311.4792      1.336     5.00     846.0895     54.95247     241.3359        21     1.480     0.968 -44.49   0
        40    641.1717    958.5930 307.6397296  +6.2986767     4421.463     6981.984     7526.351     77.65234     155.7396     311.5723      1.691     4.23     851.0595     54.95247     624.8081        30     1.477     1.012 -33.32   0
        41    253.2643    958.8297 307.8008051  +6.2855421      4139.37     6618.683     6495.445     77.90083     156.0495     311.6963      1.704     4.93     852.2882     54.95247     605.9623        28     1.550     0.935 -30.56   0
        42    780.0179    959.0962 307.5820532  +6.3031232      1105.99     1988.662     1970.514     78.02477     155.7396     311.5723      1.805     6.23     848.6407     54.95247     157.2164        15     1.455     0.782 -17.43   0
        43    989.9742    957.9480 307.4949005  +6.3106233     578.4843     1064.577     929.5373     77.77668     156.0495     311.6653      1.912     5.26     844.0048     54.95247     92.78369         7     1.201     0.650  23.62   0
        44    463.1408    957.0193 307.7137133  +6.2933492     1193.693     1780.253     1549.872     77.77668     155.8016     311.6033      1.622     4.94      852.423     54.95247     191.6973        17     1.471     0.897 -36.34   0
        45     21.9613    955.9526 307.8969498  +6.2789328     1879.723     3436.122     3848.143     78.02477     155.9256     311.5723      1.928     6.03     849.2985     54.95247     242.4625        22     1.562     1.137 -15.56   0
        46    873.2173    954.9500 307.5434886  +6.3079557     896.1859     1676.182     1203.709     77.65234     155.9876     311.5102      1.947     6.90     846.5487     54.95247      130.385        17     1.531     0.993 -53.78   0
        47    944.0229    952.9015 307.5141529  +6.3111704     568.1545     1216.468     962.9516     78.27207     155.6776     311.5723      2.085     4.48     845.0874     54.95247     112.1482         6     1.429     0.399 -61.37   0
        48    964.9421    952.8522 307.5054671  +6.3118903     664.7872     1049.654     920.5734     78.14852     155.9256     311.7583      1.765     4.69     844.5276     54.95247     91.88318         7     1.024     0.610  -0.92   0
        49    565.8669    951.2810 307.6712479  +6.2991685     1666.055     2691.476     2475.155     78.27207     156.1733     311.7893      1.700     4.17      851.629     54.95247     228.4364        18     1.374     0.824 -43.19   0
        50    996.6595    951.1310 307.4923530  +6.3136613     678.6874     1280.627     1505.053     78.27207     155.8636     311.7583      2.445     5.58     843.6218     54.95247     84.73566         8     1.391     0.631 -54.01   0
        51     54.9052    948.2114 307.8835325  +6.2832403     689.9783     1126.219     1431.547     77.90082     155.6155     311.5102      1.632     5.28     849.4563     54.95247     112.0427         8     1.408     0.560 -54.95   0
        52    605.3181    947.2759 307.6549999  +6.3021462     1236.107     2093.555     2105.551     78.39544     156.1733     311.8513      1.686     4.30     851.4699     54.95247      211.301        17     1.400     0.895 -55.39   0
        53    285.1592    944.9539 307.7880297  +6.2923445     1430.294      2194.64     2708.609     78.02477     155.9256     311.6033      1.690     4.80     852.4411     54.95247     208.2867        15     1.344     0.754 -39.32   0
        54    289.1122    952.1483 307.7861450  +6.2895074     899.4706     1515.959     2134.438     78.14852     155.8016     311.8513      2.103     6.00     852.5773     54.95247     128.4609        12     1.435     0.705 -31.73   0
        55    752.1480    941.3076 307.5942254  +6.3095338     911.6398      1296.96     1241.461     78.02477     155.8016     311.9752      1.603     4.68      848.728     54.95247     148.7413        11     1.320     0.582 -31.44   0
        56    889.4475    937.8664 307.5373225  +6.3155521      6310.89     10899.09     11825.65     78.14852     155.8636     311.7583      1.844     4.46     845.7283     54.95247     750.4937        38     1.611     1.153 -31.00   0
        57    425.3777    935.0367 307.7301370  +6.3011557     2212.188     3267.831     3391.871     77.77667     155.6776     311.5413      1.582     4.06     852.3138     54.95247     300.3708        18     1.338     0.820 -39.92   0
        58    326.9550    933.3149 307.7710668  +6.2985564     9087.754     14651.49     15835.32     78.14852     155.8636     311.7583      1.732     4.41     852.3641     54.95247      1213.46        38     1.622     1.024 -36.49   0
        59    247.0192    932.2750 307.8042963  +6.2962950     6933.946     11183.93     11813.12     77.77668     155.8016     311.6963      1.729     4.32     851.5832     54.95247     981.9363        32     1.597     0.956 -31.64   0
        60    165.4933    930.9927 307.8381939  +6.2940780     523.6972     689.3118     934.4449     77.77668     155.6155     311.5723      1.297     3.75     849.8464     54.95247     73.66089         6     1.186     0.341 -40.35   0
        61    575.4189    926.7992 307.6681064  +6.3095968     1189.106     1697.209     1988.075     77.77668     155.4912     311.4792      1.604     5.40     851.3607     54.95247     156.6968        15     1.453     0.740 -48.09   0
        62    759.5261    926.4242 307.5916622  +6.3159259     662.3015     708.8538     632.7707     77.77668     155.7396     311.6963      1.465     4.66     848.1442     54.95247     98.30853         6     1.266     0.486  -4.41   0
        63    905.3598    922.9933 307.5312139  +6.3222252     909.2698     1885.175     2414.172     77.52779     155.6155     311.4482      2.311     6.53     844.8799     54.95247     108.2407        14     1.490     0.802 -15.34   0
        64    861.4005    921.4750 307.5495210  +6.3213810     705.7726     1313.744     1520.603     77.40305     155.3047     311.5723      1.983     4.94       845.98     54.95247       102.34         8     1.554     0.445 -55.90   0
        65    741.5322    915.8977 307.5994890  +6.3196690     1531.526     2702.632     2903.098     78.14852     156.0495     311.7583      1.885     5.38     848.2764     54.95247     246.9243        20     1.733     0.844 -41.44   0
        66    834.9850    916.8030 307.5606483  +6.3224256      458.314     605.0273     371.1308     77.77668     155.5533     311.6033      1.658     5.01     846.4444     54.95247     68.04999         5     1.143     0.622 -88.88   0
        67    565.1914    916.5637 307.6726987  +6.3134793     612.2622     847.0389     197.4379     77.65234     155.6776     311.5413      1.761     5.79     851.1949     54.95247     77.82605         9     1.708     0.553 -33.21   0
        68    972.7195    911.8781 307.5036129  +6.3290673     1124.823     1640.086      2453.39     78.39544     156.1733     311.9132      1.635     5.05     843.0403     54.95247      152.099        15     1.231     0.853 -49.70   0
        69    605.6935    912.5110 307.6560154  +6.3165119     623.1608     1401.361     1517.516     78.14852     156.3589     311.8203      2.147     4.45     850.7739     54.95247     123.0816         7     1.229     0.457 -37.83   0
        70    526.5085    911.6014 307.6889304  +6.3142292     1105.242     1405.745     1266.235     77.40305     155.5534     311.5102      1.498     4.78     851.3168     54.95247     149.5669        12     1.300     0.680 -32.63   0
        71    660.2772    909.4064 307.6334521  +6.3196249     2429.102     4195.985     4558.844     77.77668     155.4291     311.5723      1.832     7.37     849.4254     54.95247     386.2033        21     1.604     0.948 -14.63   0
        72    950.9001    907.8738 307.5128089  +6.3299909     615.1307     1208.387     1526.597     77.65234     156.0495     311.6963      2.279     5.46     843.5016     54.95247     99.77795         7     1.161     0.846 -46.53   0
        73    820.1670    905.7855 307.5671726  +6.3264782     572.9451     1080.614     1359.983     77.77668     155.6776     311.6653      1.932     4.80     846.5179     54.95247     110.3961         6     1.260     0.725  -4.22   0
        74    200.2717    904.2726 307.8246560  +6.3062813     2238.714     3439.749     3694.405     78.39544     156.0495     311.7583      1.672     4.47     850.1144     54.95247     268.5017        19     1.449     0.833 -42.11   0
        75     74.0460    904.7377 307.8770570  +6.3018340     1813.363       2819.6     2679.522     78.02477     155.8016     311.8203      1.638     4.68     849.0091     54.95247     251.7498        18     1.508     0.743 -34.38   0
        76     56.6813    905.3640 307.8842465  +6.3009897     2975.416     4944.253     5127.323     78.14852     155.9876     311.7273      1.782     4.45     849.0091     54.95247     400.6282        25     1.564     0.951 -32.46   0
        77    339.5492    900.1582 307.7669571  +6.3126691     938.8356     1429.931     2027.377     78.14852     155.9256     311.7583      1.727     5.08     851.6249     54.95247     133.8155        10     1.163     0.627 -39.73   0
