#   1 NUMBER                 Running object number                                     
#   2 X_IMAGE                Object position along x                                    [pixel]
#   3 Y_IMAGE                Object position along y                                    [pixel]
#   4 ALPHA_J2000            Right ascension of barycenter (J2000)                      [deg]
#   5 DELTA_J2000            Declination of barycenter (J2000)                          [deg]
#   6 FLUX_APER              Flux vector within fixed circular aperture(s)              [count]
#   9 FLUXERR_APER           RMS error vector for aperture flux(es)                     [count]
#  12 FLUX_RADIUS            Fraction-of-light radii                                    [pixel]
#  13 FWHM_IMAGE             FWHM assuming a gaussian core                              [pixel]
#  14 BACKGROUND             Background at centroid position                            [count]
#  15 THRESHOLD              Detection threshold above background                       [count]
#  16 FLUX_MAX               Peak flux above background                                 [count]
#  17 ISOAREA_IMAGE          Isophotal area above Analysis threshold                    [pixel**2]
#  18 A_IMAGE                Profile RMS along major axis                               [pixel]
#  19 B_IMAGE                Profile RMS along minor axis                               [pixel]
#  20 THETA_IMAGE            Position angle (CCW/x)                                     [deg]
#  21 FLAGS                  Extraction flags                                          
         1      2.0562     78.6989 307.9356445  +6.6320834     550575.1     846808.4     894529.1     75.29565     134.0615     246.0322      1.662    10.08     842.6046     54.89164     62032.05       240     2.067     1.371  87.36  28
         2    620.9265     21.7727 307.6804148  +6.6762159     3552.373     5717.011     6438.646     77.81459     155.6911     311.3513      1.796     5.84     823.1657     54.89164     621.4725        26     2.037     0.718  71.17   0
         3    439.8357     22.9152 307.7556213  +6.6697209     27884.09     35613.29     36173.23     78.06201     155.6911     311.3822      1.325     2.85     827.9753     54.89164      4814.58        40     1.261     0.912  68.96   0
         4    938.5299     13.1195 307.5487316  +6.6903247     1049.735     1341.169     1639.097     78.30865     156.0623     311.4442      1.422     3.43     821.5767     54.89164     171.8914        10     1.035     0.704  77.43   0
         5    689.7679     12.3031 307.6521253  +6.6824122     2164.174     2681.387     2524.118     78.18543     155.6292     311.5061      1.197     2.66      822.552     54.89164     354.7419        14     1.087     0.674  81.32   0
         6    255.5276      7.4731 307.8327167  +6.6699541      905.159     1134.891     1163.635     78.30865     155.8768     307.2363      1.117     3.78     835.7853     54.89164     181.7386         7     0.962     0.460  76.75  16
         7    200.9194      8.2259 307.8553809  +6.6678212     936.5629     1043.381     1356.004      77.9384     155.5672     310.9484      1.274     3.28     835.6509     54.89164     194.5864         8     0.999     0.622  36.54   0
         8    177.8780      5.4774 307.8650463  +6.6681867     12957.94     16440.25     16919.01     78.30865     156.0005     290.3929      1.355     2.86      835.579     54.89164     2110.595        30     1.260     0.890  68.28  16
         9    923.5353      2.8649 307.5553027  +6.6940618     4648.602     6052.007     6206.242     78.06201     143.8454     257.8575      1.357     2.92      821.837     54.89164     711.0717        22     1.209     0.881  68.85  24
        10    522.0690      3.5610 307.7220980  +6.6804479     3660.111     4726.096     4984.109      77.9384     150.4632     267.3668      1.354     2.92     823.6265     54.89164     663.9026        20     1.195     0.827  78.81  24
        11    460.3381      2.1808 307.7477940  +6.6789636     2219.437      2615.65     2312.104     76.18675     135.6346     247.5948      1.278     3.67     826.3307     54.89164     390.8041        14     1.061     0.780  73.94  24
        12    724.4197      1.8572 307.6380743  +6.6878753      2216.85     2571.578     2658.223       73.743     131.3735     242.4794      1.119     2.76     821.8572     54.89164     435.4299        12     0.869     0.762  64.01  24
        13    988.5477      1.1018 307.5283464  +6.6969424      573.898     652.4561     907.8098     64.68835     120.1814     230.6181      0.998     3.04     818.4288     54.89164      162.993         5     0.949     0.296  -3.95  24
        14    710.9594   1002.1729 307.6104155  +6.2744361     1116.554     1930.526     2353.917     77.69058     155.5672     311.2584      1.777     4.34     854.1747     54.89164     135.3222        13     1.162     0.788 -72.41   2
        15    964.4313   1021.9063 307.5045220  +6.2746878     677.1315     1147.927     1323.647     78.18543     146.1726     261.0535      2.029     5.47     849.2011     54.89164     91.15491         7     1.272     0.662 -76.70  24
        16    757.6741   1023.4634 307.5903133  +6.2671955      537.393     657.3065     537.1676     70.67179     126.8935     237.5787      1.162     4.17     852.9309     54.89164     118.9038         6     0.869     0.572  38.48  24
        17    582.2420   1022.5717 307.6631788  +6.2617411     160762.8     214284.1     218361.4     77.69058     138.7966     251.3821      1.479     3.32     856.1897     54.89164     20535.16        61     1.335     1.138  27.95  27
        18    584.0103   1015.6719 307.6626741  +6.2646485     74952.37     114011.4       120162     77.56638     155.3812     311.2584      1.621     3.34     856.0956     54.89164     9365.335        77     1.544     1.252  63.44  19
        19    492.3054   1023.0242 307.7005030  +6.2585654       552.85     760.4955     379.7224      74.9105     132.9058     244.3412      1.440     4.24     856.7588     54.89164      90.0351         6     0.932     0.551  -0.75  24
        20    215.8522   1023.8338 307.8152493  +6.2490271     825.2922     870.2246     1251.401     65.57656     121.0606      231.536      0.981     2.54     854.3342     54.89164     246.6611         6     0.961     0.371  -1.64  24
        21    716.3204    999.7640 307.6082697  +6.2756085     2699.756     4227.993     4934.376      77.9384     155.8149     311.4132      1.751     3.72     854.0604     54.89164     322.3813        23     1.301     1.057  84.61   2
        22    240.9704   1001.8184 307.8055560  +6.2589535      1402.35     1872.145     1937.513     77.69058     155.5672     311.3513      1.431     3.79     854.6844     54.89164     183.8734        11     0.895     0.868  86.41   0
        23    439.4478   1000.4025 307.7232013  +6.2661470     1014.858     1402.936     1089.345     77.44197     155.4432     311.0104      1.529     3.64     856.3045     54.89164      150.321        11     0.946     0.835  24.75   0
        24    732.2598    998.9305 307.6016795  +6.2764814      1070.53     1556.268     1352.325     78.18543      155.753     311.3822      1.460     4.22      853.721     54.89164     159.4843        12     1.058     0.812  64.47   0
        25    363.0856    997.0931 307.7550152  +6.2649720     1781.717     2777.478     3240.404      77.9384     156.1858     311.5061      1.814     3.83     856.3411     54.89164     247.9108        17     1.249     0.893  79.61   0
        26    973.2413    994.5155 307.5017714  +6.2862881     664.9299      859.621     532.8432     78.06201     155.6292     311.3822      1.544     5.58     848.9178     54.89164     88.70312        10     1.123     0.782  12.83   0
        27    701.1849    993.7056 307.6147551  +6.2776076     592.2024     805.2171     1105.823     77.81459     155.5052     311.2274      1.473     4.37     854.3425     54.89164     96.81909         5     0.752     0.723  54.67   0
        28    749.8022    986.7772 307.5947996  +6.2820809     7941.146     12261.67     12594.25     77.69058     155.4432     311.2274      1.651     3.45     853.1787     54.89164     984.5573        34     1.437     1.107  66.58   0
        29    545.3198    987.3732 307.6796790  +6.2750464      4559.02      6826.62     6830.852      77.9384     155.5672     311.4442      1.643     3.55     856.0311     54.89164     533.1488        27     1.339     1.052  68.92   1
        30    515.6396    988.6863 307.6919581  +6.2735178      1134.18     1476.581     1410.133     78.06201      155.753     311.4132      1.397     3.77     856.1673     54.89164     151.1697        13     1.044     0.819  40.73   0
        31    295.5318    986.1795 307.7834256  +6.2672281        15959     23234.71      25080.2     77.69058     155.6911     311.2893      1.598     3.15     855.5579     54.89164     2081.944        52     1.557     1.348 -50.66   0
        32    419.6256    986.7391 307.7318862  +6.2711285     1051.959      1385.08     1250.245     77.69058      155.753     311.3513      1.522     4.45     856.0099     54.89164     131.6259        12     1.118     0.773 -73.21   0
        33    810.8745    985.8250 307.5694742  +6.2844989     971.5231     1486.846     1326.518     77.69058     155.5672     311.3513      1.524     4.83      851.408     54.89164     120.7195        11     1.031     0.851  21.00   0
        34    266.8847    984.3275 307.7953808  +6.2670382     1061.527     1572.133     1678.597     78.18543     156.0623     311.4442      1.667     3.79     854.9189     54.89164     139.2731        11     1.023     0.719 -72.43   0
        35    911.1410    980.1675 307.5280311  +6.2901563     8022.104     13879.98     14850.46      77.9384     155.8149     311.3822      1.850     4.04     850.2274     54.89164      887.134        45     1.625     1.270  68.92   0
        36    455.9676    983.1485 307.7169173  +6.2738199     427.8245     303.9261     207.6324      77.9384     155.8149     311.3513      1.263     4.46     856.1021     54.89164     100.2168         6     0.934     0.606  16.78   0
        37    542.4722    979.6721 307.6811175  +6.2781312     9267.478      13042.8     14121.44     78.30865     155.8768     311.4132      1.564     3.17      855.963     54.89164     1181.602        34     1.376     1.034  64.82   0
        38    597.6902    977.1526 307.6582753  +6.2810059     1334.478     1995.825     2095.417     78.06201     155.6292      311.537      1.674     5.24     855.5457     54.89164     176.7867        16     1.548     0.750  89.51   0
        39    884.8685    976.3315 307.5390667  +6.2908701     11607.82      20103.7     21464.06     78.06201     155.8768     311.3822      1.892     4.02     850.5991     54.89164     1365.653        57     1.648     1.470  37.42   0
        40   1006.6466    975.6276 307.4885270  +6.2951916     4143.272     7507.537     7721.885     77.69058     155.8149     311.3203      1.909     4.51     848.0795     54.89164     460.0324        35     1.444     1.343  60.02   0
        41    528.8693    975.4657 307.6869053  +6.2794158     4381.715     6323.354     7112.368     78.06201     155.8149     311.4132      1.571     3.20     855.9454     54.89164     602.2004        24     1.239     0.988  67.09   0
        42    638.5728    974.7183 307.6413821  +6.2833686     1389.034     2062.001     2136.557      77.9384     155.5672     311.3513      1.618     4.00     855.1069     54.89164     192.4565        15     1.207     0.846  63.63   0
        43     63.6937    974.2742 307.8800747  +6.2644110     990.2613     1362.943     1842.158      77.9384     155.8768     311.3822      1.671     3.20      851.209     54.89164     144.7356        10     0.896     0.778  72.03   0
        44    481.8984    971.9260 307.7065248  +6.2793156     2339.853     3287.684      2780.83     77.69058     155.8149     311.3822      1.462     3.16     856.0411     54.89164      310.722        17     1.105     0.926  66.58   0
        45    916.4958    963.8470 307.5263487  +6.2970718     41738.18     68726.45     72365.81      77.9384     155.6292      311.568      1.802     3.92     850.0804     54.89164      4518.75        68     1.634     1.314  65.63   0
        46    223.9131    962.2870 307.8139571  +6.2747054     1795.646     2533.521     2383.259     77.81459     156.0005     311.5061      1.497     3.30     853.4481     54.89164     286.0519        18     1.265     0.854  54.71   0
        47    111.5423    961.6366 307.8606320  +6.2712257     648.8302     1046.658     1153.033     78.06201      155.753     311.4132      1.722     3.50     851.1779     54.89164     113.4791         6     0.967     0.622  28.50   0
        48    622.5824    960.4251 307.6484964  +6.2887388      1013.89     1431.531     559.2977     77.81459     155.5672     311.3513      1.587     4.31     855.1161     54.89164     139.4218        11     0.987     0.848  84.74   0
        49    814.3433    957.7099 307.5689669  +6.2962216     2328.886     3669.482     4274.637      77.9384     155.6911     311.5061      1.699     4.03     851.3583     54.89164     287.6746        20     1.305     0.953  72.53   0
        50    762.6320    955.5902 307.5905081  +6.2953824     6898.339     10681.59     12066.75     77.56638     155.5052     311.2584      1.742     3.57     852.7369     54.89164     867.3363        38     1.643     1.140  87.73   0
        51    549.2606    955.3054 307.6791097  +6.2884168     1136.223     1614.427     1662.558      77.9384      155.753     311.5061      1.584     5.33      855.645     54.89164     148.5803        12     1.089     0.795  70.18   0
        52    232.1029    954.8810 307.8108040  +6.2780360     1633.965     2328.086     2198.181      77.9384     156.0623     311.4442      1.552     3.86     853.4901     54.89164     218.0784        14     1.127     0.845  66.53   0
        53    196.5819    954.6314 307.8255599  +6.2769547     886.1696     1236.747     1392.289     77.69058     155.5672     311.2893      1.555     5.11     852.5291     54.89164     127.3579         9     1.117     0.662  50.64   0
        54     57.0212    953.0583 307.8835542  +6.2729471     2872.346     4376.156         4463     77.69058     155.6292     311.2274      1.578     3.27     850.9643     54.89164      396.785        23     1.297     1.004  71.61   0
        55    950.8944    950.6633 307.5125030  +6.3036537     6124.278      10653.7     10966.87      77.9384     155.8768     311.4751      1.863     4.07     849.3395     54.89164     661.7278        37     1.530     1.230  65.30   0
        56    207.2910    946.7115 307.8213781  +6.2805815     636.6118     623.4845     582.7796     78.06201     156.2475     311.5061      1.295     3.92     852.6879     54.89164      116.624         6     1.109     0.396  77.62   0
        57    633.1664    945.1827 307.6446087  +6.2953833     834.0612     1112.676     826.9591     77.69058     155.5672     311.2584      1.319     4.17     854.8425     54.89164     140.3655         8     1.067     0.689 -72.71   0
        58    924.9278    942.3212 307.5235612  +6.3062383     2044.145     3433.931     3677.228     78.30865     156.0005     311.3822      1.848     4.10     849.8441     54.89164     258.1055        22     1.342     1.056  54.80   0
        59    257.4708    938.7343 307.8008106  +6.2855477     4805.946     6405.495     6531.982     78.06201     155.8149     311.4132      1.452     2.94     853.6804     54.89164     649.5424        23     1.248     0.916  71.70   0
        60    784.1324    938.7434 307.5821402  +6.3030508     1431.781     2202.232     3006.714     78.18543     155.6911     311.3822      2.036     4.04     852.0473     54.89164     176.2603        18     1.310     0.920  40.72   0
        61    645.2587    938.3027 307.6398165  +6.2986252     5054.598     7185.575     7552.998     77.81459      155.753      311.537      1.563     3.34     854.6443     54.89164     644.9718        27     1.338     0.994  64.02   0
        62    994.4377    937.5693 307.4948568  +6.3105008     559.2072     1023.352     1068.749     77.69058     155.5052     311.2584      2.205     5.37     848.3923     54.89164      73.8418         7     1.197     0.679 -13.25   0
        63     26.1844    936.5229 307.8969096  +6.2787438     2243.895     3302.789     3740.722     77.69058     155.4432     311.2893      1.651     3.19     850.7778     54.89164     331.9153        17     1.109     0.943  83.19   0
        64    467.5264    936.6189 307.7136676  +6.2934145     1216.319     1511.089     1338.458     77.69058     155.6911     311.3203      1.462     3.14     855.4354     54.89164     180.7244        12     1.010     0.785  60.22   0
        65    877.0836    934.7106 307.5436792  +6.3077961     872.2829     1185.542      1178.75     77.81459     156.0005     311.5061      1.569     5.64     850.5452     54.89164     104.0698        11     1.177     0.761 -52.77   0
        66    293.4495    932.4813 307.7860813  +6.2893281     867.1976     1245.597     1661.696     78.06201     155.8149     311.4442      1.413     3.22     854.2197     54.89164       142.11         9     1.031     0.623  59.84   0
        67    570.0969    930.8841 307.6712709  +6.2991918     1813.079     2518.687     2521.774     78.06201      156.124     311.4751      1.502     3.67      855.218     54.89164      233.941        16     1.218     0.850  58.95   0
        68   1001.2188    930.8913 307.4922623  +6.3134823     750.8951     1275.708     1451.819      77.9384     155.5052     311.2893      1.723     5.44     848.2485     54.89164     94.48151        10     1.216     0.725  38.53   2
        69    948.5794    931.3718 307.5141035  +6.3115419     647.5582     882.8433     726.6075     77.56638     155.5672     311.3822      1.316     4.19     849.3203     54.89164     111.0668         7     0.902     0.629  22.23   0
        70    609.0771    927.1227 307.6552111  +6.3020396     1334.578     2054.991     1601.272     78.30865     156.0005     311.4751      1.562     3.82     854.8292     54.89164      176.557        15     1.176     0.901  76.45   0
        71     58.7286    928.1957 307.8836766  +6.2832686     873.5386     1467.421     2131.783     77.69058     155.3812     311.2584      1.705     3.34     850.6609     54.89164     146.4774        11     0.932     0.866 -50.20   0
        72    288.9144    924.9766 307.7882146  +6.2922754     1531.419     2178.437      2191.02     78.06201     155.5052     311.2893      1.511     3.51     853.9725     54.89164     235.4644        16     1.276     0.771  57.98   0
        73    557.1331    923.2236 307.6769084  +6.3019237     708.1292     911.4949      491.961     77.69058     155.6911     311.3513      1.316     4.48     855.0435     54.89164     106.1658         8     1.111     0.513  57.52   0
        74    755.8738    920.5905 307.5944762  +6.3096084      891.486     1380.123     1369.213     77.69058     155.3812     311.2893      1.633     5.29     852.8498     54.89164     139.8653        11     1.261     0.857 -88.22   0
        75    893.5453    917.5190 307.5374140  +6.3154392     7127.303     11006.71     11415.84     78.06201      155.753     311.4442      1.717     3.64     850.1417     54.89164     794.6361        36     1.485     1.139  62.22   0
        76    131.6122    919.2748 307.8537150  +6.2893844     628.0909     832.3583     1322.917     77.56638     155.4432     311.1964      1.244     2.39     850.8687     54.89164     122.9835         5     0.705     0.449 -69.63   0
        77    429.3971    914.9262 307.7302214  +6.3011021     2465.821     3512.207     3640.121     77.56638      155.257     311.2893      1.463     3.02     854.7749     54.89164     366.6069        20     1.195     0.943  65.65   0
