#   1 NUMBER                 Running object number                                     
#   2 X_IMAGE                Object position along x                                    [pixel]
#   3 Y_IMAGE                Object position along y                                    [pixel]
#   4 ALPHA_J2000            Right ascension of barycenter (J2000)                      [deg]
#   5 DELTA_J2000            Declination of barycenter (J2000)                          [deg]
#   6 FLUX_APER              Flux vector within fixed circular aperture(s)              [count]
#   9 FLUXERR_APER           RMS error vector for aperture flux(es)                     [count]
#  12 FLUX_RADIUS            Fraction-of-light radii                                    [pixel]
#  13 FWHM_IMAGE             FWHM assuming a gaussian core                              [pixel]
#  14 BACKGROUND             Background at centroid position                            [count]
#  15 THRESHOLD              Detection threshold above background                       [count]
#  16 FLUX_MAX               Peak flux above background                                 [count]
#  17 ISOAREA_IMAGE          Isophotal area above Analysis threshold                    [pixel**2]
#  18 A_IMAGE                Profile RMS along major axis                               [pixel]
#  19 B_IMAGE                Profile RMS along minor axis                               [pixel]
#  20 THETA_IMAGE            Position angle (CCW/x)                                     [deg]
#  21 FLAGS                  Extraction flags                                          
         1    178.1761     16.2986 307.8653334  +6.6681814     6211.533     14414.17     17132.55     90.10088     179.2042     358.6584      2.480     6.07     1142.363     63.25712     666.7556        62     2.169     1.565 -23.82   0
         2    522.7718     14.3877 307.7221211  +6.6804941     1611.829     3811.041     4576.427     89.38749     179.2756     358.7655      2.556     8.64     1117.481     63.25712     185.6202        32     2.102     1.196 -28.97   0
         3    923.6121     13.9129 307.5554654  +6.6940427     2874.792     5948.736      6575.27     89.53062     179.2042     358.7298      2.118     5.84     1105.954     63.25712     338.9572        29     1.759     1.056 -22.97   0
         4    724.3357     12.4850 307.6383752  +6.6880011      1116.52     2259.162     2247.825     90.10088     179.6324     358.9082      2.107     7.69     1111.482     63.25712     135.9142        17     1.601     1.034 -58.02   0
         5    461.0372     11.9969 307.7478713  +6.6794198     904.3389     2134.273     2388.953      88.9567     179.2042     358.6584      2.401     7.74      1119.94     63.25712      163.178         9     1.548     1.081 -14.46   2
         6    988.3224     10.1225 307.5286860  +6.6977581     1588.081     3020.979     3219.239     90.24289     179.7749     358.9796      2.091     5.30     1097.149     63.25712     182.5552        23     1.424     1.203 -28.98   0
         7    707.8494      6.7052 307.6454264  +6.6898383     4546.151     10127.45     11591.17     89.81621      179.347     347.7462      2.333     5.99     1111.855     63.25712     473.9429        50     2.067     1.385 -22.38  16
         8    628.1111      5.9004 307.6786094  +6.6875129     2062.393     4964.867      5550.94     89.95866     179.9885     339.3979      2.398     7.92     1113.282     63.25712     227.8992        37     2.018     1.324 -15.81  16
         9    428.0332      2.7743 307.7619078  +6.6821251     3506.597     7284.189     7986.729     89.38748     164.2932      295.383      2.161     6.56     1123.847     63.25712     397.2468        37     1.996     1.219 -19.41  24
        10     29.1088      2.5344 307.9277805  +6.6688666     5266.932     9539.205     10517.74     89.81621     161.6216     291.4994      1.966     5.65     1145.055     63.25712     601.7668        38     2.000     1.115 -16.05  24
        11    295.0873    996.8467 307.7833512  +6.2672316     11379.04     21908.72     25544.27     89.95866      179.347     358.8725      2.174     5.09     1178.791     63.25712     1438.228        61     2.222     1.208 -26.44   0
        12    716.6330   1022.6338 307.6073394  +6.2706461     6044.427     10088.61     11302.74      88.9567     158.8245     288.4525      1.825     5.59     1171.036     63.25712     785.0032        32     1.841     0.921 -19.06  26
        13    708.6977   1022.0265 307.6106569  +6.2706327     1265.085     2166.953     2621.553     90.10088     166.9221     298.6594      1.951     5.52     1171.126     63.25712     170.1278        14     1.372     0.743  -6.26  19
        14    584.9330   1023.7516 307.6620184  +6.2657975     6343.852     9561.358     11010.28       76.914     141.2434     268.5442      1.470     4.77     1176.855     63.25712      1798.52        24     2.023     0.503   2.09  24
        15    572.6693   1021.8099 307.6671794  +6.2661905     3281.505     5998.353     6523.306     89.38749     169.5102     302.2817      1.915     5.13     1176.568     63.25712     418.4541        31     1.785     1.062 -19.68  24
        16    431.5465   1022.7427 307.7257785  +6.2610975     3122.328     5183.628     6307.488     89.10052     157.6105     286.9392      1.867     5.28     1175.874     63.25712     391.6222        29     1.881     0.912 -13.22  24
        17    419.6202    997.1326 307.7316032  +6.2712738     912.4949     1620.553     1288.099     89.53062     179.4898     358.8012      1.800     4.05     1175.562     63.25712     145.9139         6     0.930     0.570 -27.92   0
        18    910.7209    990.8553 307.5277751  +6.2902228     7704.025        13211     14503.44     90.10088     179.4898     358.9082      1.811     4.96     1165.991     63.25712     1147.728        39     1.930     0.961 -20.52   0
        19    541.9537    990.2859 307.6810101  +6.2781828     6588.388     12108.45     13243.96     89.95866     179.4184     358.8725      1.966     4.85     1174.991     63.25712     792.9391        38     1.818     1.103 -23.19   0
        20    884.2889    987.0344 307.5388865  +6.2909221     10815.93     19066.13     20834.97     90.10088     179.4184     358.8725      1.905     5.09     1166.696     63.25712     1437.207        46     1.981     1.005 -22.98   0
        21   1005.7994    986.5193 307.4884174  +6.2951708     4501.837      7408.52     7813.654     89.10052     178.8466      358.587      1.747     5.02     1160.882     63.25712     658.0105        30     1.775     0.887 -28.30   0
        22    597.0136    987.3609 307.6582334  +6.2812261     1248.071     2281.466      2565.39     89.38748     179.2756      358.587      1.847     4.88     1174.702     63.25712      199.772        17     1.303     1.077 -28.73   0
        23    528.1234    986.2791 307.6868921  +6.2793760     3227.609     6105.609     6811.593     90.24289     179.7749     358.9796      1.971     5.06     1174.943     63.25712      383.799        31     1.782     1.047 -26.66   0
        24    638.0201    985.2439 307.6412678  +6.2834667     1095.948      1964.49     2230.705     89.38748      179.347     358.6941      1.972     5.48     1172.602     63.25712     178.5245        14     1.626     0.742 -27.10   0
        25    481.8572    982.4479 307.7062445  +6.2794145     1662.035     3177.103     3344.217     89.95866     179.4898     359.0152      2.094     7.41     1175.132     63.25712     209.1539        25     1.903     1.047 -25.19   0
        26    916.0402    974.5596 307.5261159  +6.2971282     38021.54     66358.17     71482.93     89.67352     179.6324     358.7298      1.877     5.10     1164.717     63.25712     5290.772        67     1.954     1.073 -25.38   0
        27    223.4427    973.2378 307.8139196  +6.2745838     1374.116     2555.388     2265.685     89.67353     179.4898     358.7298      1.911     5.33     1178.035     63.25712     187.7401        15     1.192     1.066   4.93   0
        28    621.6093    971.4988 307.6485522  +6.2885954      778.061     1140.553      1289.25     89.67353     179.0612     358.6584      1.441     4.21     1172.783     63.25712     111.2925         6     1.082     0.467  10.49   0
        29    813.8361    968.3413 307.5687913  +6.2962985     1850.418     3203.994     3330.124     89.95866     179.4898     358.8725      1.848     5.27     1167.666     63.25712     249.6177        18     1.746     0.725 -22.15   0
        30    762.2220    966.2265 307.5903081  +6.2954546     5488.775     9883.154     11173.88     89.38748     179.2756     358.8012      1.910     4.64     1168.103     63.25712     789.3163        38     1.866     1.045 -19.12   0
        31    231.6791    965.4745 307.8107619  +6.2780648     1058.873     2014.964     1964.546     90.24289     179.7749     358.9439      1.996     6.31     1177.733     63.25712      137.472        11     1.462     0.764  -8.34   0
        32     56.5356    963.5844 307.8835905  +6.2729817     2215.445      4115.71     4055.463     89.38749      179.347     358.7298      1.978     5.64     1177.996     63.25712     284.3041        31     1.935     1.114 -21.97   0
        33    950.3387    961.3043 307.5123129  +6.3037409     6158.192     10234.28     10595.22     89.67353     179.5611     358.9439      1.785     4.97     1162.516     63.25712     862.5837        33     1.871     0.881 -27.07   0
        34    924.1036    952.9348 307.5234965  +6.3063254     1765.473     3042.039     3154.938     89.95866     179.6324     358.9082      1.767     5.34     1162.912     63.25712     245.8721        21     1.715     0.849 -28.72   0
        35    644.8389    949.0903 307.6396602  +6.2986220     3622.928     6377.707     6480.387     89.95866     179.4184     358.9082      1.873     4.79     1170.258     63.25712     480.5502        29     1.704     0.997 -26.47   0
        36    257.2101    949.1898 307.8007088  +6.2856426     3266.717     6212.867     6958.425     89.53062     179.2756     358.8012      2.084     5.20     1177.112     63.25712     408.2236        37     1.917     1.152 -21.08   0
        37    782.9827    949.6644 307.5822428  +6.3029841     1012.393     1481.456     1308.932     89.38748     179.4184     358.6941      1.458     3.11     1167.351     63.25712     157.6869         7     0.744     0.648 -10.86   0
        38     25.8240    947.1357 307.8969105  +6.2787440      1551.49     3371.544     3880.468     89.53062     179.4898     358.7655      2.272     7.56     1177.546     63.25712     186.7333        26     1.924     1.075 -25.22   0
        39    466.2319    947.8064 307.7139125  +6.2931967     895.0549     1432.229     1542.152     89.24412     179.2756     358.6227      1.739     5.12     1174.245     63.25712      148.764         9     0.978     0.862  88.11   0
        40    876.1011    945.7525 307.5436844  +6.3076959     713.3195     1022.437     1427.285     89.95866      179.347     359.0865      1.415     5.34     1164.258     63.25712     119.2273         9     1.314     0.612 -34.57   0
        41    946.6132    942.6409 307.5144916  +6.3113236     632.8096     1235.325     1158.454     89.38749     179.2756      358.587      1.608     3.72      1161.61     63.25712     126.1523         5     1.294     0.308 -44.87   0
        42   1000.7687    941.2398 307.4920369  +6.3137005     658.8445      1526.21     2103.651     89.53062     179.2756     358.6941      3.453     5.33     1160.304     63.25712     123.3455         8     1.725     0.465 -38.67   0
        43    569.0881    941.3707 307.6713957  +6.2992850     1274.487     2532.427     2547.424     90.10088     179.2042     358.7298      2.003     5.93     1172.518     63.25712       165.33        17     1.723     0.802 -24.64   0
        44     57.0417    938.6385 307.8842307  +6.2832986     550.2132     1330.301     1626.453     89.67352     179.4898     358.7298      2.488     4.80     1177.067     63.25712     86.88721         5     1.362     0.480   1.27   0
        45    607.4579    937.6514 307.6555795  +6.3020997     812.5428       1482.4     1459.083     89.95866     179.4898     358.8725      1.755     2.54     1171.334     63.25712     189.1213         5     0.907     0.412  15.09   2
        46    288.5901    935.4084 307.7881402  +6.2923821     1232.893     2410.041     2958.402     89.38749     179.2756     358.7655      2.130     5.03     1176.583     63.25712     209.4827        12     1.225     1.022  19.94   0
        47    755.5457    931.7310 307.5942500  +6.3094761     738.3523     1113.562     782.8222     89.95866     179.4184     358.7655      1.611     4.61     1166.642     63.25712     101.4856         7     0.914     0.659 -19.77   0
        48    892.9924    928.2297 307.5372586  +6.3154927     6151.653     10530.85     11102.75     89.38749     179.2756     358.6227      1.814     4.83     1162.415     63.25712     827.7697        39     1.883     1.026 -25.32   0
        49    429.1140    925.5247 307.7300912  +6.3011579     1529.947     2950.403     2894.108     90.10088     179.8461     358.9439      1.896     7.04     1174.815     63.25712     203.9354        24     1.846     0.913 -24.54   0
        50    330.6800    923.9247 307.7710433  +6.2985306     6996.552     13557.03     15221.41     90.24289     179.7749     359.0152      2.123     4.97     1176.039     63.25712      877.161        50     2.039     1.236 -23.35   0
        51    250.7640    923.0059 307.8042779  +6.2962383     5194.137     10354.58     11002.98      88.9567     179.2042     358.6227      2.098     4.92     1176.319     63.25712     668.4418        44     1.911     1.232 -25.48   0
        52    577.7001    916.7030 307.6686541  +6.3097576     753.1564     1381.796     1516.462     89.95866     180.0596     358.6941      1.945     4.23     1171.192     63.25712     127.6829         6     1.295     0.394  38.35   0
        53    908.7280    913.4401 307.5312203  +6.3221225     985.2695      1875.36     2458.526     89.81621     179.4898     358.9439      2.374     6.42     1161.053     63.25712     129.4583        11     1.607     0.721 -20.37   0
        54    864.1528    911.8036 307.5497973  +6.3213167     749.5694     1104.502     368.5665     89.24412     179.2042     358.4798      1.628     5.71     1162.651     63.25712     123.6786         7     1.139     0.807   7.71   0
        55    745.2081    906.2686 307.5994075  +6.3196458     1262.438     2205.205     2631.302     89.38749     179.2042     358.7655      1.834     5.01     1165.324     63.25712     197.4138        16     1.603     0.657 -22.40   0
        56    530.1833    902.4802 307.6888799  +6.3140458     891.6643     1963.167     2568.474     89.53062     179.1327     358.6941      2.310     5.13     1172.008     63.25712     130.9521        10     1.333     0.559 -25.66   0
        57    976.5537    901.7248 307.5034335  +6.3292129     982.0355     1505.495     2291.245     89.81621     179.5611     358.8725      1.846     5.35     1158.935     63.25712     155.1884         9     1.266     0.639 -27.07   0
        58    609.0413    902.3958 307.6561171  +6.3167098     714.6927     1238.087     740.1937     89.10052     179.1327     358.6227      1.920     4.45       1169.5     63.25712     125.6083         6     1.278     0.441 -10.17   0
        59    663.4929    899.7911 307.6335804  +6.3195996     2055.875     3609.878     4269.721     89.53062     179.0612     358.6584      1.949     6.62     1167.582     63.25712     301.6694        26     1.996     0.929 -22.62   0
        60    955.1064    897.0106 307.5125046  +6.3304472     616.5375     1272.572     2120.022     89.53062     179.0612     358.6227      2.432     4.43     1159.079     63.25712      107.776         6     1.369     0.409 -18.15   0
        61     60.2257    896.2072 307.8843544  +6.3009248     2149.072     4235.448     4700.521     89.38748      179.347     358.6941      2.088     5.21     1176.425     63.25712     279.5261        24     1.590     0.991 -17.33   0
        62    823.8625    896.0950 307.5670699  +6.3264634     690.2256     1263.761      1288.76     89.81621     179.5611     358.9082      1.841     5.87     1163.405     63.25712     140.5344         8     1.666     0.581 -29.45   0
        63    203.9444    895.0616 307.8246816  +6.3062101     1606.414     3153.246     3731.839     90.10088     179.4898     358.8725      2.093     6.00     1176.176     63.25712      196.575        22     1.591     1.007 -25.05   0
        64     76.8470    896.2036 307.8774489  +6.3014832     1163.813     1948.337     1959.093     89.24412     179.2042     358.4799      1.710     5.64     1176.292     63.25712     170.0885        12     1.207     0.952 -12.69   2
        65     80.3564    894.6844 307.8760425  +6.3022280      685.842     1128.083     1274.499     89.95866     179.4184     358.8369      1.786     4.13     1176.255     63.25712     126.9843         5     1.135     0.430 -83.63   3
        66    941.9846    895.0342 307.5180238  +6.3308274      512.658     809.7127     1184.929     89.53062     179.2042     358.7298      1.873     3.76     1159.228     63.25712     80.51917         5     1.034     0.392 -32.01   0
        67    341.8380    891.3633 307.7675143  +6.3123481     785.4218     1203.693      1390.72     89.67352      179.347     358.6941      1.893     6.11     1175.704     63.25712     90.59314         9     1.113     0.944   6.97   0
        68    237.9223    891.4980 307.8106857  +6.3088183     680.9919      813.219     366.2706     89.53062     179.7749     358.8725      1.377     4.59     1176.297     63.25712     104.7634         5     0.994     0.602 -78.92   0
        69    658.3638    888.9016 307.6360807  +6.3239251     5267.723     9757.661     10005.25     89.95866      179.347     359.0865      1.960     4.90     1167.395     63.25712     716.1493        38     1.896     1.073 -26.43   0
        70     32.3285    886.2902 307.8962830  +6.3040845      827.118     1471.517     1245.659     89.81621     179.7749     358.8725      2.188     5.34     1176.627     63.25712     115.9637         7     1.138     0.706 -45.62   0
        71     18.5431    886.9341 307.9019885  +6.3033565     915.7032     1771.826     1411.407     90.10088     179.4184     358.8725      1.875     6.17     1176.758     63.25712     134.7024         9     1.456     0.736  -4.39   0
        72    896.0230    884.9879 307.5374615  +6.3334486     2451.506     4383.145     4418.333     89.53062     179.2756     358.7655      1.894     5.08     1160.092     63.25712     361.8445        24     1.744     0.862 -24.13   0
        73    341.3536    882.1873 307.7680276  +6.3161207      11429.7     22889.27      26358.6     89.24413     179.2756     358.6227      2.195     5.06     1175.647     63.25712     1418.044        60     2.082     1.316 -23.02   0
        74     76.3316    882.9262 307.8781155  +6.3069480     1036.682     2173.434     2379.807     90.10088     179.6324     358.8369      2.177     7.64     1176.145     63.25712     143.1869        18     1.916     0.852 -17.37   0
        75    212.0490    881.5571 307.8217740  +6.3120573     920.0347     1688.213      1401.34     89.95866     179.4184     358.8012      1.865     6.51     1176.189     63.25712     131.4351        10     1.352     0.924  15.32   0
        76    104.7390    872.9542 307.8666527  +6.3120170     1259.779     2585.381     3025.413     89.81621      179.347     358.9439      2.409     7.00     1175.745     63.25712     170.0964        18     1.499     0.976 -27.72   0
        77    418.8914    872.9482 307.7361247  +6.3225256     729.1873     1269.212     1707.619     89.81621     179.2756     359.0509      1.969     4.17     1172.846     63.25712      121.201         6     1.214     0.409 -37.19   0
