#   1 NUMBER                 Running object number                                     
#   2 X_IMAGE                Object position along x                                    [pixel]
#   3 Y_IMAGE                Object position along y                                    [pixel]
#   4 ALPHA_J2000            Right ascension of barycenter (J2000)                      [deg]
#   5 DELTA_J2000            Declination of barycenter (J2000)                          [deg]
#   6 FLUX_APER              Flux vector within fixed circular aperture(s)              [count]
#   9 FLUXERR_APER           RMS error vector for aperture flux(es)                     [count]
#  12 FLUX_RADIUS            Fraction-of-light radii                                    [pixel]
#  13 FWHM_IMAGE             FWHM assuming a gaussian core                              [pixel]
#  14 BACKGROUND             Background at centroid position                            [count]
#  15 THRESHOLD              Detection threshold above background                       [count]
#  16 FLUX_MAX               Peak flux above background                                 [count]
#  17 ISOAREA_IMAGE          Isophotal area above Analysis threshold                    [pixel**2]
#  18 A_IMAGE                Profile RMS along major axis                               [pixel]
#  19 B_IMAGE                Profile RMS along minor axis                               [pixel]
#  20 THETA_IMAGE            Position angle (CCW/x)                                     [deg]
#  21 FLAGS                  Extraction flags                                          
         1    610.9683     16.6593 307.6839570  +6.7067902     12318.83     18865.48     19465.17     80.58507     161.3625     322.4686      1.643     4.23     884.4551     56.84598     1902.931        37     1.561     0.985 -46.80   0
         2    750.2884     11.5503 307.6262327  +6.7135495     5254.243     7825.406     8063.506     80.84131      161.106     322.6289      1.619     4.02       883.72     56.84598     916.4333        28     1.518     0.941 -39.21   0
         3    171.6732      8.3324 307.8667839  +6.6955271     3432.616     7524.744     8929.638     80.96912     161.4266     322.1477      2.447     6.03     905.7442     56.84598     1626.745        18     2.894     0.353  38.50  19
         4    164.7122      2.5637 307.8698712  +6.6976764     3255.515     5017.561     4746.791     80.84131     145.3124     262.3502      1.621     4.96     905.7087     56.84598     922.2053        12     1.663     0.418  39.13  27
         5    237.3290      6.5747 307.8395611  +6.6984549     10720.03     17199.34     17806.39     80.45665     161.1701     311.2088      1.737     4.44     905.1799     56.84598     1505.006        39     1.595     1.062 -48.48  16
         6     12.3290      4.3636 307.9331295  +6.6918167     19320.71     30401.79     32050.24     80.71329     160.9133     287.4406      1.707     4.15     905.2576     56.84598     2801.983        48     1.601     1.109 -49.72  24
         7    753.5621      3.1716 307.6251536  +6.7171198      1604.49     2482.972     2317.334     80.32802     151.9224     271.3406      1.658     4.84     883.1874     56.84598     256.4584        17     1.411     0.836 -62.26  24
         8    899.4848      3.6623 307.5644958  +6.7217788     606.7097      799.251     1001.904     80.96912     156.8784     278.4502      1.443     3.90     880.7391     56.84598     112.0723         6     0.990     0.448  34.93  16
         9    330.1778      1.8155 307.8011393  +6.7035318     1007.667     1444.929     1160.621     75.96121     135.2887     250.5354      1.464     4.87     901.7114     56.84598     192.4288        11     1.301     0.744 -26.57  24
        10     17.7814   1004.7740 307.8970580  +6.2787562     2275.763     3364.298     3282.851     80.45665      161.106     322.4044      1.638     4.46     927.1614     56.84598     356.0983        23     1.515     0.904 -46.83   0
        11    754.7332   1023.3430 307.5904432  +6.2957291      4828.99     5842.175       6379.4     74.44871      133.209     248.2133      1.178     2.82     918.8638     56.84598     886.3864        16     1.085     0.747  -2.86  24
        12    541.2075   1023.2953 307.6791055  +6.2886269     805.4046     1128.922     1214.128     74.44871     133.4416     248.6711      1.428     4.65     923.3235     56.84598      129.032         7     1.088     0.565 -33.26  24
        13    223.7931   1022.8845 307.8109124  +6.2781820     1273.542     1568.332      1578.16     78.37328     139.1322     255.3998      1.293     3.14     928.0417     56.84598     228.5466        10     0.966     0.798 -31.25  24
        14    188.7431   1022.7972 307.8254679  +6.2770439     951.2379     1193.488     1045.565     79.03023      140.978     256.7325      1.315     4.52     927.5237     56.84598     134.5324         9     0.975     0.623 -21.81  24
        15     48.5964   1021.2239 307.8837086  +6.2729951     2656.232     4070.632     4060.237     80.45665     157.3392      279.673      1.688     4.47     927.2886     56.84598     353.0671        24     1.508     0.996 -64.77  24
        16    869.2289   1003.8027 307.5435554  +6.3076140     748.7249     1338.267     1539.151     80.32802     161.0418     322.3082      2.179     5.45     916.9584     56.84598     112.6713         9     1.385     0.606 -25.22   0
        17    961.8643   1001.2995 307.5051731  +6.3117297     604.2686      730.693     1278.591      80.8413     161.3625     322.5006      1.398     4.59     912.1255     56.84598     76.46643         6     0.939     0.638  64.21   0
        18    561.6070    999.5312 307.6714334  +6.2991248     1689.354     2845.616     2894.452     80.32803     160.9775     322.4044      1.734     4.58     922.7073     56.84598     283.9711        19     1.608     0.855 -44.13   0
        19    940.2652   1000.6774 307.5141628  +6.3112685     758.2793      1151.54     1503.918     80.96912     161.2984     322.4686      1.713     6.17     913.2228     56.84598      118.525         9     1.274     0.839 -41.50   0
        20    285.0167   1000.7780 307.7862368  +6.2893639     781.8202     1309.999      1757.41     80.45665      161.106     322.4365      1.683     4.85     927.1689     56.84598     149.9567         9     1.358     0.491 -24.98   0
        21    993.3276    999.1528 307.4921799  +6.3136626     772.5548     1217.008     1284.335      80.8413     161.3625     322.5006      1.806     4.36      910.558     56.84598     122.4106         7     0.898     0.602 -52.35   0
        22    600.8918    996.0101 307.6552395  +6.3018906     1426.103     2002.976     1939.178     80.58507     160.9133      322.244      1.563     4.83     922.4415     56.84598     200.2626        15     1.257     0.931 -57.63   0
        23     50.5085    996.8032 307.8837390  +6.2831470     710.4214     1091.085     1455.252     80.45665     160.9775      322.244      1.584     3.71     927.0978     56.84598     141.3426         7     1.197     0.448 -49.59   0
        24    280.7866    993.7713 307.7882292  +6.2921166     1443.301     2256.169     2630.913     80.45665     161.0418     322.4044      1.626     4.52     927.1936     56.84598     229.0765        15     1.408     0.716 -50.38   0
        25    548.3572    992.1400 307.6771833  +6.3017358     793.5496     1302.704     1319.928      80.8413     161.2984     322.5968      1.829     6.12     922.6718     56.84598     139.1318        10     1.335     0.790 -34.88   0
        26    747.2938    990.2599 307.5946413  +6.3091479     902.7831     1367.439     1301.065     80.71329     161.2984     322.5648      1.658     6.01     918.8336     56.84598     116.6241        11     1.330     0.764 -55.78   0
        27    885.1594    986.4597 307.5375210  +6.3153086     6843.401     11358.82     11774.88      80.8413     161.2984     322.5648      1.804     4.28     915.6223     56.84598     920.4541        37     1.631     1.109 -46.63   0
        28    421.0683    983.6937 307.7303209  +6.3009723     2087.864     3406.437     3567.799     80.71329     161.4266     322.5327      1.679     4.38     926.3863     56.84598     367.4125        18     1.458     0.788 -42.18   0
        29    322.6994    981.9116 307.7712257  +6.2984185     9597.541     14965.23     15824.32      80.8413     161.7466     322.4686      1.662     4.21     926.8316     56.84598     1355.464        38     1.589     1.036 -49.97   0
        30    242.7700    980.8475 307.8044494  +6.2961824     7143.364     11112.57     11648.73     80.45665     161.3625     322.4044      1.657     4.13     927.4869     56.84598      959.387        31     1.528     0.964 -47.42   0
        31    571.1460    975.2681 307.6682874  +6.3094662     1184.089     2041.123     1977.282      80.8413     161.2343     322.4044      1.880     4.87      922.332     56.84598     161.7777        13     1.444     0.738 -36.80   0
        32    755.5211    974.5190 307.5917527  +6.3159246     756.1603     999.7557     1147.357     81.09673     161.5546      322.693      1.445     4.35     918.5966     56.84598     121.2977         7     0.889     0.653 -77.43   0
        33    900.8857    971.6183 307.5314875  +6.3219629     1052.877     1735.013     1689.823     80.45665     161.0418     322.4365      1.692     4.19     914.5754     56.84598     169.5183        14     1.322     0.801 -53.14   0
        34    133.2800    971.8185 307.8502152  +6.2962436     534.9643      941.531     621.0646     80.45665     160.9775     322.4044      1.245     3.40     927.0173     56.84598     89.94354         5     1.539     0.217 -63.29   0
        35    857.2587    970.3472 307.5496462  +6.3210362     809.3387     1266.295     1406.564     80.84131     161.2984     322.5006      1.722     5.29     916.1865     56.84598     152.1878        11     1.337     0.753 -24.29   0
        36    399.7435    969.6138 307.7396491  +6.3060757     562.1974     861.3655     1017.234     80.19919     161.1701     322.1798      1.652     5.90     926.2851     56.84598     86.97546         8     1.121     0.875 -51.01   0
        37    560.7818    965.3321 307.6729247  +6.3132248     761.7253     1401.491     1057.116     80.45665     161.2343     322.4365      1.865     4.81     922.2375     56.84598     119.6034         8     1.427     0.459 -40.87   0
        38    831.5261    964.8024 307.5605174  +6.3224701     496.9528     827.7474     836.9866     80.32802     160.7847     322.3723      1.715     4.35     916.6576     56.84598     88.81543         5     0.915     0.589 -44.28   0
        39    737.3373    964.5184 307.5996387  +6.3194499     1713.467     2657.514     2768.604     80.96912     161.2984     322.5006      1.619     4.38     919.0068     56.84598     269.1758        14     1.355     0.696 -37.40   0
        40    968.5297    960.5278 307.5037691  +6.3287944     1135.044     2090.702      3022.95     80.96912     161.4266     322.4686      2.538     6.45     911.3276     56.84598     134.9174        16     1.485     0.959 -54.33   0
        41    612.9564    960.6935 307.6514155  +6.3168823     659.2531     967.4788     660.3602      80.8413     161.2984     322.6289      1.489     4.66     921.9478     56.84598     118.9282         7     1.043     0.591 -54.96   0
        42    601.7068    960.7690 307.6560843  +6.3164757     708.2165     991.3672     843.6545     80.96912      161.106     322.5006      1.582     3.56      922.049     56.84598     107.7892         7     0.842     0.605 -59.02   0
        43    522.1448    960.4271 307.6891330  +6.3139609     1324.499     2068.537     2567.954     80.45665     161.3625     322.3403      1.891     5.74      923.145     56.84598     215.1564        14     1.391     0.672 -37.51   0
        44    655.9241    957.7571 307.6336720  +6.3195288     2495.581     3966.929      4524.84     80.71329     161.3625     322.5327      1.738     4.43     921.0349     56.84598      367.948        23     1.585     0.868 -38.90   0
        45    946.7043    955.7246 307.5129930  +6.3300528     685.1043     1120.781      1975.29     80.45665     161.4906     322.5648      1.986     4.85      912.345     56.84598     87.83972         7     0.995     0.669 -80.72   0
        46     69.8228    953.2274 307.8771905  +6.3017952      1822.23      2915.87     2843.801     80.32802      161.106     322.4365      1.670     5.00     926.7481     56.84598     310.6626        16     1.500     0.681 -50.62   0
        47    934.0557    953.3924 307.5183235  +6.3305956     696.7031      1154.95     665.0732     80.32802      161.106     322.2119      1.675     4.93     912.9432     56.84598     89.29852         8     1.207     0.571 -65.79   0
        48    816.7582    953.9376 307.5670138  +6.3264666     741.5126     1259.377     1432.855      80.8413     161.2343     322.5648      1.701     4.19     916.7927     56.84598     119.7212        11     1.012     0.817 -46.39   0
        49    196.1886    952.8870 307.8247331  +6.3061722     2133.808     3427.655     3212.721     80.45665     161.0418     322.3723      1.673     5.07     927.2508     56.84598     294.5425        19     1.508     0.805 -44.84   0
        50     52.2378    954.1266 307.8844616  +6.3008338     2812.566     4690.501     5472.878     80.71329     161.3625     322.5648      1.847     4.63      926.756     56.84598     424.3025        28     1.690     0.969 -47.87   0
        51    650.4223    946.9880 307.6363179  +6.3237939     6944.906     10650.09        11464     80.45665      161.106     322.4044      1.635     4.09     920.9144     56.84598      1102.09        30     1.531     0.934 -47.65   0
        52    335.0041    948.9030 307.7672277  +6.3124657     1008.703     1661.007     1513.882     80.58507     160.9775     322.1798      1.561     5.37     926.5097     56.84598     158.9042        10     1.099     0.741 -47.67   0
        53    230.2596    949.0290 307.8107161  +6.3089072     796.5494     1071.631     541.2127     80.45665     161.3625     322.4365      1.357     3.40     927.3051     56.84598     126.5341         9     0.868     0.788 -13.56   0
        54    788.0103    946.9738 307.5791848  +6.3283859     648.5563     764.4177     355.4499     80.45665      161.106     322.3723      1.190     4.29     917.4999     56.84598     114.7372         6     1.178     0.446  29.32   0
        55     10.5688    945.3334 307.9020598  +6.3030678     1205.277     1785.857     1907.905     80.58508     161.2984     322.4365      1.635     4.36     926.6846     56.84598     176.2903        13     1.258     0.730 -34.50   0
        56    888.2000    943.4620 307.5376979  +6.3331723     2873.625     4657.041     4064.329     80.07014     161.0418     322.1477      1.683     4.14     914.3439     56.84598     370.8007        25     1.547     0.918 -44.45   0
        57     23.5435    943.5579 307.8967325  +6.3042367     1176.583     1869.626     1859.237     80.71329     161.2343     322.5006      1.774     4.62     926.6766     56.84598     165.6764        15     1.277     0.883 -36.01   0
        58    333.4144    940.1843 307.7681812  +6.3160141     16440.63     25427.03     27413.03     80.58508     160.9775     322.4365      1.677     4.25     926.4711     56.84598      2477.67        42     1.635     0.997 -47.13   0
        59     68.0652    941.0200 307.8783323  +6.3067789     1293.052     2058.328     2081.338     80.45665     161.2984     322.3403      1.560     4.55     926.6528     56.84598     208.8965        14     1.405     0.685 -40.06   0
        60    202.6514    940.6927 307.8224606  +6.3114260     571.9555     530.0203     372.9244     80.71329     161.1701      322.693      0.901     3.52     927.2016     56.84598     123.8558         5     1.206     0.297 -53.99   3
        61    205.3918    939.1157 307.8213759  +6.3121693     1077.047     1432.097     735.1736     80.45665     160.9775     322.3403      1.316     3.99     927.1925     56.84598     204.4864         9     1.020     0.739 -59.78   3
        62    384.2031    938.9967 307.7471320  +6.3182037     678.8729     917.3785     888.3906     80.19919      160.849     322.3082      1.452     5.15     925.9438     56.84598     105.5823         9     1.082     0.852 -79.59   0
        63     96.5943    930.8476 307.8668298  +6.3119378     1662.799     2766.471      1874.26     80.19919      161.106     322.1798      1.736     4.34     926.5732     56.84598     249.3577        22     1.581     0.919 -61.50   0
        64    411.0635    930.9008 307.7362509  +6.3224462     1112.594     1732.752     1664.261     80.71329     161.3625     322.5327      1.661     5.45     925.5689     56.84598     175.0131        13     1.499     0.703 -46.65   0
        65    664.8212    926.9734 307.6310104  +6.3325422      797.476     1216.981     1400.539     80.32802      161.106     322.4365      1.763     5.03     920.0614     56.84598     167.3083         8     1.244     0.576 -50.78   0
        66    492.1679    927.4918 307.7026875  +6.3265650     761.1148     1378.449     1470.116     80.96912      161.106     322.5327      2.239     3.28     923.6998     56.84598      156.114         7     1.008     0.455 -47.08   0
        67    878.4271    925.0360 307.5423732  +6.3404589     1867.363     2911.039      3134.99     80.32802     160.9775     322.2761      1.679     4.58     914.1379     56.84598     311.7247        20     1.712     0.743 -51.06   0
        68    849.3199    924.6088 307.5544746  +6.3396666     2044.567     3095.926     3323.188     80.45665     160.9133     322.3403      1.654     4.55     915.0208     56.84598     297.6885        19     1.463     0.861 -44.12   0
        69     80.2290    924.2687 307.8738470  +6.3141066     2397.449     3548.925     3807.723     80.58508     161.2984     322.4365      1.714     4.48     926.4978     56.84598     387.2761        21     1.538     0.820 -45.18   0
        70    812.5609    923.9444 307.5697616  +6.3387171     3107.332     4926.129     5452.004      80.8413     161.3625     322.4686      1.743     4.15     916.2101     56.84598     450.2695        24     1.402     1.003 -43.60   0
        71    548.5089    915.3970 307.6796983  +6.3334430     341767.1     519102.3     542028.1     80.19919     160.9775      322.244      1.675     5.52     921.5458     56.84598     55224.02       156     1.735     1.179 -47.49   4
        72    443.0487    921.9620 307.7232699  +6.3272079     560.8902     818.3611     1183.172      80.8413     161.2984     322.3723      1.607     3.76     924.7703     56.84598     97.06012         5     1.019     0.398 -30.55   0
        73    328.4341    922.3749 307.7708488  +6.3232043     918.9435      1360.12     1578.259     80.19919      161.106     322.2761      1.667     4.71     926.3339     56.84598     141.3215         7     0.954     0.660 -29.67   0
        74    392.7801    917.9538 307.7442785  +6.3271831     7784.191     12057.13     12616.56     80.45665     161.2343     322.3082      1.648     4.10     925.4604     56.84598     1078.345        32     1.549     0.972 -45.95   0
        75    636.3248    918.4219 307.6431307  +6.3351243     1177.611     1606.947     1228.542     80.45665     161.1701     322.4365      1.472     4.45     920.6802     56.84598     183.5616        13     1.372     0.652 -38.65   0
        76    335.9882    916.3893 307.7679136  +6.3259297     12776.97     19601.52     20103.88     80.58507      161.106     322.5006      1.635     4.31     926.1012     56.84598     1947.607        34     1.551     0.961 -44.54   0
        77    654.3518    912.7269 307.6358359  +6.3380782     3675.358     5608.232     5545.113     80.84131     161.3625     322.5327      1.630     4.13     920.1352     56.84598     600.0039        24     1.449     0.913 -47.57   0
