#   1 NUMBER                 Running object number                                     
#   2 X_IMAGE                Object position along x                                    [pixel]
#   3 Y_IMAGE                Object position along y                                    [pixel]
#   4 ALPHA_J2000            Right ascension of barycenter (J2000)                      [deg]
#   5 DELTA_J2000            Declination of barycenter (J2000)                          [deg]
#   6 FLUX_APER              Flux vector within fixed circular aperture(s)              [count]
#   9 FLUXERR_APER           RMS error vector for aperture flux(es)                     [count]
#  12 FLUX_RADIUS            Fraction-of-light radii                                    [pixel]
#  13 FWHM_IMAGE             FWHM assuming a gaussian core                              [pixel]
#  14 BACKGROUND             Background at centroid position                            [count]
#  15 THRESHOLD              Detection threshold above background                       [count]
#  16 FLUX_MAX               Peak flux above background                                 [count]
#  17 ISOAREA_IMAGE          Isophotal area above Analysis threshold                    [pixel**2]
#  18 A_IMAGE                Profile RMS along major axis                               [pixel]
#  19 B_IMAGE                Profile RMS along minor axis                               [pixel]
#  20 THETA_IMAGE            Position angle (CCW/x)                                     [deg]
#  21 FLAGS                  Extraction flags                                          
         1      1.6087     22.0242 307.9346667  +6.6315121     178605.1     240786.1     262063.3     83.15871     149.5198     279.1829      1.381     3.43     1206.071     64.21953     48092.75       142     2.135     1.152 -87.50  24
         2    426.9055     19.5118 307.7578891  +6.6468546     1620.108     4838.735     6638.263     91.32731     182.7269      364.405      3.047     9.41     1174.034     64.21953     195.8934        44     2.023     1.783  55.22   0
         3    899.0567     14.3302 307.5617022  +6.6648019     2067.878     5105.662     5727.335      91.4717     182.2206     364.2963      2.520     6.98     1159.963     64.21953     242.2373        38     1.870     1.453  37.06   0
         4    880.4995     15.3262 307.5693867  +6.6637708     1185.553      2522.59     2470.125     90.74745     182.3654     364.2601      2.131     7.05     1160.033     64.21953     170.3125        17     1.529     0.999  67.67   0
         5    591.9033     12.4118 307.6895090  +6.6553194     781.2822     1998.128     2576.857     91.03784     181.9307     364.1151      2.194     3.76     1166.802     64.21953     104.0654         6     1.221     0.333  50.86   0
         6    138.1068      8.6875 307.8783548  +6.6416171     1491.863     4250.943     5710.587     91.32731     182.7269     364.4412      2.976     8.62     1190.498     64.21953     196.1107        34     1.895     1.730  57.07  18
         7     20.1898      6.4039 307.9274677  +6.6385883     5265.156     15119.85     18273.08     90.74745     181.8581     349.9204      2.741     6.74      1204.38     64.21953     616.0648        65     2.128     1.844  45.46  16
         8    821.8500      1.8478 307.5942307  +6.6673769     2635.859     4194.886     4726.708     86.42719     153.6982     283.9171      1.715     6.40     1158.436     64.21953     376.8168        19     1.588     0.829   8.86  24
         9    766.4586      2.0310 307.6172616  +6.6654492     1598.868     2702.836     3193.168     88.09085     156.6746     287.1985      1.796     6.90     1159.533     64.21953     224.9241        19     1.591     1.053  10.07  24
        10    896.3678   1004.2009 307.5296878  +6.2559369     674.2459     1096.177     1983.703     90.60191     182.0032     364.0426      1.518     3.45     1219.728     64.21953     86.92761         5     0.756     0.455  74.59   0
        11    934.9454   1023.5895 307.5130080  +6.2492176     828.7346     936.7773      784.176     80.25129      146.398     275.4711      1.072     3.38     1219.417     64.21953     170.6256         5     0.783     0.423  22.36  24
        12    883.4238   1023.6321 307.5344170  +6.2474806     758.7266     1137.829     957.2649     79.25846     145.1305     274.5594      1.293     4.01     1220.931     64.21953     135.0336         7     1.008     0.456  10.14  24
        13    826.4687   1001.6714 307.5588202  +6.2546475     2445.232     4941.885     4836.304     91.32732     182.3654     364.2963      2.110     5.82      1220.95     64.21953     251.0847        29     1.690     1.188  41.71   0
        14    747.1860   1000.6318 307.5918020  +6.2524276       1054.4     2025.922      1864.46     90.89276     181.9307     364.2601      1.975     6.94     1221.119     64.21953     149.2025        16     1.439     1.054  31.89   0
        15    809.2355   1000.1077 307.5660341  +6.2547176     930.5457     1676.426     1222.231      91.4717     182.0757     364.3687      1.846     4.03     1221.057     64.21953     127.8289         9     1.000     0.896 -47.12   0
        16    570.8459    997.0441 307.6652020  +6.2480094     1838.867     3855.406     3603.808     91.32731     182.2206     364.2601      2.136     6.31     1224.388     64.21953     226.5181        26     1.686     1.057  29.91   0
        17    275.9823    987.3322 307.7880583  +6.2421320     982.5317      2205.86     2750.396     90.74745     182.1481     364.2238      2.472     8.58     1223.567     64.21953     136.9153        18     1.586     1.297  14.66   0
        18    699.4935    985.3039 307.6121349  +6.2571627     3033.011      6490.46      7159.23     91.32732     182.7991     364.2601      2.198     5.79     1220.666     64.21953     348.0377        36     1.731     1.371  44.08   0
        19      2.0102    985.0240 307.9019800  +6.2338724     7138.839     11020.24     11225.66     87.79071     155.9993     286.6005      1.632     7.58     1221.745     64.21953      1234.46        30     1.689     0.953  74.33  24
        20    609.7700    983.7737 307.6494719  +6.2547926     1279.649      2574.15     2385.719     90.74745     182.0032     364.1514      2.029     8.08     1222.617     64.21953       164.33        19     1.483     1.232  42.71   0
        21    229.1908    982.5943 307.8076615  +6.2425168     787.1328     1568.485     1004.296     90.60191     182.0032     364.1514      1.954     6.76     1223.432     64.21953     111.3455        10     1.309     0.978  82.39   0
        22     65.5569    975.1050 307.8759093  +6.2401073     5172.126     11004.68     12028.58     91.32731     182.1481     364.4774      2.223     5.40     1221.722     64.21953     729.8531        47     1.991     1.342  41.25   0
        23    794.7131    974.1160 307.5729393  +6.2649659     10255.07     20330.27     21649.73     91.03784     182.4377     364.3687      2.095     4.93       1219.8     64.21953     1173.666        55     1.852     1.381  38.13   0
        24    569.2775    953.7604 307.6673061  +6.2658309     2611.748     6058.514     8074.624     91.18269     182.2206     364.3325      2.703     9.71     1222.161     64.21953     309.1736        43     2.360     1.451  32.32   3
        25    578.1525    965.1888 307.6632345  +6.2614088     99644.16     222377.7       253094     90.74745     182.0757     363.9701      2.330     5.32     1222.583     64.21953      11494.3       110     2.087     1.647  39.41   3
        26    579.9308    957.9300 307.6627390  +6.2644658     47069.53     103991.6     116214.1     91.32732     182.3654     364.2963      2.282     5.36     1222.211     64.21953     5403.038        79     2.047     1.516  34.41   3
        27    212.1909    968.2533 307.8152085  +6.2478675     2355.176      5260.51      5898.01     90.60191     182.0757     364.0064      2.264     6.24     1223.127     64.21953     298.8353        35     1.915     1.276  41.75   0
        28    789.0853    961.9904 307.5756840  +6.2697852     4837.758     9729.042     10402.65     90.89276     181.8581     364.1514      2.122     5.08     1219.229     64.21953      589.653        42     1.913     1.230  39.35   0
        29    886.9595    958.9467 307.5351113  +6.2743111     1184.192     2037.068     2454.584     91.18269     182.2206     364.3687      1.826     7.52      1218.07     64.21953     171.8368        16     1.464     1.083  48.70   0
        30    209.7245    957.2587 307.8166037  +6.2523248     1473.415     3059.707     3513.226      91.4717      182.293     364.2963      2.140     6.70      1222.87     64.21953     194.9141        22     1.684     1.048  28.44   0
        31    427.6408    954.7023 307.7261338  +6.2606957     2590.781     5992.997     7179.411     91.32732     182.0757      364.586      2.460     6.17     1222.881     64.21953     345.1151        40     1.969     1.377  40.83   0
        32    712.8647    954.4201 307.6076131  +6.2703635     4980.188     10717.11     11878.07     90.89276     182.2206     364.1514      2.233     5.26      1219.84     64.21953     510.5995        48     1.978     1.366  36.46   0
        33    704.6320    953.4984 307.6110653  +6.2704688     850.9787     1638.316     2025.103     91.32732     182.0757     364.4774      1.983     5.98     1219.972     64.21953     117.1163        10     1.249     0.805  46.41   0
        34    744.7175    949.4109 307.5945436  +6.2734971     984.5457     2348.656     3729.042     90.89276     181.8581     364.1514      3.232     8.91     1219.101     64.21953     134.3196        18     1.835     1.208  30.36   0
        35    952.3420    943.8015 307.5084458  +6.2827474     5571.363     10313.08     10200.44     90.60191     181.8581     364.0064      1.900     4.83     1215.984     64.21953     663.4509        37     1.712     1.141  39.54   0
        36    711.0424    942.3372 307.6087753  +6.2752923     1715.188     4105.158     5671.717     91.32731     182.1481      364.405      2.755    10.34     1219.592     64.21953     246.0363        38     2.349     1.430 -19.52   0
        37    236.7498    943.7059 307.8058297  +6.2588293     828.3286     1758.096     2204.542     91.18269     182.0757     364.5498      2.233     5.45     1222.704     64.21953     110.5516         9     1.148     0.955 -25.13   0
        38    435.3760    942.1550 307.7233409  +6.2661364     784.9429     1332.215     1586.922     90.74745     182.2206     364.1876      1.826     4.17     1222.682     64.21953     116.4233         6     1.186     0.419  54.44   0
        39    359.2493    939.4342 307.7550679  +6.2647064     1060.478     2606.164     3228.865     91.18269     182.2206     364.2601      2.532     8.36     1222.991     64.21953     169.5828        17     1.714     1.140  15.15   0
        40    969.0184    936.8265 307.5017483  +6.2861841     577.9543     870.9674     601.4308     90.89276     182.0032     364.2238      1.943     4.32     1215.159     64.21953      103.849         5     1.035     0.514  32.99   0
        41    745.6861    928.9961 307.5948250  +6.2819599     5029.586     10664.17     11369.16     90.74745     181.7855     364.0064      2.205     4.98     1218.309     64.21953     615.8372        43     1.825     1.350  40.19   0
        42    541.3140    929.6181 307.6797373  +6.2748640     2329.394     5890.798     7160.924     90.89276     181.9307     364.2238      2.607     6.25     1220.945     64.21953     307.2582        40     1.882     1.476  33.15   3
        43    538.4181    921.8734 307.6812007  +6.2779652     5019.873     11839.68     13317.68     90.74745     182.1481     364.2238      2.403     5.84     1220.657     64.21953     625.3906        51     2.016     1.473  46.58   3
        44    291.5420    928.6484 307.7835672  +6.2668876     8807.005     20429.36     24365.93     91.32732     182.2206     364.4412      2.443     5.46     1223.037     64.21953     1211.771        71     2.145     1.715  24.85   0
        45    806.8424    927.9432 307.5694444  +6.2844386     829.8083     1718.026     1546.547     91.18269     182.1481     364.3325      1.747     5.65     1217.286     64.21953     123.5074         8     1.454     0.619  52.39   0
        46    263.1519    926.0026 307.7954541  +6.2670267     610.7135     1190.969     956.3286     90.60191     181.8581     363.8613      1.531     4.09     1222.721     64.21953     87.51855         6     1.329     0.359 -89.99   0
        47    906.9230    922.4390 307.5280359  +6.2900536      6661.69     13078.71     14147.87     91.18269      182.293     364.3325      2.068     5.14     1215.965     64.21953     706.5143        43     1.840     1.226  35.76   0
        48    880.5624    918.5346 307.5391218  +6.2907860     9315.628     18647.38     19998.55     91.18269     182.1481     364.4412      2.098     4.98     1216.079     64.21953       1015.7        51     1.826     1.355  36.82   0
        49   1002.3614    918.0577 307.4885184  +6.2950469     3888.508     7178.377     6589.369     91.32731      182.293     364.3325      1.906     4.90     1213.321     64.21953     462.8168        29     1.611     1.107  37.13   0
        50    593.7740    919.2853 307.6582828  +6.2808878     859.9719     1537.208     1081.871      91.4717     181.9307     364.1876      1.859     7.25     1220.238     64.21953     125.9956        12     1.337     1.117 -26.32   0
        51    524.7899    917.7420 307.6870030  +6.2792147     2303.836     5613.256     7111.065     90.60191     182.1481     364.0064      2.600     6.08     1220.664     64.21953     290.4811        38     1.826     1.427  36.08   0
        52    246.8393    919.3406 307.8024572  +6.2692297     1164.798     1526.873     1452.772     91.32731      182.293     364.4412      0.729     1.07     1222.506     64.21953     496.1036         5     0.522     0.459 -28.31   0
        53    634.0241    916.8995 307.6416355  +6.2832203     893.3218     1896.701     2140.828      91.4717     181.9307     364.1151      2.310     7.95     1219.869     64.21953     102.1329        14     1.380     1.279  14.98   0
        54    478.3275    914.3759 307.7064248  +6.2790478     1255.553     2987.969     3229.379     90.89276     182.0757     364.2601      2.446     7.17     1221.109     64.21953      172.642        23     1.579     1.414  39.37   0
        55    912.3214    906.1547 307.5263369  +6.2969586     32520.26     64754.93     70207.48     91.32731     182.2206     364.2963      2.090     5.04     1214.656     64.21953     3573.978        75     1.939     1.399  39.22   0
        56    220.3735    904.2609 307.8139632  +6.2745676     1067.615     1949.946     2213.786     90.89276     182.2206     364.1876      2.047     5.74     1222.131     64.21953     133.3219        12     1.420     0.653  31.76   0
        57    810.2969    899.9891 307.5689446  +6.2960979     1583.268     3494.267     3738.501     91.03784     181.7855     364.1151      2.200     8.38     1215.637     64.21953     186.2441        23     1.476     1.329  71.09   0
        58    758.3898    897.7763 307.5905912  +6.2952770     4319.407     9510.912     11393.31     90.89276     182.0032     364.1876      2.308     5.67     1216.551     64.21953     522.4907        48     2.016     1.349  35.95   0
        59    228.0554    896.5959 307.8110289  +6.2779909     1025.859     2237.467     2527.981     90.60191     182.0032     363.9701      2.008     6.60     1222.174     64.21953     155.9001        12     1.659     0.738  21.02   0
        60     53.1102    895.1519 307.8837780  +6.2727040     1810.401     3719.965     4417.985     91.32731     182.0757     364.5136      2.237     5.77     1219.251     64.21953      212.151        26     1.623     1.264  18.20   0
        61    946.6355    892.8878 307.5125195  +6.3035824     5163.264     10132.33     10764.84     91.32731     182.0757     364.3325      2.077     4.86      1213.21     64.21953     566.6379        40     1.714     1.308  46.14   0
        62    920.7241    884.4789 307.5235697  +6.3061903     1560.412     2982.442     2610.569     91.61587     182.5101     364.4412      1.959     5.97      1212.87     64.21953     176.1216        21     1.463     1.053  60.92   0
        63    641.1143    880.7482 307.6399013  +6.2983865     2826.699     6331.143     6636.103     91.32731     182.1481     364.4412      2.253     5.58     1217.356     64.21953     352.7755        43     1.851     1.493  33.11   0
        64    253.6889    881.0912 307.8008984  +6.2852547      2680.05     6009.876      6643.59     91.32731     182.7991     364.4412      2.361     5.74      1222.49     64.21953     398.9006        38     1.941     1.338  32.31   0
        65    779.8312    881.0930 307.5822389  +6.3028831     933.7655     2027.294      2110.28      91.4717     182.0032     364.3325      2.315     7.62     1215.217     64.21953      114.731        11     1.619     1.004  28.60   0
        66     23.1779    878.8596 307.8967662  +6.2784240     1253.941     3070.635      4120.89     90.89276     182.1481     364.1876      2.525     8.34     1217.823     64.21953     220.7152        20     1.676     1.196  53.91   0
        67    872.2041    877.3122 307.5439747  +6.3075302     684.3345     998.0026     920.1343     90.74745     181.8581     363.9701      1.720     6.21     1212.737     64.21953     99.61023         7     1.071     1.011 -51.98   0
        68    996.3804    873.1912 307.4925034  +6.3133756      687.188     1474.819     1330.213     91.03784     181.9307     364.1151      1.973     4.38     1211.685     64.21953     86.78796         5     1.178     0.463  82.25   0
        69    566.6140    872.1818 307.6711508  +6.2994299     924.4631     2197.967     2479.502     91.03784     181.8581     364.2238      2.381     7.70     1218.181     64.21953     120.4678        16     2.062     0.805  17.12   2
        70    605.5797    869.0308 307.6550625  +6.3020358     979.1096     1869.415     1549.463     90.74745     182.0032     364.1876      1.810     6.73     1217.039     64.21953     131.8857        14     1.608     0.789  42.40   0
        71    285.5560    867.4831 307.7881132  +6.2919444     895.9088      1780.14      1869.31     91.32732     182.2206     364.2963      2.120     5.92     1222.951     64.21953     152.8563         8     1.097     0.898 -58.24   0
        72    889.3191    859.8803 307.5374448  +6.3153003     5061.049      10262.3     11131.79      91.4717     182.5101     364.5136      2.108     5.34     1211.364     64.21953     535.4828        39     1.741     1.286  48.37   0
        73    425.0499    858.6851 307.7304373  +6.3002589     1038.268     1994.886     2201.577     91.32731     182.2206     364.4412      1.724     5.75     1219.724     64.21953     188.6017        10     1.594     0.623 -17.56   3
        74    425.9698    855.8040 307.7301518  +6.3014795     1014.104     1902.221     2441.877     90.74745     182.0757     364.1151      2.770     7.07     1219.597     64.21953     183.2992        12     1.730     0.836 -10.58   2
        75    327.1377    855.7629 307.7712269  +6.2981804     5199.181     12571.06     14736.91     91.32731      182.293     364.3325      2.480     6.11     1222.565     64.21953     669.1022        56     2.101     1.550  41.83   0
        76    247.2593    854.8656 307.8044534  +6.2958684     3949.934     9386.427     10483.54      91.4717     182.1481     364.3687      2.406     5.93     1222.126     64.21953     453.9939        50     2.005     1.557  41.87   0
        77    575.7211    848.4022 307.6681639  +6.3095547     790.5876      1550.23     1794.816     90.60191     181.6403     364.0789      2.177     5.29      1216.72     64.21953     97.43884        10     1.343     0.588  54.33   0
