#   1 NUMBER                 Running object number                                     
#   2 X_IMAGE                Object position along x                                    [pixel]
#   3 Y_IMAGE                Object position along y                                    [pixel]
#   4 ALPHA_J2000            Right ascension of barycenter (J2000)                      [deg]
#   5 DELTA_J2000            Declination of barycenter (J2000)                          [deg]
#   6 FLUX_APER              Flux vector within fixed circular aperture(s)              [count]
#   9 FLUXERR_APER           RMS error vector for aperture flux(es)                     [count]
#  12 FLUX_RADIUS            Fraction-of-light radii                                    [pixel]
#  13 FWHM_IMAGE             FWHM assuming a gaussian core                              [pixel]
#  14 BACKGROUND             Background at centroid position                            [count]
#  15 THRESHOLD              Detection threshold above background                       [count]
#  16 FLUX_MAX               Peak flux above background                                 [count]
#  17 ISOAREA_IMAGE          Isophotal area above Analysis threshold                    [pixel**2]
#  18 A_IMAGE                Profile RMS along major axis                               [pixel]
#  19 B_IMAGE                Profile RMS along minor axis                               [pixel]
#  20 THETA_IMAGE            Position angle (CCW/x)                                     [deg]
#  21 FLAGS                  Extraction flags                                          
         1    634.8092     29.9628 307.6746665  +6.6727131     13480.98     26553.04     28710.19      88.2639     177.2359     354.6131      2.045     4.63     1098.555     62.56233     1417.277        59     1.687     1.513  82.90   0
         2    440.2206     21.8130 307.7558507  +6.6695703     15420.01     32762.25     35468.47     88.68859     177.1652      354.825      2.171     5.01      1105.24     62.56233      1480.28        62     1.744     1.599  88.80   2
         3    260.9641     22.2014 307.8303698  +6.6634033     6314.559      13276.6     14618.27     87.97964     177.3065     354.7191      2.161     4.96     1122.632     62.56233     740.5439        46     1.648     1.510  84.29   0
         4    621.2356     20.5256 307.6806287  +6.6761561     2333.635     4985.876     6322.304      88.8297     177.5889     354.9308      2.440     6.88     1098.269     62.56233     241.1975        34     1.863     1.298  70.05   0
         5    248.9679     19.0227 307.8354652  +6.6643134     2208.424     4642.312     5511.135     88.40569     177.3065     354.6837      2.207     6.09     1122.962     62.56233     260.1401        31     1.686     1.293 -89.07   0
         6    690.2208     11.5593 307.6522465  +6.6821626     1467.151     2434.227     1803.844     88.54726     177.3065     354.7191      1.806     5.96     1096.237     62.56233      179.451        18     1.223     1.184 -72.63   0
         7    938.2142     11.7367 307.5491212  +6.6903593     1022.159     1606.362     993.8351     88.40569     177.3065     354.7544      1.644     2.75     1088.188     62.56233     169.1992         9     0.891     0.642  65.55   0
         8    178.3600      4.3161 307.8653204  +6.6680161     7658.875     15382.62     15747.99     88.97059     176.8822     315.7508      2.042     4.84     1124.042     62.56233     806.6342        46     1.632     1.489 -76.71  24
         9    923.9160      2.0785 307.5553914  +6.6938710     3756.727     4799.955      4752.65     86.54431     153.3683     280.7258      1.382     3.33     1088.633     62.56233     526.2838        20     1.194     0.977 -19.44  24
        10    522.6699      2.5432 307.7222193  +6.6802857      2185.97     3591.438     3707.119     89.11126     159.7681     288.4279      1.805     5.42     1100.537     62.56233     236.7518        21     1.270     1.164  10.75  24
        11    724.5027      1.5014 307.6383307  +6.6874600     1197.127     1626.731     1601.832     79.76637     144.2791     270.0838      1.334     3.97      1092.01     62.56233       212.15        10     1.118     0.644   6.88  24
        12    460.9356      1.7207 307.7479163  +6.6785597     1075.313     1498.305      1517.01     82.84727     147.7107     274.1801      1.473     5.38      1103.67     62.56233      166.072        12     1.265     0.680  -5.59  24
        13    710.8900   1000.3352 307.6103612  +6.2745775      1114.63     1615.538     1715.546      88.8297     177.7299     354.9661      1.486     3.74     1152.495     62.56233     173.5459         9     1.014     0.688  81.29   0
        14    757.9678   1023.3683 307.5900267  +6.2666370     676.6412     861.4865     436.5201     81.16724      146.005     272.3467      1.292     2.98     1153.058     62.56233     120.1989         6     0.798     0.727   7.75  24
        15    581.9877   1021.3621 307.6632089  +6.2615924     166245.1     239227.4     245563.1     88.40569     172.1454     305.6732      1.526     2.82     1153.649     62.56233     24768.32        78     1.365     1.304  76.75  27
        16    583.7608   1014.1915 307.6627138  +6.2646124      77114.8     113091.8     118913.6      88.2639     177.3065     354.6131      1.564     2.92     1153.524     62.56233     11668.24        71     1.403     1.294  81.64   3
        17    399.6257   1023.6452 307.7388964  +6.2545532     498.0296     661.2165     826.7668     77.05079     141.2967     267.2869      1.145     3.77     1155.984     62.56233     104.4227         5     1.016     0.401  16.22  24
        18    216.0294   1023.4181 307.8151792  +6.2484982     2766.632     3352.965     2943.214     80.39199     145.0583      271.656      1.109     2.69     1159.358     62.56233     575.2484        14     1.110     0.654  14.64  24
        19    241.0140   1000.2464 307.8055826  +6.2589031     1414.395     1723.707     1457.995      88.2639     177.3065     354.6837      1.425     3.74     1158.837     62.56233      176.269        13     1.108     0.787  81.08   0
        20    716.0789    998.2772 307.6082745  +6.2756004     3055.791     4109.672     3967.039      89.2517     177.8003      355.072      1.422     2.92     1152.404     62.56233     418.8541        21     1.219     0.895 -73.46   0
        21    439.7198    998.8895 307.7230740  +6.2661162     998.4202     1374.928     1213.249     88.68859     177.7299     355.0367      1.508     3.80     1154.686     62.56233     137.8378         7     0.764     0.651  72.90   0
        22    731.7844    997.3219 307.6017813  +6.2765187     1278.227     1634.673      1794.48     88.54726     177.2359     354.7544      1.423     3.02     1152.343     62.56233     204.2064        12     0.959     0.813 -69.67   0
        23    362.8490    995.7448 307.7551173  +6.2648425     1731.895     2557.599     2641.779     88.97059     177.5183     355.0014      1.514     3.26     1157.357     62.56233     272.6908        13     1.048     0.884  66.85   0
        24    972.9430    993.4208 307.5017137  +6.2861633     759.7745     751.8567     728.4573     88.54726     177.4478     354.7191      1.177     2.74     1144.572     62.56233     150.4855         7     0.736     0.686 -18.18   0
        25    749.4691    985.2316 307.5948402  +6.2821007     8735.403     12423.87     13193.97      88.8297     177.5183     354.9308      1.526     2.84     1151.165     62.56233     1254.249        32     1.277     1.089  88.76   0
        26    545.0573    986.0411 307.6797425  +6.2749430     4200.408     6703.136      7468.49     88.97059     177.5183     354.9661      1.783     3.63     1153.878     62.56233      506.075        30     1.439     1.152  85.44   2
        27    542.2620    978.1821 307.6811687  +6.2780946     8452.501     12860.81     13971.96     88.54726     177.4478     354.7544      1.668     3.16     1153.748     62.56233     1102.662        37     1.459     1.148  77.92   2
        28    515.2483    986.9686 307.6920961  +6.2735639     1095.237     1798.458     1661.317     88.68859     177.5183      354.825      1.618     5.32     1153.907     62.56233     146.6696        11     1.235     0.648  27.07   0
        29    295.3825    984.6572 307.7835215  +6.2671615     14946.74     23155.15      25689.4     88.40569     177.4478     354.6484      1.704     3.17     1158.425     62.56233     1837.205        55     1.657     1.367 -41.01   0
        30    419.9778    984.8708 307.7317491  +6.2712442     963.5677     1635.395     1596.935     88.54726     177.3772     354.9308      1.726     4.35      1154.98     62.56233     150.0177         9     1.099     0.604  79.03   0
        31    810.7238    984.9760 307.5693981  +6.2842483     1273.516     1680.626     1856.007     88.54726     177.4478     354.8955      1.493     2.70     1149.144     62.56233     227.3875         9     0.853     0.706  28.31   0
        32    266.4625    982.2980 307.7956164  +6.2671667       849.39     1354.394     838.2101     88.68859     177.6594     355.0014      1.631     5.39     1158.411     62.56233     137.4613         9     1.242     0.659  78.78   0
        33    910.8074    978.7062 307.5280247  +6.2901711     10321.33     14176.46     14732.34     88.54726     177.1652     354.6837      1.434     2.67     1146.347     62.56233     1765.621        33     1.265     1.053 -84.36   0
        34    884.4391    974.9200 307.5391078  +6.2908565     14238.95     19764.54     21473.08      88.8297     177.5889     354.8955      1.448     2.63     1147.243     62.56233     2149.372        40     1.262     1.202 -70.17   0
        35   1006.1359    974.2200 307.4885664  +6.2951960     5755.137     7667.543     7684.455     88.54726     177.5183     354.7544      1.376     2.71     1142.188     62.56233      958.293        24     1.139     0.952  67.46   0
        36    597.5603    975.1463 307.6582955  +6.2811955      1339.08     2026.218     2221.752      88.8297     177.5183     354.9308      1.643     3.87     1152.854     62.56233     216.5673        15     1.171     0.969 -48.81   0
        37    637.9952    973.4693 307.6415519  +6.2832381     1461.907     2082.788     2078.534     88.40569     177.0945     354.7544      1.531     3.74     1152.294     62.56233     222.8054        13     1.092     0.836 -85.11   0
        38    528.5309    973.7955 307.6870215  +6.2794471     4257.996     6514.458     7257.174     88.40569     177.0945     354.7191      1.664     3.25     1153.699     62.56233     596.9718        24     1.306     1.036  89.12   0
        39     63.5175    972.3781 307.8802666  +6.2644561      925.054     1547.072     1415.205     88.68859     177.1652     354.7897      1.784     6.75     1157.751     62.56233     121.9852        13     1.355     0.943  50.36   0
        40    793.5747    971.7447 307.5769682  +6.2891401     707.2595     996.1187     1240.308     88.54726     177.5183     354.7191      1.546     3.15     1148.744     62.56233     113.3005         5     0.808     0.664 -38.85   0
        41    482.1300    970.3735 307.7064155  +6.2793089     2275.904     3650.092     3734.222     88.54726     177.3772     354.8603      1.690     3.59     1153.712     62.56233     311.7334        19     1.207     1.044  80.03   0
        42    916.2167    962.3668 307.5263257  +6.2970980     50643.73     68876.16     71792.19     88.54726     177.2359     354.7897      1.429     2.58     1145.167     62.56233     7579.438        60     1.347     1.137  87.77   0
        43    223.7661    960.8983 307.8140784  +6.2745718     1624.598     2457.161     2156.398     88.97059     177.3772      355.072      1.573     4.13     1157.601     62.56233     214.2152        14     1.224     0.788  86.35   0
        44    111.7071    960.4741 307.8606490  +6.2709887      559.332     742.4625     529.1777      88.8297     177.6594     354.8955      1.458     4.53     1156.873     62.56233     89.99243         6     1.220     0.478 -44.23   0
        45    622.4460    958.4902 307.6485168  +6.2889040     987.4062     1252.328     1038.748     88.97059     177.4478      355.072      1.291     5.22      1152.33     62.56233     142.2117         9     1.235     0.624  65.34   0
        46    762.3400    954.1289 307.5905384  +6.2953726     7257.679     10528.22     11557.57     89.11125     177.5183     355.0014      1.585     2.99     1148.866     62.56233     989.4463        32     1.510     1.082 -79.30   0
        47    814.3179    956.2924 307.5688689  +6.2962120     2483.585     3155.677     3077.515     88.68859     177.8708     355.0014      1.340     2.88     1147.397     62.56233     393.5585        17     1.073     0.902 -59.52   0
        48    549.1421    953.3622 307.6791465  +6.2885729     1009.817     1436.886     1358.675     88.97059     177.5889     354.9308      1.527     4.49     1153.277     62.56233     139.5526         8     0.936     0.716  83.52   0
        49    231.9758    953.1156 307.8109307  +6.2780604     1396.453     2080.177      2325.92      88.8297     177.2359     354.8603      1.592     3.43     1157.431     62.56233     196.4318        13     0.987     0.902 -55.42   0
        50    196.5995    952.9702 307.8256333  +6.2769346     987.1922     1155.498     913.0646      88.2639     177.3065     354.7191      1.420     4.34     1157.098     62.56233       143.41         9     1.112     0.725 -71.13   0
        51     56.6223    951.5589 307.8838362  +6.2728207     2725.915     4582.433     4616.935     88.54726     177.3065     354.6837      1.810     4.23     1157.559     62.56233      371.847        26     1.349     1.270  17.42   0
        52    950.4459    949.1115 307.5125483  +6.3037108     8125.314     10666.77     10613.78     88.97059     177.3772     354.9661      1.364     2.57     1143.119     62.56233     1329.385        29     1.196     1.011  74.37   0
        53    207.1813    945.4034 307.8214928  +6.2804136     733.3785     1214.449     1622.799     88.54726     177.0238     354.7191      1.622     4.70      1156.97     62.56233     99.85986         6     1.054     0.638  80.36   0
        54    633.0863    943.6442 307.6445957  +6.2953893     794.7896     1248.521     867.7259     88.97059     177.3772     354.9308      1.699     4.65     1151.962     62.56233      118.046         7     1.111     0.553  30.29   0
        55    924.2797    940.7313 307.5237019  +6.3063001      2569.31     3256.945     3191.453     89.11126     177.8003     354.8955      1.348     2.83     1143.738     62.56233     378.3368        16     1.002     0.933  53.94   0
        56    783.9486    937.5170 307.5821185  +6.3029524     1613.324     2366.705     1671.514     88.97059     177.4478     355.0367      1.552     3.99     1147.177     62.56233      229.677        14     1.131     0.892 -82.39   0
        57    644.9824    936.8240 307.6398825  +6.2986026     4777.875     7290.676     7160.292     88.68859     177.3772     354.8603      1.604     3.16     1151.617     62.56233     666.5402        29     1.363     1.099  77.10   0
        58    257.3239    937.1353 307.8009394  +6.2855082     4305.253     6717.956      7107.01     89.11125     177.5183     354.8955      1.699     3.46     1157.329     62.56233     591.4626        27     1.328     1.121  83.73   0
        59    994.5159    935.8104 307.4946831  +6.3106695     991.4995     1248.432      1076.43     88.54726     177.2359     354.7544      1.439     4.46     1140.481     62.56233     155.9528        10     1.354     0.588  80.74   0
        60    467.4625    935.0798 307.7136998  +6.2933915      1136.08      1730.35     1411.859     89.11125     177.5889     354.9308      1.573     2.96     1153.669     62.56233     207.7955        10     0.929     0.740  54.13   0
        61     25.9884    934.8531 307.8971290  +6.2786897     2150.003     3254.577     3182.726      88.2639     177.4478     354.6131      1.578     3.59     1157.872     62.56233     320.6022        19     1.162     1.048  45.55   0
        62    877.0213    932.9954 307.5435981  +6.3079208     946.3653     1281.138     1022.015     88.54726     177.2359     354.7191      1.284     3.31      1144.57     62.56233      158.905         7     0.873     0.525 -51.94   0
        63    969.0594    931.6554 307.5054001  +6.3115382     591.3703     811.4572     537.0671     89.11125     177.5183     354.9308      1.347     4.13     1141.384     62.56233     114.3354         5     0.796     0.613 -81.23   0
        64    948.3824    930.4407 307.5140324  +6.3113516     1076.156     1335.561     1417.005     88.40569     177.3065     354.7191      1.409     3.34     1142.189     62.56233     160.2268        11     0.927     0.824 -66.38   0
        65    293.0210    930.2220 307.7863416  +6.2895587     729.4595     1166.405     1521.309     88.68859     177.3065     354.8955      1.607     4.98     1157.598     62.56233      122.546         7     0.981     0.716  89.28   0
        66    569.6589    929.1732 307.6714370  +6.2992462     1769.865     2564.277     2299.437     88.54726     177.5889     354.7544      1.590     4.11     1152.685     62.56233     228.3058        18     1.193     1.048 -77.40   0
        67   1001.1897    928.3558 307.4921602  +6.3139696     896.8043     1598.599      1967.22     88.40569     177.3772     354.6131      2.282     5.59     1139.751     62.56233     162.9519        10     1.308     0.672 -78.86   0
        68    609.0557    926.0502 307.6551729  +6.3018517     1202.344     1746.395     1356.458     88.97059     177.5183     354.9661      1.552     3.92     1152.182     62.56233     161.8939        11     0.953     0.893 -11.25   0
        69    288.9641    923.3259 307.7882602  +6.2922702     1360.114     2291.093     2377.643      88.8297     177.5889     354.9308      1.736     4.85     1157.523     62.56233     147.1471        17     1.195     1.059  21.70   0
        70    755.8083    919.4506 307.5944185  +6.3094740      939.934     1321.809     1009.411     88.40569     177.3772     354.5778      1.589     5.50     1147.111     62.56233     109.4928        10     1.106     0.773  15.28   0
        71    893.1935    916.1191 307.5374451  +6.3154279     7702.449      10556.7     11100.11     88.54726     177.0238     354.7191      1.430     2.63     1143.428     62.56233     1308.829        26     1.212     0.971  88.48   0
        72    429.2161    913.2488 307.7303273  +6.3011264      2096.91     3433.578     3395.399     88.40569     177.5889     354.6131      1.729     3.71     1154.356     62.56233     262.5087        20     1.244     1.018  65.44   0
        73    330.8174    911.7785 307.7712608  +6.2984400     8846.567     14095.05     14960.08     88.68859     177.3065     354.8603      1.732     3.55     1156.198     62.56233     1106.303        40     1.459     1.277  86.45   0
        74    251.0105    910.7396 307.8044546  +6.2961954     6479.613     10463.75      10827.8      88.2639     177.3772     354.6131      1.722     3.57     1156.604     62.56233     788.6243        30     1.350     1.188  89.99   0
        75    578.9708    905.2557 307.6683737  +6.3094331     1066.118     1532.582      1484.48     88.68859     177.5889      354.825      1.546     5.68     1151.771     62.56233      155.062        12     1.054     0.945  15.72   0
        76    908.9846    901.0595 307.5313894  +6.3221721     1350.881     1604.728     1758.371     88.40569     177.4478     354.6484      1.321     3.13     1142.389     62.56233     213.7896        11     0.956     0.831 -80.70   0
        77    865.1334    899.9399 307.5496481  +6.3211740     875.7258     1208.986       985.65     89.11125     177.4478     354.9308      1.486     4.82     1143.783     62.56233     152.1261         9     1.246     0.707   0.40   0
