#   1 NUMBER                 Running object number                                     
#   2 X_IMAGE                Object position along x                                    [pixel]
#   3 Y_IMAGE                Object position along y                                    [pixel]
#   4 ALPHA_J2000            Right ascension of barycenter (J2000)                      [deg]
#   5 DELTA_J2000            Declination of barycenter (J2000)                          [deg]
#   6 FLUX_APER              Flux vector within fixed circular aperture(s)              [count]
#   9 FLUXERR_APER           RMS error vector for aperture flux(es)                     [count]
#  12 FLUX_RADIUS            Fraction-of-light radii                                    [pixel]
#  13 FWHM_IMAGE             FWHM assuming a gaussian core                              [pixel]
#  14 BACKGROUND             Background at centroid position                            [count]
#  15 THRESHOLD              Detection threshold above background                       [count]
#  16 FLUX_MAX               Peak flux above background                                 [count]
#  17 ISOAREA_IMAGE          Isophotal area above Analysis threshold                    [pixel**2]
#  18 A_IMAGE                Profile RMS along major axis                               [pixel]
#  19 B_IMAGE                Profile RMS along minor axis                               [pixel]
#  20 THETA_IMAGE            Position angle (CCW/x)                                     [deg]
#  21 FLAGS                  Extraction flags                                          
         1    151.9454     23.9099 307.8653264  +6.6680082     3001.429     10253.14     15714.54     93.53331     186.6951     373.8733      3.328     8.60     1248.517     65.87506     336.1147        88     2.682     2.149 -22.34   0
         2    897.4090     21.1151 307.5554166  +6.6937950     1474.218     4322.792     6574.544      93.2359     186.5463     373.5389      3.321    11.28     1215.057     65.87506     187.8079        42     2.258     1.589 -29.25   0
         3    963.0963     17.3169 307.5282261  +6.6975259     771.8625     2147.129     3696.522     93.53331     187.3633     373.8362      3.264     7.52     1211.654     65.87506     101.4004        10     1.667     0.950 -82.93   0
         4    681.6138     13.8507 307.6454031  +6.6896870     2159.901      7127.47      10353.5     92.93755     186.9181     373.4273      3.176     8.65     1220.318     65.87506     261.1958        69     2.434     1.987 -22.12  16
         5    602.0070     13.1908 307.6785309  +6.6873326     1224.946     3561.416     4681.294     92.93755     186.6951     373.5389      2.881     9.84     1222.461     65.87506     155.1017        29     1.861     1.526  86.61   0
         6    402.1775      9.6010 307.7617522  +6.6822118     1751.201     5933.008     10148.02      93.2359     186.5463     373.4273      3.576    11.90     1237.769     65.87506     218.0289        73     2.851     2.126 -25.93  16
         7      3.3287      9.7728 307.9276029  +6.6689172     2601.095     7646.358     10401.07     93.38473     178.0919     317.0774      2.933     8.63     1249.191     65.87506     337.6218        59     2.207     2.027 -48.61  26
         8    298.7046      4.8003 307.8049431  +6.6807707     3445.175     11986.21     18792.39     93.08685     186.4718     339.1689      3.394     8.97     1248.904     65.87506     415.8208        90     2.834     2.069 -25.09  24
         9     73.2967      6.2433 307.8986277  +6.6726996     808.1406      2234.97       4130.3     93.68166     186.8438     357.5068      3.735     5.17     1249.187     65.87506     107.0044         8     1.343     0.563  40.54  16
        10    364.7620      4.5580 307.7774814  +6.6830580     767.9724     1491.988      2411.04     93.38473     186.9181     335.9602      2.144     4.31     1241.736     65.87506     113.3113         8     1.074     0.629 -78.60  16
        11    623.8375      1.1738 307.6698562  +6.6930199     1105.445     1552.211     1694.473      78.5213     145.3796     277.8647      1.539     4.99      1221.97     65.87506     225.3262        11     2.049     0.343  -4.55  24
        12    611.8827    992.0196 307.6415518  +6.2830937     847.9482     1554.942     2370.062      93.2359     186.5463     373.6504      2.251     5.52     1277.956     65.87506     111.2084         8     1.385     0.620 -16.72   0
        13    455.6559    989.3278 307.7065596  +6.2790488     1046.822     2391.243     3487.697     93.53331     186.8438     373.6876      2.894     8.18     1276.988     65.87506     133.6315        15     1.671     1.118  12.01   0
        14    890.2414    981.2246 307.5262431  +6.2967250     24112.73     55627.89     68807.84      93.2359     186.7694     373.4645      2.540     6.38      1274.97     65.87506     2619.026        96     2.525     1.548 -19.81   0
        15    196.5593    979.7608 307.8145421  +6.2744318     735.2669     1622.755      2537.29     93.38473     186.9924      373.576      3.067     4.96     1276.644     65.87506     100.7798         6     0.952     0.732  19.38   0
        16    789.3518    973.6787 307.5684206  +6.2965234     983.4557     2421.248     3516.306     93.68166     186.9924     373.6504      3.029     6.45     1275.068     65.87506     149.1799        10     1.565     0.746   6.73   2
        17    736.4218    972.9387 307.5904404  +6.2950858     3235.081     8235.057     10645.94      93.2359     186.9181     373.6132      2.771     7.22     1275.094     65.87506     354.1378        56     2.402     1.505 -24.53   0
        18     31.8160    969.3449 307.8833462  +6.2732755     1067.807     2696.178     4446.632     92.93755     186.8438     373.3902      3.294     8.18     1273.928     65.87506     134.9548        17     2.208     0.847 -35.74   2
        19    924.5031    967.9277 307.5124504  +6.3033478     3822.732     8722.363     10303.45     93.53331     187.0666     373.6876      2.457     6.35      1273.99     65.87506     463.5881        50     2.347     1.279 -26.09   0
        20    897.3561    959.5302 307.5240125  +6.3059259     1175.776     2330.286     2700.767     93.68166     186.9181     373.7619      2.138     6.90     1273.514     65.87506     140.5839        18     1.334     1.207  75.13   0
        21    618.8222    956.0008 307.6398768  +6.2982098     1969.177     5510.716      6514.42      93.2359     186.5463     373.3902      2.768     9.33     1276.433     65.87506      217.192        45     2.325     1.427 -17.60   0
        22    231.8278    956.2758 307.8006785  +6.2853063     1711.396     4859.522     5657.938     93.53331     186.9181     373.6876      2.772     9.27      1276.54     65.87506     196.2771        40     2.106     1.487  -6.10   0
        23      1.1310    953.6823 307.8966248  +6.2787306      711.415     1122.813     889.1924      78.5213      144.997     277.1141      1.536     2.89     1273.517     65.87506     165.9512         5     0.929     0.334  86.82  24
        24    582.7635    943.8047 307.6552704  +6.3020611     499.3394     972.0684     1742.851     92.63823     186.6207     373.5017      2.125     4.41       1276.3     65.87506     110.7252         5     1.447     0.382   4.40   0
        25    261.3217    942.9575 307.7888715  +6.2917874     558.5758     1603.071     2463.688     93.53331     186.9181     373.7619      3.121     5.03     1276.199     65.87506     109.5037         5     1.040     0.687  26.99   2
        26    867.0782    935.0400 307.5374146  +6.3150521     3461.399     8238.526     10368.31     93.53331     186.9181     373.7619      2.600     6.74     1271.978     65.87506     386.2865        56     2.436     1.448 -18.70   0
        27    305.0684    931.0605 307.7710937  +6.2981524     3787.431     10609.96     14368.19     93.82977     186.8438     373.7247      2.932     7.30     1276.114     65.87506     375.9457        71     2.512     1.732 -21.09   0
        28    225.2994    930.0526 307.8042746  +6.2959284     2945.498     8044.215     11198.87     93.68166     186.9181     373.9847      2.928     7.90     1275.393     65.87506     280.8862        61     2.457     1.626 -16.29   0
        29    403.4614    931.8018 307.7301823  +6.3011002     912.4355     2318.528      3541.09     92.93755     186.6951     373.3902      3.151     7.89     1276.093     65.87506     107.6869        14     1.707     1.021 -82.82   0
        30    718.2625    912.6993 307.6000060  +6.3193857     779.5259     1802.989     2336.254     93.38473     186.9924      373.799      2.624     4.35     1272.631     65.87506     115.6597         5     0.964     0.559  36.54   0
        31    950.6970    908.2169 307.5035624  +6.3288891     680.1366     1299.539     1919.856     93.53331     186.6951     373.4645      1.732     4.43     1268.966     65.87506     111.3694         5     1.180     0.474 -29.75   0
        32    637.3336    905.8865 307.6338659  +6.3195336     1194.569     2638.791     3091.405     93.68166     187.1408     373.7619      2.355     7.45     1273.861     65.87506     148.6337        21     1.635     1.107 -34.08   0
        33     35.3555    903.1882 307.8841084  +6.3007355     1221.419     3529.859     4709.295     93.08685     186.7694     373.3902      2.825     9.97     1273.058     65.87506     134.0627        31     1.937     1.430 -39.15   0
        34    178.6966    902.7217 307.8245608  +6.3056808     884.8804     2181.354     3032.696     93.38473      187.215      373.799      2.784     8.43     1275.024     65.87506     111.6454        14     1.580     1.256   6.31   0
        35     52.8556    902.0002 307.8768766  +6.3018071     981.9031     2310.325     2373.331     92.78801     186.4718     373.2786      2.342     6.83     1273.216     65.87506     156.9966        14     1.446     0.904   8.00   0
        36    632.5344    895.9201 307.6361946  +6.3234946     2846.208     7432.279      9527.16     93.97765     187.0666     373.6876      2.793     8.27     1273.555     65.87506      306.436        55     2.368     1.688 -12.06   0
        37    315.7888    889.4240 307.7680405  +6.3157159     5936.802     17538.07     25752.59     93.23591     186.6951     373.6132      3.157     7.82     1275.401     65.87506     587.5427        96     2.692     2.021 -20.25   0
        38    870.1474    891.7305 307.5375889  +6.3330540     1401.353     3301.308     4053.272     93.53331     186.7694     373.6132      2.664     7.65     1269.195     65.87506     172.0249        27     1.792     1.171 -33.48   0
        39    794.7738    872.5802 307.5695542  +6.3384883     1296.442     3536.653     4792.717     93.08685     186.6207     373.6132      2.922    11.08     1269.669     65.87506     151.4603        34     2.279     1.501 -36.65   0
        40     61.8065    873.9932 307.8741023  +6.3136793      963.391     3001.456     4063.446     92.93755     186.6951     373.5389      3.104     9.18     1272.605     65.87506      127.089        17     2.273     1.035  14.29   2
        41    831.0903    871.8901 307.5544847  +6.3399691     874.0052     1964.934     2703.325     93.68166     187.5115     373.8362      2.870     4.39      1268.84     65.87506     112.8788         6     0.806     0.681 -22.73   0
        42    530.6564    864.3281 307.6795929  +6.3331902     125799.9     360919.3     507212.4     93.53331     186.8438     373.6876      3.027     7.28     1273.808     65.87506     12886.66       200     2.864     2.063 -18.30   0
        43    375.0877    867.0649 307.7441506  +6.3269186     2886.856     8631.282     12316.83     93.68166     187.1408     373.7247      3.121     8.14     1274.604     65.87506     292.9512        66     2.391     1.900 -22.88   0
        44    318.1686    865.5480 307.7678552  +6.3256628      4401.94     13096.04     18846.16     93.53331     187.0666     373.6504      3.195     8.31     1274.954     65.87506     420.9274        83     2.768     1.870 -23.44   0
        45    636.3209    861.3918 307.6357797  +6.3378907     1382.417      3977.98     5554.164     93.23591     186.3228     373.5389      3.052    11.05     1271.912     65.87506     169.1051        37     2.205     1.543 -23.44   0
        46    868.8831    860.1176 307.5391726  +6.3460788     2381.738      6189.96     8202.277     93.38473      187.215     373.8362      2.906     8.61     1267.253     65.87506     291.8994        55     2.605     1.496 -22.54   0
        47    611.7454    855.1858 307.6462011  +6.3396451     1271.991     3504.373     5723.449     92.93755     186.8438     373.3902      3.544     9.22     1272.125     65.87506      180.145        26     1.660     1.430 -14.25   0
        48   1002.3062    854.0406 307.4839259  +6.3529779     2644.188     6057.931      7444.77     93.82977     186.8438     373.8362      2.506     6.98      1263.51     65.87506     294.6587        42     2.186     1.284 -23.63   0
        49    859.0743    873.9742 307.5427851  +6.3400288     956.6875     1811.632     1694.335      93.2359     186.7694     373.6876      2.076     5.98       1268.3     65.87506     119.4905        11     1.130     0.889 -60.81   0
        50    604.4819    848.5053 307.6494439  +6.3421667     746.3313     2139.035     3794.351     93.38473     187.2892     373.8362      3.324     5.64     1271.867     65.87506     97.34802         8     1.178     0.761  21.00   2
        51    887.6478    847.5853 307.5317936  +6.3518761     1727.285     4055.079     5044.279     92.93755     186.8438     373.4273      2.701     7.31      1266.28     65.87506     177.2565        27     1.661     1.279 -49.11   0
        52    344.5528    845.9592 307.7575501  +6.3346320     755.5792     1446.075     2750.785     93.53331     186.9181     373.5389      3.466     4.25     1274.457     65.87506     106.2399         6     0.930     0.830   2.38   3
        53    346.9455    842.9875 307.7566558  +6.3359394     923.1589     2151.126     2795.038     92.93755     186.8438     373.3902      2.657     5.65     1274.408     65.87506     136.0011        11     1.381     0.651   9.72   2
        54    480.6711    833.1649 307.7014128  +6.3444197     1031.048     2823.789     5072.407     93.53331     186.9181     373.7247      4.024    11.02     1272.516     65.87506     116.0061        25     2.228     1.519  74.95   2
        55    826.8096    832.6009 307.5575796  +6.3560674     612.6295     1219.308     1925.702     92.93755     186.5463     373.4273      1.884     3.73     1266.529     65.87506     80.92603         5     1.512     0.265  40.70   0
        56    529.9269    830.0214 307.6810485  +6.3473457     2143.384     6593.917     10571.17      93.2359     186.6951     373.6504      3.566    12.07     1271.538     65.87506     254.9325        63     2.936     1.637  -8.47   0
        57    499.6840    824.0753 307.6938169  +6.3488046     6831.287     20725.06     30030.91     93.82977     187.2892     373.8362      3.163     7.92     1271.605     65.87506     726.7853       102     2.796     2.000 -19.13   0
        58    912.9559    821.8456 307.5221370  +6.3633475     1821.841     4775.409     6037.268     93.68166     186.9181     373.6504      2.779     9.46     1264.888     65.87506     234.0125        39     2.106     1.464 -22.30   0
        59    292.7885    814.1740 307.7801320  +6.3460563     998.9714     3003.363     4453.105      93.2359     186.6951     373.6504      3.273     6.28     1274.579     65.87506     138.1453        11     1.486     0.745  42.09   2
        60    757.7932    808.3336 307.5870760  +6.3638248     21907.89     60864.85     82619.38     93.08685     186.6207     373.5017      2.900     7.23     1266.468     65.87506     2213.205       115     2.738     1.860 -20.97   0
        61    215.3518    806.5306 307.8125703  +6.3466515     1926.481     6017.002      9853.58     93.68166     186.8438     373.7619      4.190     9.29     1273.609     65.87506     203.3135        58     2.329     1.852 -16.32   0
        62    680.9822    800.2207 307.6192711  +6.3646467     28643.04     93072.73     156312.8     93.38473     186.7694     373.6132      3.664     9.49       1267.6     65.87506     3321.129       207     3.766     2.368  15.69   0
        63    882.9251    803.4587 307.5352335  +6.3699594     3917.157      9966.12     12937.92     93.82977     186.9181     373.6876      2.693     7.12     1264.423     65.87506     406.1379        61     2.306     1.625 -15.83   0
        64    324.9231    800.8278 307.7672268  +6.3526359     6751.465      21080.1     31280.03     93.53331     186.9181     373.6876      3.211     8.34     1274.177     65.87506     616.7662        99     2.837     2.021 -18.05   0
        65    386.6442    798.5616 307.7416526  +6.3556141     7485.091      23216.6     33915.42     93.38473     186.8438      373.576      3.186     7.81     1273.164     65.87506     760.1901       100     2.776     2.023 -19.84   0
        66    214.8173    785.2454 307.8135097  +6.3554311     736691.4      2390002      3589750     93.08685     186.7694     373.4273      3.282     9.24     1272.346     65.87506     64273.41       572     3.083     2.436 -20.66   4
        67    924.7479    795.9930 307.5181012  +6.3744209     856.5953     2165.695     2513.822     93.08685     186.6951     373.2786      2.667     6.86     1263.915     65.87506     113.0344         9     1.841     0.717 -75.21   2
        68    620.4977    794.0250 307.6446165  +6.3652128     2253.132     6571.049     9076.129     93.82977     186.6207      373.576      3.029     8.86     1268.044     65.87506     231.0311        63     2.504     1.814 -23.10   0
        69    879.8329    794.9065 307.5368049  +6.3733925     3012.633     7892.679     10285.82     93.82977     186.7694      373.799      2.814     6.80     1264.082     65.87506     376.6794        58     2.287     1.641 -14.29   0
        70    389.5587    781.2746 307.7410229  +6.3628554     17764.17     55582.05     81016.95     93.53331     186.9181     373.7619      3.184     8.14     1271.635     65.87506     1667.848       128     2.878     2.091 -18.03   0
        71    655.9608    783.9341 307.6302165  +6.3705533      903.336     2477.617     2995.586     93.53331     186.8438     373.8362      2.613     9.43     1266.909     65.87506     112.1064        20     2.157     1.150  -8.72   0
        72    507.3496    780.1775 307.6921062  +6.3672014     2331.525     7425.207     10747.78     93.08685     186.9924      373.576      3.092     8.69     1268.587     65.87506     283.5074        64     2.486     1.771 -18.61   0
        73    424.1232    778.1750 307.7267623  +6.3652792     1472.838     4802.851     8628.175      93.2359     186.8438     373.6876      3.782    11.43     1270.708     65.87506     186.1202        53     2.305     2.012  -0.54   0
        74    752.1907    776.6207 307.5904675  +6.3767479     4441.898     12795.69     17791.91      93.2359     186.5463     373.5017      2.996     7.80     1264.118     65.87506       457.99        80     2.688     1.810 -21.47   0
        75    897.6426    764.8629 307.5304086  +6.3863962     2769.165     7019.975     9561.358     93.68166     186.8438      373.799      2.778     7.57     1262.696     65.87506     292.4613        55     2.340     1.560 -25.12   0
        76    110.8891    769.0254 307.8572472  +6.3586906      4080.58     12495.28     21696.19     93.82977     186.6951     373.5389      4.453    11.40     1269.246     65.87506      401.739       132     4.103     2.263   8.66   2
        77    947.6763    763.6454 307.5096540  +6.3885450     698.6401     1525.464     3059.456     93.53331     186.9924     373.7619      2.071     4.76     1261.587     65.87506     105.0604         8     1.382     0.465   4.98   0
