#   1 NUMBER                 Running object number                                     
#   2 X_IMAGE                Object position along x                                    [pixel]
#   3 Y_IMAGE                Object position along y                                    [pixel]
#   4 ALPHA_J2000            Right ascension of barycenter (J2000)                      [deg]
#   5 DELTA_J2000            Declination of barycenter (J2000)                          [deg]
#   6 FLUX_APER              Flux vector within fixed circular aperture(s)              [count]
#   9 FLUXERR_APER           RMS error vector for aperture flux(es)                     [count]
#  12 FLUX_RADIUS            Fraction-of-light radii                                    [pixel]
#  13 FWHM_IMAGE             FWHM assuming a gaussian core                              [pixel]
#  14 BACKGROUND             Background at centroid position                            [count]
#  15 THRESHOLD              Detection threshold above background                       [count]
#  16 FLUX_MAX               Peak flux above background                                 [count]
#  17 ISOAREA_IMAGE          Isophotal area above Analysis threshold                    [pixel**2]
#  18 A_IMAGE                Profile RMS along major axis                               [pixel]
#  19 B_IMAGE                Profile RMS along minor axis                               [pixel]
#  20 THETA_IMAGE            Position angle (CCW/x)                                     [deg]
#  21 FLAGS                  Extraction flags                                          
         1    186.3117     22.0999 307.8649797  +6.6682283     10168.55     16809.19     17737.82     78.81055     157.7458     314.3681      1.736     4.27     856.7274       55.418     1340.139        41     1.709     1.011 -32.82   0
         2    931.8593     19.9038 307.5552393  +6.6941685     3918.141     6436.065     6631.267     78.68576     157.2466     314.4931      1.705     4.22     836.9235       55.418      599.009        26     1.607     0.898 -29.06   0
         3    468.9140     18.5767 307.7476666  +6.6791946     1801.169     2923.814     2894.858     78.81055      157.059     314.2743      1.734     4.92      845.077       55.418      235.442        20     1.544     0.875 -32.03   0
         4    996.7952     16.0633 307.5283828  +6.6979253         1868     3135.575      3056.07     78.18457      157.059     314.1805      1.738     4.65     832.6091       55.418     254.6182        21     1.560     0.818 -40.88   0
         5    716.0017     12.6234 307.6451885  +6.6899463     6854.258     11128.95     11836.88     78.43556     156.9338     314.1805      1.675     4.27     840.2758       55.418     1046.763        35     1.607     0.994 -33.35   0
         6    636.3408     11.8370 307.6783192  +6.6875993     3633.156     5619.189      5419.96     78.81055     157.3091     314.3994      1.673     4.12     841.3634       55.418     565.8088        26     1.580     0.855 -32.81   0
         7    338.4735     11.5067 307.8021100  +6.6777265     835.1035     1414.535     1496.554     78.68576     157.3715     314.3681      1.822     5.76     855.0887       55.418     132.8464        10     1.378     0.677 -48.75   0
         8    436.4359      8.0164 307.7615201  +6.6824627     5959.513     9675.648     9882.566     78.43556     156.9964      312.864      1.697     4.11     847.3799       55.418     805.4824        32     1.636     0.950 -37.04  16
         9    392.6314      9.9207 307.7796586  +6.6802035     496.1681     412.4308     184.3175     78.68576     157.2466     314.3681      1.362     3.47     850.8909       55.418     121.8464         5     0.990     0.352 -44.86   0
        10     37.4090      7.6812 307.9273420  +6.6691579     7973.353     13141.44     13722.81     78.43556     156.8711     311.1946      1.752     4.29     857.6693       55.418     1056.037        37     1.653     1.011 -37.09  16
        11    683.5472      6.9436 307.6588672  +6.6912030     929.0345     1643.933     1600.853     78.93516     157.2466     306.3568      1.737     6.46     840.0394       55.418     117.0654        14     1.639     0.715 -34.26  16
        12    332.9459      3.0786 307.8046924  +6.6810200     12243.07     19899.93     20873.03     78.93516     147.3744     263.4075      1.736     4.30     855.3154       55.418     1752.591        41     1.731     1.027 -36.63  24
        13    512.2430      5.1478 307.7301152  +6.6861947       942.94     1302.326      1307.52     78.81055     157.2466     289.4666      1.519     5.03     843.0961       55.418     143.5961         9     1.224     0.585 -33.31  16
        14    106.5124      3.1826 307.8987805  +6.6733471     2339.339     3816.701     4349.504     78.56076      148.305     264.5616      1.726     3.99     855.5219       55.418     390.3667        24     1.488     0.939 -41.48  24
        15    427.8727      4.0743 307.7652119  +6.6838023     665.8592     1062.111     1447.585     79.05956     155.8655     276.7972      1.660     3.96     847.9969       55.418      94.0528         6     0.772     0.582 -50.64  16
        16     97.9164      2.3945 307.9023792  +6.6733825     1437.758     2301.174     2402.099     78.05877     139.5654     253.0947      1.608     5.93     855.3423       55.418     224.5549        14     1.562     0.640 -41.94  24
        17    801.4225      1.9909 307.6100488  +6.6971983     788.7188     1253.385     1371.668     75.49876     134.2535     247.0027      1.614     4.28      839.119       55.418     138.9009         9     1.245     0.515 -29.74  24
        18    398.7947      1.5115 307.7773821  +6.6838825     1649.766     2130.024     2005.136     70.23891     127.1864     239.2826      1.221     3.82     850.4552       55.418     357.9126        12     1.330     0.584 -14.46  24
        19    549.9731    996.3223 307.6809644  +6.2782431     7956.875      12721.9     13826.01     78.68576     157.1841     314.3681      1.668     4.12     876.2797       55.418     1148.697        35     1.609     0.975 -38.64   0
        20    756.7581   1023.7061 307.5941779  +6.2738686     937.5755     1375.057     1252.453      68.1078     124.3736     236.0573      1.399     3.99     873.6578       55.418     190.3445         6     1.057     0.433  -8.47  24
        21    892.2720    993.2501 307.5389321  +6.2909778     11133.53     19233.91     20676.43     78.81056     157.2466     314.4306      1.873     4.33     871.7336       55.418     1391.632        50     1.792     1.189 -27.40   0
        22   1014.0457    992.6099 307.4883872  +6.2953119     4073.648     7685.569     8115.593     78.31017     157.1215     314.0866      1.992     4.66     865.4152       55.418     519.7336        37     1.808     1.143 -29.86  16
        23    536.6211    992.2900 307.6866446  +6.2794599     4038.427     6937.301     8105.802     78.68576      157.059     314.3056      1.917     4.24     876.3409       55.418     574.5423        34     1.706     1.197 -12.59   0
        24    605.2208    993.4379 307.6581211  +6.2812873      1293.86     2007.152     2354.055     78.43556     156.9964     314.1492      1.626     3.94       875.34       55.418     202.5883        17     1.327     0.890 -33.64   0
        25    646.1154    991.4256 307.6412081  +6.2834893     1197.801     1941.432     2134.171     78.93516     156.9964     314.2743      1.755     5.98     875.0552       55.418     158.0011        17     1.575     0.782 -32.00   0
        26     71.2157    990.9421 307.8799338  +6.2643629     737.9889     1270.779     1498.752     78.18457     157.1841     314.1179      1.584     4.60     876.8249       55.418     134.2244         8     1.278     0.469 -33.83   0
        27    489.3790    988.6828 307.7063826  +6.2793635      2204.15     3486.895     3890.246     78.56076     156.9338     314.3369      1.648     4.35     876.5837       55.418      361.273        20     1.491     0.824 -31.28   0
        28    397.3391    987.0611 307.7446548  +6.2769415     473.9938     780.0211     718.7044     78.81055     157.2466     314.4306      1.641     4.69     877.9518       55.418     76.11005         5     1.057     0.590 -14.98   0
        29    924.0118    980.7726 307.5261717  +6.2971907     38436.73     67586.94     73054.27     78.43556      157.059     314.3369      1.871     4.21     871.0587       55.418     4498.641        77     1.860     1.267 -31.98   0
        30    329.5294    981.6938 307.7729924  +6.2768780     667.3829     831.2352     743.8008     78.81056     157.3091     314.3994      1.380     4.48     878.3668       55.418     99.34521         7     0.996     0.574 -31.40   0
        31    231.1610    979.0325 307.8139268  +6.2746674     1620.841     2566.469      2767.53     78.43556      157.059     314.2118      1.604     4.61     878.0864       55.418     239.9235        15     1.373     0.709 -36.43   0
        32    118.7776    978.2410 307.8606165  +6.2712095     751.9883     1175.478      917.327     78.43556      157.059     314.1805      1.487     4.86     876.3322       55.418      130.434        10     1.339     0.641 -32.74   0
        33    630.1306    977.1547 307.6483267  +6.2888454      781.621       1259.5     835.6848     78.81055     157.1841     314.3994      1.668     5.74     874.8207       55.418      114.927        10     1.249     0.744 -50.57   0
        34    821.9969    974.5139 307.5687441  +6.2963625     2150.596     3520.389     3690.979     78.18457     156.8711     314.1179      1.630     4.36     871.3397       55.418     301.7582        21     1.575     0.791 -36.92   0
        35    770.0533    972.4329 307.5903836  +6.2954830     6126.419     10451.23     11763.22     78.68576     157.1841     314.3369      1.904     4.26     872.0621       55.418     814.1792        38     1.774     1.106 -43.53   0
        36    737.0298    973.5645 307.6040585  +6.2939099     593.3193     618.7791     550.8544     78.43556     156.9964     314.2118      1.375     4.48     872.8568       55.418     94.30084         5     1.031     0.553 -75.98   0
        37    556.7288    971.8874 307.6789837  +6.2885582     975.3536     1477.967     1423.573     78.93516     157.4964     314.3994      1.666     3.99     875.7575       55.418     134.3549        10     1.182     0.581 -38.91   0
        38    239.4290    971.4759 307.8107495  +6.2780655     1581.975     2350.595     2562.289     78.68576     157.3091     314.4306      1.637     4.43      877.816       55.418     225.6953        15     1.308     0.741 -33.29   0
        39    204.4127    970.5077 307.8253217  +6.2772865     768.6883      1324.66     846.2706     78.56076     156.9964     314.1805      1.737     5.49     877.2523       55.418     117.3398         8     1.496     0.567 -33.36   0
        40     64.4532    969.4359 307.8834708  +6.2730138     2620.744     4349.742     4611.783     78.68576     157.2466     314.4306      1.783     4.72     876.6399       55.418     333.4792        24     1.736     0.808 -35.68   0
        41    958.3787    967.5182 307.5123463  +6.3038118     5962.115     10479.61     10754.09     78.56076     156.9338     314.3056      1.883     4.47     868.7798       55.418     753.5923        37     1.692     1.120 -31.95   0
        42    214.5858    963.6785 307.8213288  +6.2804485     612.8599     970.5121     1154.387     78.43556     156.9964     314.2118      1.482     4.09      877.256       55.418     91.21478         6     0.882     0.542 -46.58   0
        43    640.6215    961.4403 307.6445002  +6.2956851     774.1699     1194.532     973.9641     78.43556      157.059     314.2118      1.621     5.26     874.3939       55.418     105.9029         9     1.340     0.583 -27.02   0
        44    932.0552    959.2493 307.5235552  +6.3063460      1739.29     3081.443     3552.048     78.81055     157.2466     314.4619      2.035     4.91     869.6189       55.418     220.6546        23     1.558     0.939 -31.24   0
        45    791.6956    955.7625 307.5819579  +6.3030903     1267.753     2030.238     2261.111     78.93516     157.1215     314.5244      1.705     4.91     871.2676       55.418     174.2186        14     1.399     0.808 -49.84   0
        46    652.8914    955.0576 307.6396204  +6.2987316     4399.992     7077.732     7236.064     78.68576     157.1841     314.4931      1.645     4.14     874.1755       55.418     700.3685        30     1.608     0.919 -35.03   0
        47    265.0961    955.2112 307.8006424  +6.2856442     4247.429     6584.276     6696.328     78.56076     156.9338     314.2118      1.640     4.10     877.4402       55.418     602.2611        26     1.577     0.853 -36.40   0
        48   1001.7928    955.2516 307.4947303  +6.3103270     722.7728     1361.005     1429.243     78.31017      157.059      314.024      2.020     5.73     866.6191       55.418     89.26135         8     1.243     0.744 -69.28   0
        49    475.0284    953.4974 307.7135296  +6.2934084     1126.749       1725.1     1783.819     78.93516     156.9964     314.3994      1.627     5.42     876.3347       55.418     159.4656        12     1.400     0.605 -30.03   0
        50     33.6671    952.6017 307.8968243  +6.2789257     1971.627     3256.333     3199.931     78.31017     156.8085     314.1805      1.690     4.29     876.6268       55.418     262.0535        19     1.493     0.845 -36.88   0
        51    884.3242    951.8079 307.5436262  +6.3078224     887.5237     1335.161     885.6042     78.43556     156.7458     314.2118      1.579     5.54     870.1242       55.418     112.8234        11     1.277     0.678 -32.34   0
        52    577.6351    947.7582 307.6711166  +6.2992217     1580.997     2411.166     2309.106     78.56076     157.2466      314.243      1.655     4.45     874.9346       55.418     222.2063        18     1.515     0.789 -30.26   0
        53    301.0010    948.7577 307.7859521  +6.2895165     783.6894     1247.061       1390.2     78.18457     156.9338      314.024      1.508     5.35     877.4799       55.418     120.9619        11     1.283     0.630 -35.42   0
        54   1009.6871    946.0561 307.4917609  +6.3143873     823.8773     1768.101     2159.989     78.81055     157.1215     314.5244      2.519     5.04     866.4413       55.418     162.7426         9     1.238     0.582 -61.73   0
        55    616.4884    944.1186 307.6551055  +6.3020275     1188.209     1840.237      1449.51     78.56076     157.4339     314.4931      1.552     4.82     874.1899       55.418     188.0907        11     1.291     0.607 -34.45   0
        56     65.0000    945.0193 307.8840716  +6.2831126     509.9293     1111.423      1580.74     78.31017     156.7458     314.0553      2.209     3.75     876.3123       55.418     106.6246         5     0.832     0.485 -68.94   2
        57    296.5701    941.6336 307.7880329  +6.2923087     1538.223     2429.685     2541.255     78.31017     156.9964     314.1179      1.690     3.93     877.2852       55.418     226.7147        16     1.271     0.820 -41.36   0
        58    763.9942    937.5196 307.5940754  +6.3096948     863.0721     1474.635     834.7322     78.43556     156.8085     314.1492      1.622     5.73     871.3848       55.418     130.4825        11     1.480     0.625 -31.41   0
        59    901.0377    934.3352 307.5372734  +6.3155953     6398.282     10791.94     11465.46     78.68576     157.1841     314.4931      1.812     4.07     868.9915       55.418     811.2272        38     1.684     1.064 -35.55   0
        60    139.1011    935.9541 307.8536107  +6.2893525     579.2511     620.2651     324.5215     78.81055     157.1215     314.6181      1.354     4.49     876.0451       55.418     89.79523         6     0.795     0.721 -75.70   0
        61    436.8997    931.4996 307.7301053  +6.3012099      1981.96      3103.14     3077.556     78.81055     157.6211      314.243      1.660     4.57     876.6517       55.418     287.0642        17     1.521     0.696 -36.77   0
        62    338.6439    929.8199 307.7709619  +6.2986011     9295.828     15094.09     15879.41     78.31017     157.1215      314.243      1.713     4.09     876.9473       55.418     1281.456        40     1.641     1.026 -35.32   0
        63    258.6917    928.7262 307.8041980  +6.2963633     6758.143      10862.6     11806.94     78.81056     157.3715     314.4306      1.731     4.15     876.4987       55.418     973.2679        36     1.733     0.941 -36.37   0
        64    586.8660    923.3706 307.6681062  +6.3096002     1053.503     1702.429     2079.861     78.56076     157.2466     314.3369      1.609     5.48     874.2578       55.418     144.0772        12     1.348     0.629 -35.62   0
        65    770.8277    923.3883 307.5917135  +6.3157580     810.4561     1310.667     1198.169     78.43556      157.059     314.3369      1.559     3.99     870.9589       55.418     126.4144         7     0.939     0.485   3.39   0
        66    916.4399    919.8287 307.5313651  +6.3220997     1118.665     1759.904       1815.4     78.43556     156.9964     314.2743      1.782     4.93     868.1902       55.418     168.7107        12     1.240     0.776 -36.30   0
        67    149.2762    919.6193 307.8499392  +6.2964392     663.0397     1122.476     1233.005     78.43556     156.9338     314.3369      1.987     6.11     875.9167       55.418       96.966         7     1.365     0.768 -35.43   0
        68    872.7524    917.7164 307.5495784  +6.3215108     538.9196     1301.459     1228.306     78.81056     157.2466     314.4306      2.440     7.81     869.3297       55.418     85.55219        10     2.213     0.770  -3.37   0
        69    415.9701    917.5303 307.7392682  +6.3062741      695.911     980.6458     966.0054     78.68576     157.2466     314.3369      1.433     4.54     876.6116       55.418     94.78595         8     0.809     0.726 -76.96   0
        70    984.0560    915.3828 307.5034353  +6.3261953     827.9283      1408.75     1426.353     78.31017     157.1841     314.1492      1.730     6.95     866.4879       55.418      114.124        13     1.539     0.879 -36.26   0
        71    753.0795    912.5839 307.5994476  +6.3196245     1534.544     2365.771     2946.861     78.43556     156.9964     314.2118      1.813     4.73     871.0155       55.418     213.9592        15     1.469     0.706 -41.17   0
        72    576.4946    913.3284 307.6727517  +6.3133983     726.7855     1026.669     439.8864     78.68576     157.3091     314.3994      1.525     6.08     874.2742       55.418     139.3491        11     1.642     0.633 -27.19   0
        73    617.4536    909.2567 307.6558804  +6.3164532     804.6002     1286.571     1609.193     78.93516     157.2466     314.3994      1.936     4.77     873.3572       55.418       118.88         9     1.047     0.737 -42.03   0
        74      3.6595    909.7067 307.9107390  +6.2956227     887.2912     1675.977     1632.215     78.68576     152.7447     271.4554      2.077     6.09     875.7394       55.418     119.6549        13     1.492     0.699 -17.68  24
        75    984.8210    908.0881 307.5033627  +6.3292327     1176.527     2108.376     2133.207     78.81055     156.9964     314.2743      1.824     6.66     866.1455       55.418     143.0798        17     1.730     0.813 -25.73   0
        76    629.3268    908.5446 307.6509739  +6.3171453     705.9431     941.7393     946.4813     78.68576     157.1215     314.3056      1.658     4.47     873.1747       55.418     93.41754         7     1.031     0.552 -58.38   0
        77    538.5092    908.0731 307.6887028  +6.3142935     1041.752     1518.413     1876.607     78.81055     157.4964     314.4306      1.572     5.87     874.9075       55.418     150.4561        14     1.425     0.815 -12.04   0
