#   1 NUMBER                 Running object number                                     
#   2 X_IMAGE                Object position along x                                    [pixel]
#   3 Y_IMAGE                Object position along y                                    [pixel]
#   4 ALPHA_J2000            Right ascension of barycenter (J2000)                      [deg]
#   5 DELTA_J2000            Declination of barycenter (J2000)                          [deg]
#   6 FLUX_APER              Flux vector within fixed circular aperture(s)              [count]
#   9 FLUXERR_APER           RMS error vector for aperture flux(es)                     [count]
#  12 FLUX_RADIUS            Fraction-of-light radii                                    [pixel]
#  13 FWHM_IMAGE             FWHM assuming a gaussian core                              [pixel]
#  14 BACKGROUND             Background at centroid position                            [count]
#  15 THRESHOLD              Detection threshold above background                       [count]
#  16 FLUX_MAX               Peak flux above background                                 [count]
#  17 ISOAREA_IMAGE          Isophotal area above Analysis threshold                    [pixel**2]
#  18 A_IMAGE                Profile RMS along major axis                               [pixel]
#  19 B_IMAGE                Profile RMS along minor axis                               [pixel]
#  20 THETA_IMAGE            Position angle (CCW/x)                                     [deg]
#  21 FLAGS                  Extraction flags                                          
         1    758.3857     17.6524 307.6196459  +6.6705418     883.5803     2252.473     2676.548     92.09948     185.1589       370.06      2.583     8.55     1194.632     65.28103     140.0566        15     1.939     1.053  35.31   0
         2     85.1319     11.5261 307.8997883  +6.6504810     3288.585     10562.29     14365.15     92.98366     185.3797     370.3178      3.050     7.80     1226.356     65.28103     365.0023        73     2.274     2.044  27.64  16
         3    413.4207     11.5689 307.7632883  +6.6614980     729.0192     2186.054     3189.897     92.24744     185.0116     370.2073      3.064     6.41     1211.234     65.28103     91.43127         9     1.601     0.720 -74.71  16
         4    627.6749      3.5764 307.6744666  +6.6719784     6648.177     18963.26     23022.27     92.39515     178.9415     318.1431      2.700     6.96     1198.761     65.28103     728.6959        67     2.275     1.770   4.58  24
         5    527.2977      1.5702 307.7162716  +6.6694440     1216.482       2168.6     2489.307     84.37179     151.3619     283.0759      2.076     6.68     1201.583     65.28103     234.0641        15     1.813     0.691   6.27  24
         6     62.5687   1004.2127 307.8759140  +6.2399916     4359.841     10083.33     12182.14     92.24744     184.9378      370.281      2.470     5.78     1252.841     65.28103     584.2888        54     2.040     1.550  36.22   0
         7    566.2519   1023.8533 307.6659979  +6.2487873     552.9523      876.849     1027.427     77.63779     143.5945      274.913      1.709     3.69     1257.319     65.28103     128.3586         5     1.231     0.318   7.53  24
         8    791.6508   1003.0544 307.5730408  +6.2649095     8983.261     18786.42     21095.84     92.83688     185.2325     370.3915      2.259     5.07      1253.67     65.28103     954.5553        58     2.046     1.435  30.52   0
         9    566.4572    982.6668 307.6672844  +6.2657945      2362.46     5716.279     9454.062     92.98366     185.1589     370.3178      3.270    13.92     1255.442     65.28103     342.7319        55     3.425     1.573  24.43   3
        10    575.2453    994.1053 307.6632521  +6.2613673     88782.04     207037.2     252989.8     92.68987     185.1589     370.5019      2.527     5.48     1255.947     65.28103     10009.14       135     2.336     1.839  31.43   3
        11    577.1276    986.9486 307.6627084  +6.2643844     41248.29      95514.7     113287.1     92.83688     185.2325     370.3915      2.445     5.57     1255.617     65.28103      4823.31        79     2.178     1.585  28.33   3
        12    209.2661    997.3351 307.8151982  +6.2477618     2111.171      4814.31      5334.36     92.83688     185.2325     370.3915      2.334     6.82     1256.289     65.28103      246.292        36     1.845     1.449  28.84   0
        13    786.1144    990.9590 307.5757431  +6.2697173     4414.057     9582.379     10849.24     92.83688     185.1589     370.3178      2.295     5.33     1253.199     65.28103     522.4309        53     2.075     1.450  29.77   0
        14    884.0745    988.1591 307.5351340  +6.2741437     1122.932     2308.747     2449.633     92.68987     185.2325     370.3915      2.287     7.65     1252.724     65.28103     130.7437        17     1.308     1.253 -57.44   0
        15    206.9005    985.7933 307.8165668  +6.2524463      1199.74     2636.207     3549.152     92.54263     184.7903     370.0968      2.574     6.67     1255.849     65.28103      181.158        14     1.449     0.862  30.32   2
        16    424.8707    983.5363 307.7260820  +6.2606925     2181.641     5172.353     7110.518     92.83688     185.2325     370.3546      2.830     7.39     1255.437     65.28103     269.8367        39     2.100     1.432  39.81   0
        17    709.7025    983.4325 307.6077420  +6.2702705     4466.074     9797.048     11990.56     92.83688     185.0853     370.5019      2.583     5.58     1254.053     65.28103     527.1697        50     2.002     1.516  24.11   2
        18    742.0521    978.4045 307.5944681  +6.2734272     765.5615      1779.44     2011.999     92.09948     185.0116     369.9125      2.472     5.88     1253.204     65.28103     98.83228         7     1.207     0.805 -74.22   0
        19    949.4558    972.6544 307.5084826  +6.2827249     4812.214     9584.944     11131.36      93.1302     185.2326     370.3546      2.158     5.17     1251.509     65.28103     533.7185        44     1.908     1.302  33.58   0
        20    709.3313    971.0533 307.6083080  +6.2753678     1556.752     3798.075     5788.222     92.68987     185.1589     370.2442      3.372     9.97     1253.179     65.28103     223.1627        30     1.885     1.536  26.70   2
        21    234.3109    972.3275 307.8056287  +6.2589251     790.9865     1562.629     1785.665     92.83688     185.5268     370.3915      2.030     5.96     1255.677     65.28103     101.8024         8     1.196     0.837  -9.17   0
        22    356.4360    968.6133 307.7550130  +6.2645573     979.8632     2412.444     2931.321     92.24744     185.0116     370.0231      2.585     8.68     1255.616     65.28103     137.6024        16     1.750     1.238  22.93   0
        23    288.3843    957.7346 307.7836503  +6.2667640     7491.137     19011.35     24732.35     92.24744     185.0853     370.2442      2.698     5.85     1255.354     65.28103     976.9623        77     2.292     1.760  34.99   0
        24    538.2227    958.7509 307.6798122  +6.2747209     2433.397     5904.193     7384.888     92.39515     185.3062     370.2442      2.521     6.31     1254.458     65.28103     287.8756        42     1.988     1.440   6.93   3
        25    535.3240    951.1432 307.6812701  +6.2777640     4262.133     10969.19     14128.37     92.83688     185.1589      370.281      2.791     6.76     1254.115     65.28103     509.1838        65     2.231     1.754  39.57   3
        26    805.4767    956.3748 307.5688474  +6.2846393     690.7977     1346.133     986.4134     92.39515     185.1589     370.3178      1.868     5.03      1251.28     65.28103     134.1221         7     1.333     0.536 -19.56   0
        27    742.6611    958.0385 307.5948923  +6.2818540     4746.994     10480.32     12005.98     92.83688     185.3062     370.3546      2.322     5.42     1251.912     65.28103      499.803        50     2.036     1.424  26.53   0
        28    903.9453    951.2789 307.5281021  +6.2900299     5906.465     12206.74     13442.72     92.98366     185.2325     370.3915      2.221     5.14     1250.625     65.28103     660.5707        50     1.940     1.397  34.06   0
        29    877.4684    947.4985 307.5392290  +6.2907068     8320.164     17743.16     20303.62     92.83688     185.3797     370.3915      2.339     5.07     1250.421     65.28103      863.374        62     2.029     1.516  27.47   0
        30    591.3571    948.0019 307.6580932  +6.2809366     834.3958     1804.975     1874.279     92.09948     184.8641     369.9862      2.102     8.05     1253.694     65.28103     114.2495        12     1.509     1.201 -66.03   0
        31    999.4112    946.9155 307.4885794  +6.2950149     3348.452     6956.305     7865.273     92.39515     184.9378     370.1705      2.195     5.35     1249.871     65.28103      396.856        38     1.824     1.290  41.95   0
        32    521.4780    946.8036 307.6871677  +6.2790915     2232.383     5437.007     6740.965     92.24744     184.6426     370.1336      2.605     6.48     1253.965     65.28103     266.8698        41     1.897     1.538  15.31   0
        33    475.5395    943.4097 307.7063680  +6.2789535     1148.022     2677.148     2670.492     92.09949     185.0853     370.0231      2.297     6.84     1253.865     65.28103     173.2214        18     1.678     1.036  -2.81   0
        34    909.2717    935.0449 307.5264278  +6.2969086     28531.22     60723.19     70154.33     92.68987     185.2325     370.3546      2.299     5.14     1249.714     65.28103     3079.114        90     2.123     1.590  30.59   0
        35    219.7704    934.4050 307.8129374  +6.2740894     606.2783     741.6052     1558.656     92.24744     185.0116     370.1336      1.497     3.72     1254.159     65.28103      107.501         5     0.979     0.407  83.21   2
        36    216.3126    933.4244 307.8144068  +6.2743780     918.4652     1865.146     2400.251     92.83688     185.0116     370.2073      2.659     7.33     1254.057     65.28103     140.6364        13     1.517     0.993 -76.63   2
        37    807.4483    928.9799 307.5689385  +6.2960131     1472.721     3051.823     3553.329     92.24743     185.2325     370.1336      2.235     6.86     1250.001     65.28103      172.083        23     1.659     1.154  30.05   0
        38    755.4307    926.8197 307.5906244  +6.2951670     3709.554     8743.666     10722.48     92.24744     185.0116     370.2073      2.494     5.90     1249.963     65.28103     478.5375        51     2.074     1.545  22.92   0
        39     50.3896    924.5600 307.8836405  +6.2724586     1540.656      3733.01     4300.173     92.09949     185.0116       370.06      2.528     7.59     1252.123     65.28103     217.6339        26     1.824     1.383  33.35   0
        40    226.3199    925.7248 307.8105063  +6.2778922     831.1547     1508.609     1929.042      93.1302     185.5268     370.4651      1.721     4.59     1253.987     65.28103     107.5923         8     1.018     0.589  71.67   0
        41    943.6041    921.8436 307.5126001  +6.3035031     4464.385     9573.385     10520.29     92.09948     184.7903     369.9862      2.250     5.41     1248.893     65.28103     487.0708        49     2.012     1.379  30.26   0
        42    917.1592    913.4189 307.5238683  +6.3060985     1312.448     2902.129      3480.12     92.39515     185.0116     370.0231      2.379     7.47     1248.323     65.28103     146.4694        21     1.579     1.222  56.27   0
        43    250.6111    910.1180 307.8009352  +6.2851499      2073.43     5335.781     6374.059     92.39515     184.9378     370.1705      2.583     7.00     1253.851     65.28103     249.9221        39     2.020     1.507  26.44   0
        44    775.9960    910.7972 307.5826118  +6.3024677     653.8214     1512.461     1243.789     92.09948     184.7165     370.1336      2.313     4.92     1249.179     65.28103     91.68811         6     1.334     0.513  76.41   0
        45    638.1497    909.5555 307.6399306  +6.2983718     2339.356     5663.959     6591.671     92.98366     185.0853     370.3915      2.467     7.12     1250.783     65.28103     218.0048        37     1.907     1.401  33.01   0
        46     19.2810    907.5025 307.8971365  +6.2784522     1205.235     2902.506     3149.462     92.68987     185.6003     370.4283      2.524     8.39     1251.683     65.28103     142.5197        18     1.476     1.333  50.85   0
        47    461.0308    907.6003 307.7135903  +6.2932482     622.3062     1089.026     1218.092     92.09948     185.0116     370.1336      2.149     5.59     1252.759     65.28103     84.29614         6     1.121     0.787 -75.77   0
        48    871.4424    906.1959 307.5431045  +6.3075544     654.4426     1151.444     1016.172     92.09948     184.8641     370.0231      1.394     3.50     1247.937     65.28103     95.43445         5     0.798     0.442  70.14   0
        49    563.4415    901.2006 307.6712511  +6.2993201     812.0594     1581.219     1826.385     92.09948     184.8641     369.9494      2.193     5.69      1251.88     65.28103     114.9174        10     1.309     0.698   7.13   0
        50    282.5387    895.4744 307.7881588  +6.2922662     805.5599     1529.453     1959.446      93.1302     185.2326     370.3546      1.588     4.70      1253.98     65.28103     144.8932         8     1.468     0.426  36.04   0
        51    886.3251    888.7861 307.5374985  +6.3152374     4305.557     9492.237     11039.85     92.24744     184.9378     370.1336      2.349     5.44     1246.816     65.28103       462.09        48     1.957     1.426  31.67   0
        52    324.0504    884.7657 307.7712683  +6.2980796      4364.48     11632.29     14724.04     92.68987     185.2325     370.2442      2.711     6.40     1253.335     65.28103     508.1997        63     2.189     1.745  32.63   0
        53    422.2683    885.7773 307.7304243  +6.3009566     1051.318     2597.324     2845.752     92.39515     185.1589     370.3178      2.437     6.94     1252.572     65.28103     161.4578        12     1.491     0.905 -23.61   0
        54    244.1292    883.7948 307.8045081  +6.2957973     3238.484     8715.727     10709.52     92.24743     184.7903     370.2073      2.671     6.69     1253.243     65.28103     416.1581        56     2.155     1.717  37.96   0
        55    901.8787    873.3650 307.5315475  +6.3221219     748.9456     1517.509     1795.751     92.68987     185.3062     370.3546      2.131     5.95      1245.75     65.28103     131.2896         9     1.397     1.221 -14.74   0
        56    738.7505    866.3128 307.5995674  +6.3195851     769.3519     1579.364     2330.521     92.83688     185.0853     370.4651      2.718     2.99     1247.026     65.28103     152.3501         6     1.109     0.569  62.85   0
        57    969.9543    862.8566 307.5036081  +6.3287303     854.8878     1936.402     2578.491     92.83688     185.2325     370.3915      2.638     5.39     1245.014     65.28103     110.8881         7     1.262     0.650  68.48   0
        58    656.7077    860.0500 307.6338672  +6.3194269     1155.511     2904.553      4013.62     92.68987     185.0853     370.5755      2.732     9.57     1248.403     65.28103     160.6879        22     1.721     1.483  38.06   0
        59     53.8798    856.6516 307.8844642  +6.3006053     1536.427     3477.215     4404.673     92.83688     185.2325     370.3546      2.509     8.09     1250.515     65.28103     222.9796        22     1.811     1.347  39.29   0
        60     71.8018    855.2358 307.8770651  +6.3017926     1013.189      2412.93     3131.288     91.80286     185.0116     370.1336      2.562     7.27     1250.383     65.28103      145.822        17     2.100     0.706  32.87   2
        61    651.6068    849.5529 307.6363362  +6.3235892      3219.51     8472.021     10013.54     92.24744     185.0116     369.9494      2.625     6.64     1247.867     65.28103     355.8723        54     2.113     1.660  24.30   0
        62    889.3680    845.9964 307.5376550  +6.3330015     1536.985     3648.155     3930.639     91.95129     185.0853     370.0968      2.248     8.81      1244.11     65.28103     180.6012        26     1.793     1.298  46.14   0
        63    334.7128    843.0486 307.7682310  +6.3156566     7356.188     19933.88     26332.65     92.83688     185.0853     370.4283      2.823     6.47     1251.989     65.28103     906.0645        76     2.351     1.827  30.70   0
        64    197.8432    855.5534 307.8246841  +6.3058992     1235.185     2684.128     3184.878     92.83688     185.2325      370.281      2.311     8.60     1252.299     65.28103     150.4249        21     1.598     1.406   7.28   0
        65    204.8433    840.5988 307.8222756  +6.3123071     497.1255     1125.495     1246.954     92.09948     184.8641     369.9125      1.998     4.91     1252.053     65.28103     102.5802         5     1.412     0.483   3.50   0
        66     97.2821    833.9308 307.8671912  +6.3114434      902.136     2378.511     2544.736      93.1302     185.5268     370.3915      2.399     6.95     1249.585     65.28103      127.113        14     1.754     0.771 -65.89   2
        67    879.3359    827.6335 307.5424336  +6.3402464     1096.146     2499.562     2896.246     92.68987     185.3062     370.3178      2.351     7.55     1243.092     65.28103     151.9904        15     1.465     1.088  42.29   0
        68     82.1847    826.8494 307.8737013  +6.3138584     1107.649      2915.73     4248.398     92.09948     185.2325     370.0231      2.880     9.00     1249.323     65.28103     153.1132        22     1.938     1.167  35.40   0
        69    850.2855    827.1105 307.5545230  +6.3394925     1028.359     2553.531     2713.713     92.54263     185.6003     370.5019      2.260     7.80     1243.492     65.28103     148.0438        14     1.709     0.995  32.75   0
        70    814.0364    826.4055 307.5696097  +6.3385730     1546.045     3929.423     4020.416     91.80286     184.9378     370.1336      2.443     7.90     1244.292     65.28103     211.2623        33     1.826     1.438  30.62   0
        71    549.7311    818.0425 307.6797188  +6.3331860     147215.6     396816.8       509490     92.68987     185.1589     370.4283      2.769     6.39     1248.525     65.28103     17229.06       204     2.536     2.048  32.30   0
        72    394.1533    820.7865 307.7442752  +6.3268396     3379.774     9373.577     11917.04     92.09948     185.0116     370.0968      2.707     6.56     1250.825     65.28103     407.8313        58     2.043     1.844  32.69   0
        73    337.2551    819.2814 307.7679683  +6.3255521     5210.005     14706.63     19198.17     92.83688     185.2325     370.3915      2.835     6.86     1251.318     65.28103     609.1875        77     2.366     1.920  33.24   0
        74    655.6439    815.3801 307.6357961  +6.3378297      1616.29     3929.772     4667.557     92.24744     185.0853     370.1705      2.586     8.47     1245.499     65.28103     192.5144        34     1.856     1.493   3.54   0
        75    887.9047    813.8711 307.5393299  +6.3462132     3024.053     6948.958     8460.575     92.68987     185.3062     370.3546      2.515     5.98     1242.182     65.28103     319.1464        49     2.058     1.524  23.46   0
        76    621.9784    806.0241 307.6500972  +6.3405652     1030.349     1897.612     4127.367     92.39515     185.0116     370.3178      3.069     3.92     1245.525     65.28103     158.3312         9     1.249     0.512  17.53   3
        77    623.0322    802.6609 307.6497713  +6.3419887      1010.59     1871.905     3476.142     92.54263     185.3062      370.281      3.278     5.64     1245.301     65.28103     138.6089        11     1.307     0.789   8.73   2
