#   1 NUMBER                 Running object number                                     
#   2 X_IMAGE                Object position along x                                    [pixel]
#   3 Y_IMAGE                Object position along y                                    [pixel]
#   4 ALPHA_J2000            Right ascension of barycenter (J2000)                      [deg]
#   5 DELTA_J2000            Declination of barycenter (J2000)                          [deg]
#   6 FLUX_APER              Flux vector within fixed circular aperture(s)              [count]
#   9 FLUXERR_APER           RMS error vector for aperture flux(es)                     [count]
#  12 FLUX_RADIUS            Fraction-of-light radii                                    [pixel]
#  13 FWHM_IMAGE             FWHM assuming a gaussian core                              [pixel]
#  14 BACKGROUND             Background at centroid position                            [count]
#  15 THRESHOLD              Detection threshold above background                       [count]
#  16 FLUX_MAX               Peak flux above background                                 [count]
#  17 ISOAREA_IMAGE          Isophotal area above Analysis threshold                    [pixel**2]
#  18 A_IMAGE                Profile RMS along major axis                               [pixel]
#  19 B_IMAGE                Profile RMS along minor axis                               [pixel]
#  20 THETA_IMAGE            Position angle (CCW/x)                                     [deg]
#  21 FLAGS                  Extraction flags                                          
         1    300.7358     34.3690 307.8135801  +6.8708240     6714.045     34168.34     53655.86     95.67885     191.5861     382.8296      3.535    11.03     1312.017     67.49337      1076.58       118     2.679     2.529 -57.35   0
         2    626.5583     26.8743 307.6775344  +6.8846695      1594.81      4693.21     6757.595     95.83108     191.5861     382.9438      3.112    12.49     1280.544     67.49337     190.5817        46     2.481     1.751 -38.23   2
         3    343.6984     21.0855 307.7960579  +6.8777429     1046.301     2190.371     2813.156     95.98307     192.0421     382.9819      2.412     9.29     1304.664     67.49337      146.801        23     1.817     1.324 -72.20   3
         4    469.5409     16.9972 307.7435533  +6.8835873     1331.867     3244.799     4851.044     95.22068     191.2815      382.563      2.880    10.92     1290.605     67.49337     188.3878        27     3.101     1.072  57.46  19
         5    472.9969     14.6713 307.7421862  +6.8846643     1371.126     3304.242     5361.597     95.37365     191.0527     382.7154      3.264    13.02     1290.424     67.49337     173.2974        34     2.687     1.755  48.32  19
         6    585.6900     15.6949 307.6950085  +6.8879533      1333.76     2368.621     3465.809     95.98307      192.118     382.9438      2.436     6.50     1281.489     67.49337     166.5234        13     1.376     0.862  38.38   3
         7    589.3626     14.1344 307.6935248  +6.8887203     1512.489     3792.944     6939.789     95.83108     191.4339     382.9819      4.030    14.32     1281.272     67.49337     178.0681        47     3.111     1.834  48.00  18
         8    286.5475     13.6173 307.8202181  +6.8789478     1464.361     4621.136     7724.954     95.37365     191.5861      382.563      3.253    11.86     1314.673     67.49337      191.877        42     2.506     1.563 -37.15  18
         9    821.6351      2.2061 307.5967574  +6.9012971     3298.577     6610.177     7233.594      93.6773     167.1221     304.9147      2.105     7.07     1274.004     67.49337     357.5868        31     1.950     1.046  -1.84  24
        10    492.6794      1.8473 307.7343859  +6.8906231     6141.333     11046.21     12257.64     90.67252     161.5335     298.3909      1.976     7.36     1289.141     67.49337     719.1471        33     2.105     0.921  -0.43  24
        11    609.8493      1.7635 307.6853721  +6.8945172      1213.33     1822.927     2222.014     89.37713     159.7185     296.5779      1.589     5.95     1279.695     67.49337     168.5886        11     1.428     0.698 -51.35  27
        12    606.7314      2.0210 307.6866677  +6.8943079     1266.702     2271.318      2798.71     92.42403     164.4845     301.6946      2.142     5.33     1279.819     67.49337     153.8561        14     1.270     0.933  -0.74  27
        13      2.8620      1.3555 307.9393027  +6.8746389     1790.657     2684.693     2809.318     83.82231     139.9702     238.1282      1.452     4.78     1318.237     67.49337     371.4402        12     1.460     0.550  -2.45  24
        14    696.8022      1.1865 307.6490154  +6.8976170     764.7432     1069.307     1041.894     80.08707     148.8531     284.7932      1.279     4.07     1278.625     67.49337     169.9624         7     1.223     0.386  -2.46  24
        15    311.4218      1.1762 307.8102340  +6.8849208     1219.863     1754.006     1795.824     80.26889     148.7551     284.9979      1.409     4.51     1310.975     67.49337     284.4077         9     1.516     0.381  -0.23  24
        16    526.1804    988.6264 307.6870557  +6.4831290     1237.445     3341.204     3339.041     95.37365     191.2815     382.7915      2.390     9.95     1344.651     67.49337     156.8704        28     1.712     1.612  76.44   0
        17    751.4136   1023.0280 307.5917513  +6.4762903     6821.858     11343.22     12052.91     91.63203     163.1498     300.5327      1.782     5.77     1343.003     67.49337     836.3856        30     1.763     0.944  -1.63  24
        18    455.0465   1022.1617 307.7156569  +6.4669003     19026.28     42747.96     48105.78     95.83108     176.6213     316.4568      2.296     6.65     1346.246     67.49337     1851.044        67     2.223     1.417  -0.23  24
        19    937.7092    988.6202 307.5150367  +6.4966506     650.2365     1669.833     2339.634     95.83108     191.2053     382.7534      2.501     3.48     1339.848     67.49337     112.3667         5     0.752     0.465  13.53   0
        20    899.7996    985.2491 307.5309965  +6.4968035      2805.71     6596.505     7196.602     95.06747     191.0527     382.3724      2.294     5.41     1340.283     67.49337     328.7798        36     1.644     1.454 -63.39   0
        21    572.8964    983.7403 307.6676935  +6.4866898      2644.54     7968.799     8871.855     95.67885       191.51       383.02      2.589     6.92     1344.404     67.49337     312.8721        50     1.985     1.721 -39.44   0
        22     62.3610    984.5021 307.8810617  +6.4695304     673.1964       1019.2     1447.498     95.98307     191.3577     383.1722      1.622     3.42     1343.563     67.49337     98.46021         5     1.118     0.302 -69.69   0
        23    922.5131    977.1401 307.5217744  +6.5009061     2062.434     4544.964     4825.909     95.98307     191.6622      383.058      2.148     6.61     1339.339     67.49337     215.1121        33     1.779     1.406 -48.01   0
        24    485.3605    975.1926 307.7045714  +6.4873474     2972.715     9375.871     11798.64     95.22069     191.2053      382.563      2.820     7.41     1344.404     67.49337     341.8704        54     2.031     1.789 -38.99   0
        25    332.0343    974.7416 307.7686754  +6.4824802     1169.285     2726.717      3090.96     95.83108       191.51     382.8296      2.490     6.03     1345.399     67.49337     123.3898        16     1.216     1.081 -56.25   2
        26    328.6449    976.0126 307.7700491  +6.4818421       739.38     1350.979     2379.963     95.37365     191.2815     382.6011      1.873     3.70     1345.447     67.49337     111.7102         5     1.141     0.346 -71.34   3
        27    841.5470    970.5071 307.5558422  +6.5009971      1554.03      4072.74     4836.036     95.83109     191.4339     383.1722      2.682     7.64     1340.394     67.49337     209.6204        30     1.733     1.501 -37.66   0
        28    849.1693    965.3367 307.5528298  +6.5033881     1090.158      2973.21     3404.645     95.67885     191.5861     382.8677      2.593     8.42     1340.026     67.49337     154.4222        19     1.780     1.273 -51.51   0
        29    673.0917    961.0182 307.6265775  +6.4993937     1394.985     3865.845     4739.549     95.83108     191.2053     382.7534      2.659     8.55     1342.373     67.49337      155.489        29     1.727     1.580 -59.97   0
        30     36.4374    959.8998 307.8927310  +6.4788595     872.8936     2218.807     3043.051     95.98307     191.3577     383.1722      2.855     7.97     1342.683     67.49337     111.2145        12     1.576     1.127  59.42   2
        31    344.4630    959.2658 307.7640035  +6.4892982      1490.65     4607.972      5819.76     95.98307       191.51     382.9058      2.998     9.92     1345.055     67.49337      180.922        41     1.934     1.857  27.24   0
        32    571.6870    956.0486 307.6691328  +6.4981164     3968.212     12735.28     15621.19     95.98307     191.3577     382.9819      2.792     7.33     1343.227     67.49337     423.9412        64     2.139     1.893 -45.04   0
        33    734.4005    952.3174 307.6012428  +6.5050112     7489.288     20550.33     24512.27     95.06747     190.9001     382.5249      2.653     6.34     1341.455     67.49337      774.406        73     2.322     1.723 -42.80   0
        34    255.6156    952.7306 307.8013618  +6.4890723     719.9253     1570.053     2101.811     95.37365     191.3577     382.7915      2.351     3.61     1345.072     67.49337     136.7981         5     0.821     0.474 -77.34   3
        35    252.5592    952.1845 307.8026578  +6.4891975     864.6152     1915.124     1621.501     95.37365     191.2815     382.6392      2.336     6.59     1345.033     67.49337     133.7191         9     1.415     0.861 -61.36   3
        36    338.2524    948.6384 307.7669587  +6.4934938     883.4977     1855.754     3020.235     95.67885     191.5861     382.9058      2.442     5.37     1344.948     67.49337     123.4966        10     1.297     0.629  11.65   0
        37     72.1222    945.2056 307.8783138  +6.4861243     2019.527     5552.759     6840.132     95.52637     190.9001     382.6392      2.715     7.16     1343.027     67.49337     232.1091        45     1.892     1.720 -81.74   0
        38    919.3474    946.8289 307.5241162  +6.5133536     1041.868     2301.312     2670.847     95.67885     191.6622     382.7915      2.562     7.76     1337.806     67.49337      151.915        15     1.578     1.067 -85.23   0
        39    255.0381    955.8190 307.8014986  +6.4877744     808.9822     1641.093     2535.318     95.52637     191.2815     382.6011      2.400     4.95     1345.121     67.49337     114.8236         9     1.315     0.528 -47.42   2
        40    709.5244    943.1746 307.6119491  +6.5079797     980.0403     2550.385     2204.403     95.52637     191.2815     382.8677      2.523     8.73     1341.429     67.49337     166.2172        16     1.743     1.333 -40.24   0
        41    973.2380    941.8104 307.5017571  +6.5171981     2329.735     5575.129     6558.315     95.22069     191.2815      382.563      2.442     6.22     1337.346     67.49337     251.7644        37     1.714     1.455 -30.78   0
        42    308.8239    939.0950 307.7795823  +6.4964745     1373.665     3677.214     4728.277     96.13483     191.2053     382.7534      2.873    11.36     1344.897     67.49337     176.2991        32     2.140     1.680  89.74   2
        43    672.8262    924.2322 307.6279276  +6.5146172     6010.112     18505.49     22287.55     95.37365     191.2053     382.7154      2.719     6.88     1341.012     67.49337     668.6327        72     2.130     1.884 -45.78   0
        44    774.6431    923.9921 307.5853739  +6.5180618     886.4512     1858.225     2317.432     95.37365     191.2815      382.563      2.640     5.17     1339.437     67.49337     135.5924        10     1.236     0.610  46.55   2
        45    426.5549    926.6775 307.7307901  +6.5054986     643.8841     1431.473     1872.337     95.83108     191.5861     382.9058      2.473     4.53     1343.726     67.49337     86.05005         6     1.250     0.467   0.74   0
        46    593.7611    919.6467 307.6611329  +6.5139158     1118.312     2974.433     3789.624     95.83108       191.51     382.7154      2.834     8.91     1341.688     67.49337     155.7332        21     1.906     1.162 -13.36   0
        47    566.2538    915.4485 307.6727730  +6.5147490      6015.45     19763.79     28836.91     95.98307       191.51     382.9438      3.242     8.43      1341.71     67.49337     657.0319       105     2.727     2.192  34.85   0
        48    897.9711    913.8016 307.5341618  +6.5263286     2023.722     5066.209     5457.286     95.37365     191.2815     382.6392      2.369     7.03     1336.494     67.49337     247.4998        37     1.915     1.425 -45.40   0
        49    337.3447    910.4383 307.7686294  +6.5092813     9940.436     35183.07     44672.69     95.98307     191.5861     382.9438      2.957     7.86      1344.24     67.49337     1122.862        96     2.304     2.139 -62.87   0
        50    866.7634    904.2730 307.5475280  +6.5292506     2450.536     6060.291     6563.739     95.83108       191.51     382.9438      2.378     6.20     1336.769     67.49337     282.5619        43     1.926     1.503 -62.04   0
        51    852.9442    908.0887 307.5531767  +6.5272172      910.246     1907.463     3236.359     95.98307     191.3577     383.0961      3.252     5.99     1337.126     67.49337     121.6915        10     1.480     0.683  23.05   0
        52    195.0243    901.0966 307.8284360  +6.5084510     4831.001     16306.52     21128.27     96.13483     191.2053     382.7534      2.958     7.61     1343.099     67.49337     595.9727        73     2.210     2.033 -44.70   0
        53   1021.1664    902.2347 307.4830501  +6.5351559     2788.923     5953.015     6355.235     95.52637     187.4324     333.0208      2.113     4.90     1333.873     67.49337     331.9606        37     1.621     1.417 -39.35  24
        54    999.4305    890.9918 307.4925140  +6.5390994     4850.455     11283.48     11716.28     95.37365     191.2815     382.6392      2.282     5.27     1333.169     67.49337     557.5216        50     1.835     1.564 -47.31   0
        55     95.4115    889.8679 307.8704546  +6.5098077     1829.495     6261.534      8240.52     95.37365     191.2815     382.7534      3.040     9.15     1341.169     67.49337     246.8949        58     2.186     2.027 -50.30   0
        56    117.7478    885.5524 307.8612643  +6.5123332     1043.742     2963.196     3735.211     96.13483     191.3577     382.9438      2.868    10.75     1341.259     67.49337     139.0878        25     1.938     1.663 -42.16   0
        57     81.9623    909.0380 307.8754267  +6.5014253      864.928     2073.883     2866.444     95.67885     191.3577     382.7534      3.164     7.82     1341.925     67.49337     123.3977        11     1.670     1.024  78.06   2
        58    394.5062    873.7719 307.7459741  +6.5263489     2433.783     8630.473     11648.67     96.13483     191.2053     382.7915      3.010     8.40     1343.075     67.49337     260.2533        62     2.102     2.079  40.61   0
        59    734.7350    870.7206 307.6038499  +6.5388096     5223.587     15580.61     20448.76     96.28634     191.5861     382.8677      2.900     7.37     1337.628     67.49337     554.3591        73     2.291     1.838 -34.56   0
        60    978.4561    865.7590 307.5021296  +6.5488607     1946.745     4659.736     5482.107     95.83108     191.5861     382.9438      2.449     6.69     1331.557     67.49337     289.5396        29     1.676     1.364 -56.83   0
        61    442.5463    857.2844 307.7264489  +6.5347593     1143.325     3800.386     4880.582     95.98307       191.51     383.0961      3.002     9.74     1341.887     67.49337     147.0697        29     1.977     1.686  68.59   0
        62    800.2023    853.6288 307.5770567  +6.5480370        13872     40624.36     50907.31     95.37365     191.2053     382.6773      2.780     6.54     1334.657     67.49337     1518.053        90     2.295     1.904 -56.68   0
        63    415.2397    856.8415 307.7378788  +6.5340427      1016.54     2753.076     3276.287     95.67885     191.5861     382.7534      2.698     8.45     1342.272     67.49337     156.8813        18     1.981     1.006   6.29   0
        64    572.4509    845.9316 307.6725269  +6.5437381     903.1143      3041.78     4084.043     95.83108     191.3577     382.8296      2.937     9.82     1338.401     67.49337     142.9222        19     1.892     1.420  29.25   0
        65    656.7068    839.7675 307.6375118  +6.5490621     28087.71     92764.84     118067.6     96.13483     191.3577     382.9819      2.925     7.38     1336.596     67.49337     3019.011       123     2.359     2.133 -48.00   0
        66     38.0088    839.9814 307.8961405  +6.5285646     586.4944     1357.593      2078.67     95.67885      191.129     382.6773      2.361     4.79     1338.948     67.49337      94.3501         5     1.461     0.445 -72.27   0
        67    518.5676    836.3204 307.6953768  +6.5459441     1021.098     2868.246     3442.091     95.83108       191.51     382.8677      2.620     8.28     1338.644     67.49337      123.141        16     2.226     0.861  69.49   2
        68    522.0180    836.2988 307.6939350  +6.5460667     866.7649     1466.138      2827.66     95.98307     191.3577     382.6011      1.840     2.88     1338.566     67.49337     171.3135         6     0.812     0.643 -88.41   3
        69     56.7376    836.0892 307.8884436  +6.5307959     1896.089     7198.411     9152.072     95.98307     191.6622     382.9819      3.020     9.89     1338.914     67.49337     257.9756        58     2.243     1.988 -75.88   0
        70    500.9828    832.3048 307.7028635  +6.5470278     2329.425     6088.125      7356.91     95.83108     191.2815     382.7154      2.647     9.87     1338.755     67.49337     239.5778        43     2.312     1.571 -87.51   3
        71    504.7112    832.3401 307.7013037  +6.5471360     2367.581     4320.847     5395.532     95.83108     191.6622       383.02      2.142     6.05     1338.646     67.49337     286.2983        20     1.681     0.917 -86.82   3
        72    365.5001    828.0603 307.7596443  +6.5443201     7777.724     29858.98     39865.46     95.67885       191.51     383.0961      3.114     8.30     1341.697     67.49337     925.9221        90     2.328     2.207 -37.75   0
        73    232.2569    829.7611 307.8152869  +6.5392183      1116.44     2951.965     3154.892     95.98307     191.5861     382.9058      2.584     9.66     1341.199     67.49337     129.1587        24     2.183     1.193  43.71   0
        74    457.0089    817.8162 307.7217357  +6.5515786     2492.577     4502.956     5136.016     95.67885     191.2053     382.7534      1.921     7.63     1338.924     67.49337     290.1279        23     1.868     0.873 -85.95   3
        75    453.0327    816.8181 307.7234317  +6.5518608     2788.859     6179.115     9277.463     95.52637     191.2815     382.7534      2.762    11.23     1338.985     67.49337      303.347        41     2.796     1.257  88.06   3
        76    758.8074    819.8080 307.5955003  +6.5606822     462.9809     813.4413     783.9159     95.22068     191.2815     382.7534      1.583     3.69     1332.854     67.49337     79.79272         5     1.168     0.335 -79.25   0
        77    721.3481    817.9387 307.6112235  +6.5602256     869.8181     1940.559      2906.39     95.98307     191.4339     382.9058      1.724     3.44     1333.428     67.49337     137.4457         5     1.015     0.338 -47.73   3
