#   1 NUMBER                 Running object number                                     
#   2 X_IMAGE                Object position along x                                    [pixel]
#   3 Y_IMAGE                Object position along y                                    [pixel]
#   4 ALPHA_J2000            Right ascension of barycenter (J2000)                      [deg]
#   5 DELTA_J2000            Declination of barycenter (J2000)                          [deg]
#   6 FLUX_APER              Flux vector within fixed circular aperture(s)              [count]
#   9 FLUXERR_APER           RMS error vector for aperture flux(es)                     [count]
#  12 FLUX_RADIUS            Fraction-of-light radii                                    [pixel]
#  13 FWHM_IMAGE             FWHM assuming a gaussian core                              [pixel]
#  14 BACKGROUND             Background at centroid position                            [count]
#  15 THRESHOLD              Detection threshold above background                       [count]
#  16 FLUX_MAX               Peak flux above background                                 [count]
#  17 ISOAREA_IMAGE          Isophotal area above Analysis threshold                    [pixel**2]
#  18 A_IMAGE                Profile RMS along major axis                               [pixel]
#  19 B_IMAGE                Profile RMS along minor axis                               [pixel]
#  20 THETA_IMAGE            Position angle (CCW/x)                                     [deg]
#  21 FLAGS                  Extraction flags                                          
         1    717.1259     22.4205 307.6452445  +6.6898385     7832.111     11110.34     11448.38     78.24818     156.7462     313.5859      1.526     3.32     837.5904     55.28561     1036.523        29     1.282     1.047 -77.13   0
         2    437.4812     17.8130 307.7615797  +6.6823683      6666.77      9681.74      10455.5     78.24818     156.6213     313.4923      1.582     3.30     840.8408     55.28561     877.8279        32     1.390     1.039 -66.77   0
         3     38.5013     17.4787 307.9273412  +6.6690873     9071.468     13437.68      13858.1     78.37309     157.1823     313.6794      1.644     3.47     851.4811     55.28561     1291.242        32     1.388     1.070 -67.38   0
         4    334.0304     12.8946 307.8047237  +6.6809246     13397.17      20271.6     21460.65     78.74658     156.6213     313.6483      1.598     3.51     848.6697     55.28561     1729.559        45     1.524     1.143 -60.98   0
         5    107.6508     13.1108 307.8987625  +6.6732201     2736.613     4249.681      4675.77     78.62228     156.6837      313.773      1.687     3.84     849.1346     55.28561     335.6134        24     1.410     1.016 -81.14   0
         6    428.9388     13.6237 307.7652697  +6.6838110     867.5804     1312.751     1544.744     78.24818     156.8085     313.5547      1.861     4.44     841.1041     55.28561      125.568         7     1.053     0.534 -69.03   0
         7     99.0042     11.9947 307.9023923  +6.6733896     1621.837     2649.383     2796.615     77.99779     156.5589     313.5235      1.766     3.77     849.0823     55.28561     213.1115        17     1.217     0.943 -54.42   0
         8    802.2231     11.7962 307.6102461  +6.6970713     999.6467     1477.301     1535.093     78.24818     156.5589     313.4923      1.563     4.46      833.544     55.28561     204.9286        10     1.130     0.721 -27.69   0
         9    400.3513     10.6568 307.7772464  +6.6840761     2577.847     3734.555     4113.632     78.62228     156.8709      313.773      1.623     3.74     843.0319     55.28561     331.8958        21     1.317     0.945 -82.10   0
        10    661.0825      6.3420 307.6690688  +6.6946002     11498.46     16726.33     17531.55     78.74658     156.8709     300.7537      1.563     3.36     837.2189     55.28561     1570.102        40     1.394     1.119 -68.57  16
        11    995.5286      7.6765 307.5300705  +6.7052292     860.9055     1055.138     733.1072     78.87069     157.1201     310.6087      1.222     3.78     828.6177     55.28561     142.2714         7     0.956     0.491 -83.82   0
        12    538.6282      6.0139 307.7199550  +6.6906325     1450.616       2173.6     1814.959     78.24818     156.6837     297.6482      1.573     4.01      837.284     55.28561     205.1044        15     1.215     0.840 -65.13  16
        13     79.1183      6.9891 307.9108226  +6.6747862     647.7955     1056.997     1531.744     78.24818     156.6213     305.9128      1.974     5.00     849.4764     55.28561     137.8832         7     1.256     0.563 -47.68  16
        14    825.8246      5.7007 307.6006450  +6.7003769     1753.639     2662.922     3190.406     78.74658     156.6213     294.4435      1.756     3.42     833.3407     55.28561      271.507        15     1.134     0.879 -75.38  16
        15    896.0667      3.6103 307.5715312  +6.7035872     1586.714     2351.932     2253.947     78.12309     151.9942     270.0474      1.561     3.57     833.3012     55.28561     221.1091        19     1.292     0.920 -81.81  24
        16    261.0109      3.2645 307.8353840  +6.6824458     6429.509     9820.066      10540.7     78.12309     148.8077     265.1128      1.659     3.43     852.0917     55.28561     898.3701        33     1.448     1.115 -47.70  26
        17    682.7473      1.7414 307.6602225  +6.6972249     6391.406     8625.577     9188.978     73.07745     130.6052     242.5319      1.384     3.47     837.2466     55.28561     1252.083        27     1.615     0.802 -13.34  24
        18    652.6673      2.1897 307.6727046  +6.6960326     9348.716     12053.73     12349.73     76.73356     136.6796     249.4894      1.396     3.73     837.0947     55.28561     1509.626        30     1.266     0.986 -34.74  24
        19    437.8375      3.5683 307.7619115  +6.6882609     527.0304     853.0042     886.2304     78.24818      151.414     269.2857      1.719     4.17     840.7165     55.28561     89.02722         5     0.930     0.534 -49.83  16
        20    422.4991      2.1721 307.7683309  +6.6883224     8171.698     10536.99     10755.58     76.86092     136.4648     249.1756      1.417     3.54     841.2874     55.28561     1184.974        26     1.220     0.980 -31.09  24
        21    964.3173      2.9452 307.5431967  +6.7061408     574.1459     728.9591     936.8358     78.62228     145.8199     260.7981      1.419     3.31     830.5738     55.28561      111.791         5     0.803     0.395 -69.42  16
        22    738.0571      1.3996 307.6372544  +6.6992172     1202.061      1260.31     1093.768     68.80338     125.4094     236.9012      1.038     2.81     837.3486     55.28561     266.1935         7     0.881     0.466 -11.71  24
        23    120.3912    987.9901 307.8605527  +6.2711897     702.5215     1007.984      596.902     78.12309     156.6837     313.5547      1.608     4.58     870.2299     55.28561     120.5891         7     0.970     0.613  43.27   0
        24    371.5512   1023.2439 307.7551061  +6.2650738     1636.269     1918.106     2005.416     73.21117       130.68     242.7737      1.242     3.19     872.4347     55.28561     281.1591        12     1.095     0.695 -18.82  24
        25    823.0351    984.3213 307.5689885  +6.2962596     2248.512     3625.541     3637.315     78.49778     156.9332     313.6483      1.722     3.76      866.042     55.28561     286.8052        21     1.310     1.002 -82.36   0
        26    771.2340    982.2910 307.5905616  +6.2953668     6596.766     10632.51     11899.08     78.74658     156.7462     313.6483      1.786     3.59     867.9236     55.28561     858.9264        47     1.784     1.201 -70.78   0
        27    557.9130    981.7818 307.6791371  +6.2884391     1058.297     1776.845     2022.135     78.37308     156.6213     313.5235      1.844     6.14     870.0674     55.28561     145.9311        13     1.434     0.740 -89.90   0
        28    240.6108    981.1337 307.8108794  +6.2780620     1452.224     2130.701     2263.943     78.12309     156.6837     313.4923      1.565     3.75     871.4523     55.28561      211.631        16     1.246     0.879 -79.77   0
        29    205.2876    980.3295 307.8255697  +6.2772069     1022.968     1585.848     1688.524     78.74658     157.1201     313.6483      1.800     3.89     870.9185     55.28561     150.1785        12     1.095     0.793  66.05   0
        30     65.5390    979.2519 307.8836170  +6.2729515     2768.044     4138.791     3917.652     78.62228     156.8085     313.6483      1.599     3.44     870.3021     55.28561     403.2543        21     1.301     0.923 -66.30   0
        31    959.4837    977.3586 307.5125747  +6.3036898     6670.693     10810.62     11317.33     78.62228     156.8085     313.5859      1.783     3.75     863.1189     55.28561     763.2469        37     1.496     1.196 -74.55   0
        32    215.4149    973.5560 307.8215941  +6.2803436     658.9128     1003.804     756.1366     77.99779     156.6837     313.3987      1.746     4.70     871.0378     55.28561     100.5767         7     0.908     0.690 -65.92   0
        33    641.7315    971.8730 307.6446734  +6.2953364     772.2462     1204.801     1298.546     78.74658     156.9956     313.6483      1.701     4.06     869.6028     55.28561     128.1683         8     0.931     0.614 -75.01   0
        34    933.1754    969.0338 307.5237754  +6.3062488      2010.62     3291.217     3689.207     78.12309     156.6837     313.4299      1.707     3.85     863.8445     55.28561     277.8726        23     1.321     1.100 -71.32   0
        35    792.5257    965.5142 307.5822847  +6.3030048     1376.831     2176.042     1967.175     78.74658     157.1823     313.6794      1.725     4.78     866.8143     55.28561     163.1777        15     1.284     0.864 -58.53   0
        36    653.9636    964.8903 307.6398297  +6.2986286     4613.265     7034.807     7497.404     78.74658     156.8085     313.6794      1.567     3.50     869.4229     55.28561     641.9891        28     1.363     1.054 -67.95   0
        37    266.0565    965.0684 307.8008577  +6.2855492     4514.096     6677.359      7054.41     78.74658     156.8085     313.5859      1.553     3.46     871.6605     55.28561     575.3404        27     1.431     0.981 -59.41   0
        38   1003.2224    964.6661 307.4948408  +6.3103889     626.1843     1330.112     1496.259     78.24818     156.8709     313.5547      2.126     6.00     861.4989     55.28561     97.49536         9     1.097     0.922 -28.33   0
        39    476.1004    963.3401 307.7137203  +6.2933112      1095.67     1590.236     1367.248     78.37308     156.8709      313.773      1.597     4.71     870.7439     55.28561      162.632         8     1.094     0.576 -59.07   0
        40     34.7686    962.2596 307.8969637  +6.2789307     2208.878     3623.463     3445.445     78.37308     156.9332     313.6171      1.715     3.90     870.0263     55.28561     281.4901        22     1.331     1.008 -81.16   0
        41    885.7897    961.3854 307.5437040  +6.3078247     977.6472     1476.759     1427.176     78.37308     156.6213     313.5547      1.699     5.80     864.5447     55.28561     109.4344        13     1.155     0.923 -31.16   0
        42    978.0800    959.7325 307.5054440  +6.3115872     612.2802      802.376     769.8246     78.74658     157.1201     313.6483      1.412     3.98     862.2433     55.28561     112.0932         6     0.782     0.580 -43.91   0
        43    957.1732    958.7845 307.5141555  +6.3112811     712.1037     1136.707     1058.517     78.24818     156.6837     313.5547      1.586     4.25     862.8525     55.28561     105.5988         7     0.899     0.574  31.70   0
        44    578.6722    957.4684 307.6713358  +6.2991721     1927.305     2532.171     2163.927     78.74658     156.9956     313.6483      1.552     3.44     869.6517     55.28561     268.6831        18     1.166     0.961 -79.41   0
        45    302.1724    958.3396 307.7860918  +6.2895401     1040.484     1607.164     1461.321     78.24818     156.9332     313.5547      1.625     3.93     871.8257     55.28561     171.8507        12     1.068     0.855  71.98   0
        46   1009.6151    957.4608 307.4924278  +6.3135769     706.8724     1222.127     1195.298     78.12309     156.8085     313.3987      1.737     3.84     861.2925     55.28561     120.5005         7     0.869     0.676 -76.73   0
        47    618.0068    953.5500 307.6551377  +6.3021069      1286.01      1942.25     1625.699     78.12309     156.6213     313.2738      1.629     3.75     869.1694     55.28561     199.7791        13     1.192     0.745 -67.56   0
        48    297.8302    951.3843 307.7881286  +6.2922657     1520.844     2331.631      2515.07     78.24818     156.6213     313.5859      1.622     3.61     871.7482     55.28561     229.1959        13     1.163     0.730 -69.28   0
        49    565.3994    949.5962 307.6771104  +6.3019776     564.2397     849.2823     643.7939     77.99779     156.4339     313.3987      1.578     4.14     869.7844     55.28561     80.71863         5     0.999     0.490 -89.28   0
        50    764.5936    948.1057 307.5944645  +6.3092583     860.4381      1267.51     776.2802     78.37308     156.5589     313.4611      1.491     4.11     867.4976     55.28561     124.5836        10     0.967     0.833 -73.92   0
        51    902.0682    944.2892 307.5375182  +6.3154265     7085.708     11098.09     11526.81     78.74658     157.0578     313.6171      1.689     3.41     863.9504     55.28561     941.2172        35     1.407     1.159 -66.53   0
        52    438.0918    941.3967 307.7302371  +6.3010960     2194.954       3362.5     3511.505     78.24818     156.5589     313.3987      1.602     3.62     870.5163     55.28561     352.1597        20     1.365     0.866 -50.65   0
        53    339.6186    939.6088 307.7711774  +6.2985302     10116.24     15287.66     16255.94     78.37308     156.5589     313.4611      1.631     3.51     871.3772     55.28561     1400.636        40     1.460     1.183 -73.62   0
        54     67.4722    954.4075 307.8836533  +6.2832731     766.5943     1196.378     1782.081     78.12309     156.4339     313.5547      1.685     5.00     869.7572     55.28561     118.7308         9     1.136     0.623 -61.24   0
        55    259.7468    938.5998 307.8043689  +6.2962645     7388.867     11091.28     10944.54     77.87229     156.4964     313.2114      1.610     3.39     871.3454     55.28561     1030.779        32     1.361     1.072 -65.59   0
        56    772.3202    933.1050 307.5917596  +6.3157097     680.1802     992.7912     1520.064     78.37308     157.1201     313.7106      1.641     4.52      867.024     55.28561     106.4027         7     0.890     0.652 -65.03   0
        57    587.8425    933.0157 307.6683501  +6.3095745     1310.952     1781.119     2082.497     78.12309     156.6213     313.4299      1.418     3.33     869.1338     55.28561     197.9344        11     0.957     0.805 -11.96   0
        58    918.0222    929.4529 307.5313913  +6.3220843     988.5709     1651.128     1361.069     78.12309     156.8709     313.4611      1.861     5.04     863.1511     55.28561     141.5374        12     1.203     0.701 -82.49   0
        59    150.1803    929.2338 307.8501690  +6.2964483     756.7104     1001.093       600.37     78.12309     156.6837     313.4611      1.463     5.05     870.0941     55.28561     95.58417         8     0.946     0.763 -80.90   0
        60    873.7740    928.3438 307.5497990  +6.3210649     718.7993     1185.083     1250.317     78.24818     156.8709     313.4611      1.795     5.54     864.6251     55.28561     83.94513         9     1.093     0.791 -56.63   0
        61    417.2040    927.4141 307.7393789  +6.3061681     617.0012     1078.095     1013.025     78.24818     156.5589     313.5235      1.734     5.83     870.3799     55.28561     76.84521         8     1.067     0.897 -58.58   0
        62    984.7155    925.4225 307.5038371  +6.3259737     692.5479     1310.551     994.1339     78.49778     156.5589     313.5547      1.998     5.91      861.715     55.28561     115.8936         9     1.306     0.751 -84.27   0
        63    754.2582    922.3539 307.5996187  +6.3195445     1714.305     2601.305     2690.273     78.62228     156.8709     313.7418      1.627     4.77     867.1933     55.28561     195.8342        18     1.284     0.985 -66.76   0
        64    577.9823    923.1397 307.6727753  +6.3133216     613.3749     1091.802     1183.436     78.24818     156.8085     313.4299      1.828     4.42     869.2059     55.28561     126.1052         6     1.345     0.413 -71.43   0
        65    847.1589    922.6016 307.5610411  +6.3225468     505.9898     535.0619     738.1327     77.99779     156.5589     313.3363      1.250     3.41     865.2374     55.28561      75.4444         5     0.783     0.430 -20.94   0
        66      4.7532    919.2030 307.9108778  +6.2956950     942.3825     1478.951     1314.876     77.99779     156.6213     284.0626      1.546     3.30     868.8196     55.28561     153.3068         9     0.973     0.632 -57.85  16
        67    985.5405    918.2975 307.5037329  +6.3289428     1257.467     1922.132     2407.128     78.37308     156.8709      313.773      1.786     4.40     861.5616     55.28561     168.9335        12     1.049     0.827 -45.77   0
        68    629.9581    918.6927 307.6513464  +6.3168978     707.6343     971.8425     693.6088     78.62228     156.8085     313.7418      1.590     5.01     868.4436     55.28561     108.0641         8     1.067     0.666 -70.31   0
        69    618.4623    918.5934 307.6561224  +6.3165539     954.7553     1396.114     1423.946     77.99779     156.6837     313.4299      1.449     3.91     868.4609     55.28561     137.0101        10     1.081     0.665 -69.92   0
        70    539.1767    918.2463 307.6890501  +6.3140419     1227.748     1704.653     1478.514     78.24818     156.8709     313.5235      1.490     4.88      869.846     55.28561     187.5158        12     1.154     0.748 -63.91   0
        71    672.7407    915.7990 307.6336818  +6.3195242      2673.18     3859.326     3815.399     77.99779     156.6213     313.3363      1.575     3.60     868.3461     55.28561     377.8509        21     1.313     0.919 -70.56   0
        72   1023.4189    914.8573 307.4881217  +6.3316264     404.4421     530.8339     779.7964     71.17902     128.2626     239.8555      1.484     4.82     860.8351     55.28561     78.01758         5     1.413     0.467 -83.13  24
        73    570.5474    912.2675 307.6762272  +6.3175611     603.8582      808.556     1133.378     78.49778     156.8085     313.5547      1.523     4.81     869.1591     55.28561     88.66315         7     0.995     0.687 -83.67   0
        74     69.2967    911.5379 307.8843431  +6.3010325     2989.703      4710.64     4548.547     78.37308     156.9332     313.7106      1.706     4.51     868.9995     55.28561      360.006        26     1.545     0.995 -73.60   0
        75    950.8171    910.8516 307.5183984  +6.3308585      794.319     1467.461     2065.068     78.12309     156.9332     313.3675      2.252     6.01     862.0626     55.28561     144.4273        11     1.299     0.782 -77.34   0
        76    833.6754    911.7469 307.5670027  +6.3265777      805.933     1315.526     1447.803     78.62228     156.8709     313.6483      1.918     4.62     865.2941     55.28561     119.6506         9     1.137     0.735 -35.50   0
        77    213.0419    910.6279 307.8247005  +6.3062429     2503.193     3560.412      3422.28     78.24818     156.8085     313.5235      1.486     3.57      870.759     55.28561      351.066        18     1.215     0.937 -54.92   0
