#   1 NUMBER                 Running object number                                     
#   2 X_IMAGE                Object position along x                                    [pixel]
#   3 Y_IMAGE                Object position along y                                    [pixel]
#   4 ALPHA_J2000            Right ascension of barycenter (J2000)                      [deg]
#   5 DELTA_J2000            Declination of barycenter (J2000)                          [deg]
#   6 FLUX_APER              Flux vector within fixed circular aperture(s)              [count]
#   9 FLUXERR_APER           RMS error vector for aperture flux(es)                     [count]
#  12 FLUX_RADIUS            Fraction-of-light radii                                    [pixel]
#  13 FWHM_IMAGE             FWHM assuming a gaussian core                              [pixel]
#  14 BACKGROUND             Background at centroid position                            [count]
#  15 THRESHOLD              Detection threshold above background                       [count]
#  16 FLUX_MAX               Peak flux above background                                 [count]
#  17 ISOAREA_IMAGE          Isophotal area above Analysis threshold                    [pixel**2]
#  18 A_IMAGE                Profile RMS along major axis                               [pixel]
#  19 B_IMAGE                Profile RMS along minor axis                               [pixel]
#  20 THETA_IMAGE            Position angle (CCW/x)                                     [deg]
#  21 FLAGS                  Extraction flags                                          
         1     15.1144     26.8228 307.9280785  +6.6689324     4088.314     11104.54     13175.82     91.13826     181.6264     363.4337      2.532     6.58     1190.554     64.08659     486.1639        53     1.993     1.645 -75.81   0
         2    310.5373     22.0186 307.8052803  +6.6808116     5419.514     16823.62     20580.32     90.70461     181.7711     363.4337      2.746     6.97     1185.609     64.08659     638.2527        68     2.118     1.883  83.12   0
         3     85.5077     22.6172 307.8989230  +6.6730298     1277.887     2738.087     3772.402      90.8494     181.5541     363.4337      2.356     6.73     1189.255     64.08659     152.7472        15     1.509     0.841 -60.28   2
         4    637.3546     15.3506 307.6694702  +6.6944768     5341.045     14699.58     17162.23     91.13826     181.6988     363.6145      2.579     6.45     1163.591     64.08659     551.8584        57     1.906     1.786 -67.61   3
         5    638.2488      6.9388 307.6693826  +6.6979806     1621.681     4619.048     6855.853     91.13826     181.7711     354.3519      3.153     9.43     1163.391     64.08659     167.9048        40     2.093     1.769  83.77  19
         6    801.2462     15.9084 307.6012298  +6.6997042     948.7664     1994.997     2555.883     91.13826     181.7711     363.7229      2.519     8.36     1158.955     64.08659     118.9603        11     1.898     1.030 -70.01   2
         7    237.6685     12.3696 307.8359383  +6.6823585     2743.415     8667.694     11218.45     90.99394     181.8434     363.5422      2.864     7.24     1188.875     64.08659     320.0811        60     2.049     1.964 -89.04  16
         8    872.3636     13.0196 307.5717236  +6.7032626     992.6674     2081.334     2363.961      90.5596     181.6264     363.3252      2.337     7.36     1157.735     64.08659     138.7797        14     1.485     1.026 -29.66   0
         9    398.8796     10.9239 307.7688853  +6.6883467      3447.78     10472.79      11783.5     91.42622     182.1322     363.7229      2.632     7.39     1177.018     64.08659     388.1449        52     1.936     1.791 -78.08  16
        10    629.0186     10.7139 307.6730970  +6.6961138     4279.542     11960.27     14274.23     90.70461     181.5541     363.4699      2.573     6.52     1163.527     64.08659     451.9347        54     1.896     1.734 -84.78  17
        11    660.9846      8.3407 307.6598712  +6.6981593      8044.05     21983.96     31842.35      90.5596     181.7711     362.9633      3.116     8.11      1163.33     64.08659     908.8109        98     2.773     1.923 -37.05  16
        12    715.2361     10.8245 307.6372044  +6.6989407     888.0453     2113.083     2096.871     90.70461     181.6264      363.289      2.235     8.70      1162.01     64.08659     121.9559        14     2.044     1.035  32.35  18
        13     45.2156      4.5595 307.9163078  +6.6791361     1409.446     4141.872     4267.441      90.5596     181.6264     326.7185      2.545     7.68     1188.736     64.08659      206.819        33     1.795     1.650 -81.32  24
        14    137.3944      2.4100 307.8780140  +6.6831137      2409.21     3592.441      3832.77      90.5596     161.7219      293.133      1.710     5.86     1189.095     64.08659     278.6124        18     1.554     0.874 -65.79  27
        15    134.6756      2.9909 307.8791259  +6.6827827     1768.796     2914.069      3016.18     90.70461     169.1886     302.8795      1.736     4.07     1189.091     64.08659     244.1836        14     1.300     0.811  68.22  19
        16    799.8152    992.7026 307.5688476  +6.2962392     2188.176     3530.179     3620.604     91.13826     181.5541     363.3252      1.666     3.96     1217.436     64.08659     258.9076        21     1.324     1.011 -50.40   0
        17    735.3029   1021.8951 307.5946952  +6.2820368     7008.163     11244.67     11394.69     91.13826     171.3499     304.7828      1.708     3.79     1218.491     64.08659     891.2302        33     1.413     1.208 -36.70  24
        18    530.8018   1022.3677 307.6797353  +6.2750306     3413.116     5771.299     5904.252     90.26888     164.7013     296.6538      1.831     4.17     1221.751     64.08659     412.9945        24     1.321     1.193 -15.07  25
        19    500.9980   1023.2988 307.6920996  +6.2736523     764.1458     816.1151     874.1702     83.61766     150.5258     280.1105      1.266     4.22     1220.947     64.08659     106.2227         7     0.748     0.679  -0.72  24
        20    281.1077   1021.2775 307.7836218  +6.2671461     11545.53     21650.59     23515.97     90.84939      177.528     314.7115      2.027     4.53     1220.724     64.08659     1204.917        61     1.875     1.501 -35.23  24
        21    217.4614    989.8092 307.8111598  +6.2780144     1029.193     2309.104     3074.403     90.41435     181.6988     363.3252      2.333     7.15       1219.6     64.08659     129.4047        14     1.254     1.142  52.17   0
        22     42.6877    988.1976 307.8839029  +6.2728300     2207.817     4088.558     3884.398     90.41435     181.4092      363.289      1.936     4.37     1218.883     64.08659     249.1705        28     1.377     1.291 -66.80   0
        23    936.2135    985.7818 307.5123472  +6.3036299     6736.848        10337     10618.58     90.70461     181.4817     363.4699      1.618     3.33     1215.613     64.08659     882.2742        33     1.372     1.128 -65.43   0
        24    909.8016    977.5623 307.5236101  +6.3061474     2159.063     3490.745     3560.047     90.12317     181.6264     363.3252      1.699     3.77     1215.555     64.08659     288.3138        21     1.180     1.153 -17.92   0
        25    243.1308    973.9034 307.8010233  +6.2854416     3163.418     6304.871     6678.644     90.99394     181.9879     363.5783      2.088     5.05      1219.51     64.08659     379.0936        30     1.572     1.214 -86.56   0
        26    630.8089    973.5422 307.6397904  +6.2985281     3655.413     6745.596     6951.104     90.41435     181.7711     363.2529      1.932     4.55     1218.724     64.08659      410.224        28     1.453     1.222 -57.29   0
        27    769.5115    973.7823 307.5820905  +6.3030456     1105.431     1693.105      1348.31     90.84939     181.5541     363.4337      1.694     3.68     1216.361     64.08659     161.5946        12     1.055     0.808 -49.71   0
        28    979.9974    973.1245 307.4945617  +6.3103110     826.5112     1063.465      1869.71      90.5596     181.2643     363.4699      1.321     3.10     1213.439     64.08659      154.964         7     0.842     0.650 -56.16   0
        29    452.9993    971.6110 307.7138124  +6.2933981     877.8776     1708.126     1755.177     90.70461     181.4817     363.3614      1.879     7.43     1219.125     64.08659     107.6715        13     1.436     1.075  31.51   0
        30     11.9421    971.2781 307.8972650  +6.2787873     1990.325     3633.247     3763.084     91.13826     181.7711      363.506      2.013     5.59     1218.083     64.08659     225.6738        21     1.562     1.003  87.45   0
        31    862.2562    970.1381 307.5436367  +6.3076341     871.2249     1305.259     1592.019     91.28236     181.8434     363.6145      1.623     5.82     1215.559     64.08659     121.6827         8     1.004     0.949  30.94   0
        32    986.8253    964.6852 307.4920058  +6.3140232     927.1541      1895.16         1838     91.28236     181.5541     363.3976      2.296     5.87     1212.744     64.08659     137.0568        13     2.011     0.482 -74.55   0
        33    954.8020    967.2328 307.5052402  +6.3119080     567.5562     546.0107     307.1652     90.26888     181.6264     363.3252      1.413     3.82     1213.863     64.08659     86.18933         5     0.910     0.460 -45.92   0
        34    933.9180    966.7366 307.5139436  +6.3114195     792.1302     1204.745     1079.417     91.28236     181.9156     363.5783      1.738     5.72      1214.52     64.08659     137.7786         7     0.986     0.935 -75.71   0
        35    555.3001    966.1011 307.6714488  +6.2990853     1231.322     2469.331     2553.142     91.13826     182.2765     363.3976      2.096     7.30     1219.625     64.08659     152.0681        16     1.331     1.121  37.80   0
        36    594.2838    961.5255 307.6553887  +6.3022742     844.9915     1505.334     1043.112     91.28236     182.2044     363.6506      1.995     5.55      1219.21     64.08659     101.8416         9     1.441     0.604 -60.74   0
        37    274.6951    960.1968 307.7883600  +6.2921575     1017.739     1774.039     2504.346     90.84939     181.4817      363.289      2.055     4.79     1219.617     64.08659     147.4044        13     1.156     1.046  50.47   0
        38    741.5356    955.9367 307.5943292  +6.3094852     813.6669     1359.988     1792.169     91.13826     181.8434     363.6145      1.850     6.02     1215.663     64.08659     112.8136         9     1.152     0.884  41.53   0
        39    878.9039    952.6491 307.5373016  +6.3154103     6674.121     10700.38     11316.47     90.99394     181.6988      363.759      1.724     3.65     1214.317     64.08659     839.6011        33     1.391     1.198 -47.06   0
        40    415.1212    950.1323 307.7302942  +6.3010046     1591.903     2961.519     3453.025     91.28235     181.9879     363.5783      2.041     5.40      1218.63     64.08659     198.9492        21     1.570     0.982 -53.78   0
        41    316.6233    948.5510 307.7713160  +6.2983683     6661.213     13813.19      15029.7     90.70461     181.9156     363.4699      2.154     4.78      1219.48     64.08659     743.0044        50     1.755     1.475 -82.15   0
        42    236.7036    947.6028 307.8045886  +6.2960886     5011.488     10214.49     11565.38      90.8494     181.4817     363.2167      2.146     4.88     1218.985     64.08659     553.6146        38     1.625     1.408 -88.69   0
        43    565.2290    941.7355 307.6681429  +6.3094792     810.8925     1722.465     1198.614      90.8494     181.8434      363.506      2.059     6.30     1218.425     64.08659     103.1183         9     1.368     0.815 -73.12   2
        44    894.3857    937.2916 307.5313796  +6.3222674     885.1052     1265.899     1199.337      90.8494     181.6264     363.3614      1.483     3.20     1213.169     64.08659     157.2256         7     0.831     0.638 -73.38   0
        45    961.8169    933.3887 307.5034623  +6.3261187        650.6     1049.864      1377.78     90.84939     181.4816     363.4699      1.423     3.47     1211.602     64.08659     82.48413         5     0.764     0.455 -16.47   0
        46    731.1663    930.8868 307.5994880  +6.3194859     1448.159     2854.044     2939.658     91.13826     181.6988     363.5783      2.008     5.64     1214.681     64.08659     191.0453        17     1.312     1.030 -38.99   0
        47    516.4819    927.4104 307.6889035  +6.3137703     796.4123     1624.678     1278.324     90.70461     181.4817     363.3976      2.118     5.84     1218.011     64.08659     116.1414         8     1.333     0.721 -35.83   0
        48    962.4086    926.5151 307.5034477  +6.3289772      1368.06     2104.151     2977.437     90.70461     181.4817     363.3976      1.867     4.85     1211.207     64.08659      159.927        15     1.169     0.944  29.05   0
        49    649.6200    924.1155 307.6336362  +6.3195678     1842.418      3600.61      3786.85     90.70461     181.4817      363.506      2.089     5.15     1215.501     64.08659     209.5198        21     1.387     1.137  -9.65   0
        50     46.5581    920.7047 307.8845871  +6.3008331     2357.759     4567.327      5146.79     91.13826     181.7711     363.7229      2.164     4.99     1216.442     64.08659     290.1149        31     1.566     1.352 -80.67   0
        51    189.8280    919.7985 307.8250288  +6.3060036     1690.715      3437.22     3575.628      90.5596     181.5541     363.3252      2.042     5.33     1218.306     64.08659     192.8281        25     1.416     1.293 -55.71   0
        52     64.0260    920.1477 307.8773409  +6.3016483     1446.631      3146.22     3441.244     90.70461     181.9879     363.4699      2.126     5.84     1216.628     64.08659     197.3591        25     1.621     1.285 -60.94   0
        53    927.3541    919.6015 307.5182621  +6.3306686     810.2051     1185.953     910.6677     90.41436     181.4817     363.1443      1.613     5.69     1211.702     64.08659     102.3922         9     1.410     0.647 -46.85   0
        54    644.2789    913.5425 307.6362151  +6.3237566     5260.367        10219     10227.34     91.13826     181.8434     363.5422      2.028     4.60     1215.239     64.08659      529.512        40     1.582     1.407 -56.68   0
        55    780.9080    914.6589 307.5793452  +6.3278428     676.7318     1161.041     934.6205     90.99394     181.7711     363.7229      1.664     3.93     1213.141     64.08659     113.6615         5     1.355     0.327 -50.53   0
        56      4.6534    912.8853 307.9022818  +6.3026582     884.3511     1840.776     1722.902     91.13826     181.7711     328.4436      2.049     6.69     1215.751     64.08659     120.3192        11     1.466     0.855 -86.88  16
        57    881.8557    909.6194 307.5375244  +6.3332799     2540.993      3878.04     3874.672      90.5596     181.8434     363.3614      1.640     3.67     1211.643     64.08659     321.0502        23     1.272     1.104 -65.87   0
        58     18.4338    910.5751 307.8966289  +6.3040741     907.1572     1573.007      1562.44     90.41436     181.6264     363.3252      2.007     5.21     1215.863     64.08659     114.2238         9     1.155     0.665  58.59   0
        59    327.3337    906.8630 307.7682742  +6.3159429     10956.93      23348.1      25753.5     91.13826     181.8434     363.5783      2.186     5.00     1218.696     64.08659     1074.523        53     1.710     1.542 -77.38   0
        60     62.4581    908.7676 307.8783797  +6.3062955     1061.984     1996.373     2200.583     90.99394     181.9156      363.506      1.839     5.72     1216.343     64.08659     147.2852        13     1.337     0.885 -64.59   0
        61    199.5827    906.0239 307.8214391  +6.3120187     753.4102     1414.118     1371.794     90.84939     181.6988      363.506      1.975     5.47     1218.009     64.08659      93.4801         7     1.187     0.711 -80.89   0
        62     90.9123    897.4034 307.8669311  +6.3119417     1275.023     2624.816     2545.779      90.5596     181.4817     363.2167      2.030     6.80      1216.39     64.08659     166.5133        18     1.396     1.152  47.10   0
        63    405.4731    896.9024 307.7361101  +6.3226662     745.5861     1296.116     567.9055     90.70461     181.9879     363.5783      1.906     4.88      1218.01     64.08659     107.5983         6     1.209     0.558  24.75   0
        64    658.6085    893.6704 307.6309261  +6.3324411     683.1431     1322.604     1672.619      90.5596     181.4092     363.4337      3.109     5.15     1213.804     64.08659      114.166         8     1.064     0.705 -61.35   0
        65    872.3651    891.2207 307.5420925  +6.3405634     1871.675     3089.104     3040.214      90.5596     181.6264     363.3252      1.777     3.90     1210.724     64.08659     230.5404        18     1.236     0.927 -75.53   0
        66     74.2721    890.8613 307.8740745  +6.3140862     1768.071     3816.641     4042.104     91.28236     181.8434     363.6506      2.100     5.98      1216.05     64.08659     210.8712        31     1.583     1.420 -53.76   0
        67    843.0090    890.7938 307.5543183  +6.3397641     1667.671     2678.223     2993.129     90.41435     181.6264     363.3976      1.742     4.23     1211.113     64.08659     201.8228        18     1.229     1.035 -46.80   0
        68    806.2928    890.1528 307.5696128  +6.3388082     2417.382     4417.029     5440.624     90.99394     181.7711     363.7229      2.076     4.37     1211.462     64.08659     290.7996        27     1.416     1.195 -45.80   0
        69    542.3378    881.9249 307.6796874  +6.3334179     224383.4       475852     519018.5     91.42622     181.8434     363.5783      2.179     4.94     1216.846     64.08659      20663.4       162     1.924     1.713 -66.12   0
        70    386.7064    884.5582 307.7443343  +6.3271377     4924.688     10598.12     11306.67     91.28236     181.7711     363.7229      2.198     5.03     1217.916     64.08659     489.6255        48     1.734     1.582 -85.47   0
        71    329.8748    883.0781 307.7680235  +6.3258508     7924.776     17756.12        19551     91.42622     182.1322     363.6506      2.265     5.21      1218.27     64.08659     812.5684        52     1.757     1.580 -75.41   0
        72    629.6620    884.3694 307.6432810  +6.3353183      661.024     1288.966     1182.348      90.8494     181.9156     363.5422      1.635     4.77     1214.218     64.08659     112.0406         5     1.367     0.472 -44.07   0
        73    648.2960    879.2096 307.6357043  +6.3380700     2535.481     5346.184     5668.908     90.84939     181.4092     363.3252      2.123     5.58     1213.441     64.08659     281.4573        32     1.565     1.400 -69.29   0
        74    880.4442    877.6879 307.5391881  +6.3464210     4607.025     7789.846     8556.037     91.13826     181.6988     363.6145      1.894     3.84     1209.784     64.08659     593.3334        32     1.416     1.257 -55.90   0
        75   1013.9915    872.1219 307.4838222  +6.3531542     4586.423     7254.026     7563.867     90.70461     181.2643     363.3614      1.705     3.48      1205.25     64.08659     629.8895        25     1.397     1.025 -72.14   0
        76    622.9741    873.0870 307.6464443  +6.3397552     2373.703     5152.137     5913.958     91.28236     181.6264      363.506      2.246     5.55     1213.862     64.08659     230.5994        32     1.543     1.406 -57.75   0
        77    811.1281    872.0833 307.5682111  +6.3464317     1321.703     2305.891     2136.796     91.42622     182.2044     363.6145      1.841     5.08     1210.491     64.08659     221.2341        15     1.317     0.968 -88.97   0
