#   1 NUMBER                 Running object number                                     
#   2 X_IMAGE                Object position along x                                    [pixel]
#   3 Y_IMAGE                Object position along y                                    [pixel]
#   4 ALPHA_J2000            Right ascension of barycenter (J2000)                      [deg]
#   5 DELTA_J2000            Declination of barycenter (J2000)                          [deg]
#   6 FLUX_APER              Flux vector within fixed circular aperture(s)              [count]
#   9 FLUXERR_APER           RMS error vector for aperture flux(es)                     [count]
#  12 FLUX_RADIUS            Fraction-of-light radii                                    [pixel]
#  13 FWHM_IMAGE             FWHM assuming a gaussian core                              [pixel]
#  14 BACKGROUND             Background at centroid position                            [count]
#  15 THRESHOLD              Detection threshold above background                       [count]
#  16 FLUX_MAX               Peak flux above background                                 [count]
#  17 ISOAREA_IMAGE          Isophotal area above Analysis threshold                    [pixel**2]
#  18 A_IMAGE                Profile RMS along major axis                               [pixel]
#  19 B_IMAGE                Profile RMS along minor axis                               [pixel]
#  20 THETA_IMAGE            Position angle (CCW/x)                                     [deg]
#  21 FLAGS                  Extraction flags                                          
         1      1.7787     87.1148 307.9349130  +6.6324049     249755.3     364600.4     398482.9     72.99602     130.2684     241.5016      1.595    11.85     841.3806     54.92305     60872.02       252     2.563     1.525 -89.89  28
         2    175.9684     14.5557 307.8649955  +6.6682321     10703.74     16829.14     16868.92     77.73504     155.9041     311.4674      1.676     3.40     833.2986     54.92305     1352.756        43     1.437     1.251 -62.80   0
         3    921.5816     12.3756 307.5552501  +6.6941424     4129.211     6300.204     6801.914     77.73504     155.6562     311.5294      1.663     3.53     816.8613     54.92305     605.0348        33     1.385     1.182 -49.99   0
         4    520.1088     12.7993 307.7220609  +6.6805249     2950.908     4443.843     4413.064     77.36161     155.3458     311.4055      1.572     3.68     820.6052     54.92305     397.6946        23     1.355     0.966 -46.98   0
         5    722.3678     10.9468 307.6380790  +6.6880690     1835.629     2475.383     2378.175     77.98299     155.8422     311.4984      1.480     3.02     820.0933     54.92305     311.7734        18     1.201     0.896 -60.09   0
         6    458.3798     11.2084 307.7477642  +6.6791098     1798.122     2795.413     3077.749     77.73504     155.5942     311.3745      1.677     3.69     821.9346     54.92305     254.1516        17     1.226     0.863 -56.68   0
         7    986.3875      8.6849 307.5284442  +6.6978309      2118.58     3210.108     3438.143     77.73504     155.7182     311.4365      1.754     4.41     813.9189     54.92305     285.7819        22     1.422     1.028 -81.38  16
         8    705.7631      5.0523 307.6451771  +6.6899467     7418.984     11122.48     11565.09     77.98299     155.8422     285.9377      1.599     3.25     820.0502     54.92305     1103.047        33     1.359     1.119 -72.69  24
         9    625.9633      4.3385 307.6783605  +6.6875680     3820.609     5893.418     6111.457     78.10668     155.4701     277.4739      1.642     3.32      820.038     54.92305     538.5931        29     1.375     1.098 -72.75  24
        10    327.8040      4.0881 307.8022606  +6.6776626     895.9478     1491.882     2113.201     77.61076     154.0354     274.0435      1.956     4.43     831.2429     54.92305     144.5712        10     1.105     0.760 -47.84  16
        11    381.2487      3.0286 307.7800894  +6.6798963     629.8396     876.9249     743.2128     77.73504     145.7935     260.2402      1.288     2.24     827.6173     54.92305     147.4022         7     0.738     0.616 -74.58  16
        12     26.8434      1.5185 307.9273973  +6.6685894     4405.849     5448.165     5838.521     70.16406     126.6617     237.3896      1.136     2.55      833.065     54.92305     1058.315        17     1.211     0.698  -3.85  24
        13    426.0230      1.6092 307.7615327  +6.6819865      4298.86     5061.892     5162.943     71.12057     127.7997     238.7681      1.166     3.05     824.0145     54.92305      901.071        17     1.174     0.702   2.94  24
        14    512.3552    997.9576 307.6921152  +6.2735093       1008.8     1292.493     1123.768     77.98299     155.8422     311.4365      1.381     3.19     856.1422     54.92305     148.0775        10     0.903     0.727  -8.09   0
        15    714.2232   1021.3658 307.6075139  +6.2706058     6931.808     11127.01      12137.2     77.61076     151.0614     268.4203      1.739     3.57     854.8198     54.92305     858.1824        37     1.428     1.215 -45.82  24
        16    581.4462   1023.3424 307.6625755  +6.2653439     36680.61     47709.38     50423.45     71.93033     128.7779     239.8974      1.352     4.06     856.4872     54.92305     7433.481        50     1.598     0.883  -5.50  24
        17    570.2820   1020.4218 307.6673090  +6.2661757     4008.508     6598.946     7121.081     77.85912     155.5322     280.2776      1.778     3.48     856.5357     54.92305     552.6435        31     1.376     1.220 -57.19  24
        18    429.2384   1021.5634 307.7258299  +6.2609749     3785.585     6126.334     6830.724     77.85912     149.5199     265.8548      1.747     3.62     856.0211     54.92305     480.4783        31     1.422     1.221 -57.14  26
        19    211.0790   1023.3727 307.8163431  +6.2528999     1553.345     2055.185     2061.486      71.5266     128.2521     239.4141      1.334     3.52     855.5738     54.92305      285.215        13     1.220     0.650 -13.48  24
        20    292.7348    995.1920 307.7833921  +6.2672798     14587.34     23657.32     26007.78     77.61076     155.5942     311.4674      1.778     3.56     855.7064     54.92305     1985.539        58     1.811     1.251 -38.84   0
        21    808.2396    995.2853 307.5693531  +6.2845187      1112.01     1655.351     2094.202     78.10668     155.7802     311.5604      1.736     5.88     852.1047     54.92305     142.3366        15     1.274     0.994 -49.98   0
        22    416.9626    996.2020 307.7317805  +6.2710343     1039.086     1711.875     1439.301     77.23673     155.6562     311.4055      1.575     4.56     855.7154     54.92305     138.0756        12     1.136     0.740 -68.93   0
        23    908.3560    989.4897 307.5279778  +6.2902571     8207.601     13716.29     14516.71     78.10668     155.7182     311.6534      1.817     3.53     850.5214     54.92305     1015.995        47     1.505     1.381 -62.25   0
        24    263.6443    992.4856 307.7955612  +6.2674196     839.9573     1277.743     1258.617     78.10668     155.7182     311.5604      1.430     4.33      855.468     54.92305     146.1541         8     1.188     0.450 -81.49   0
        25    539.6819    988.8235 307.6810765  +6.2781967     8370.983     12862.09     14132.85     77.98299     155.5942     311.4984      1.675     3.40     855.9265     54.92305     1160.683        39     1.440     1.168 -63.28   0
        26    626.1777    991.2402 307.6450822  +6.2800969     518.7816     618.2011    -62.56493     77.73504     155.6562     311.4055      1.335     3.40     855.1443     54.92305     85.40668         5     0.959     0.348 -45.88   0
        27   1003.7401    985.1423 307.4885182  +6.2952363     4433.862     7818.237     8254.713     78.23017     155.7802     311.6224      1.902     3.94     846.2267     54.92305     529.6091        40     1.540     1.368 -58.02   0
        28    882.0200    985.6949 307.5390401  +6.2909443     11473.78     19834.61     21767.79     77.98299     155.6562     311.4055      1.867     3.63      850.553     54.92305     1404.568        52     1.583     1.389 -40.56   0
        29    594.6516    986.0706 307.6583456  +6.2811754     1230.009     1991.087      2020.99     77.98299     155.7802     311.6224      1.655     4.05     855.4899     54.92305     224.8874        12     1.237     0.759 -89.60   0
        30    526.3171    984.6440 307.6867661  +6.2794744     4254.853     6907.777     7931.619     78.10668     155.8422     311.5604      1.823     3.52     855.8422     54.92305     604.4578        35     1.516     1.295   0.03   0
        31    635.7534    984.1803 307.6413435  +6.2833326     1402.608     2443.215      1982.84     77.73504     155.8422     311.4055      1.774     4.39     854.7903     54.92305     223.2623        18     1.354     1.013  87.82   0
        32     61.0245    983.6947 307.8799806  +6.2642326     959.4424     1469.709     959.1765     78.23017     155.5942     311.4674      1.639     5.47     853.1083     54.92305     139.1993        11     1.064     0.794  38.75   0
        33    479.2445    981.2054 307.7064263  +6.2793156     2101.951     3085.597     3446.583     77.48628     155.5322     311.2504      1.591     3.54     855.8608     54.92305      313.261        21     1.231     1.002 -52.87   0
        34    387.8619    980.6060 307.7443881  +6.2764969     530.2266     1014.062     929.5709     77.48628     155.6562     311.3745      1.961     5.00     855.6386     54.92305     69.19385         7     0.984     0.719  54.21   0
        35    913.7552    973.2018 307.5262817  +6.2971626      40715.4      68237.3     73079.73     77.48628      155.408     311.2194      1.813     3.52     850.1155     54.92305     5122.173        79     1.591     1.455 -53.15   0
        36    514.8029    977.4051 307.6917903  +6.2820772     485.4528     713.2153     989.2513     77.48628     155.4701     311.4365      1.595     3.42     855.6882     54.92305     75.24316         5     0.763     0.443 -19.96   0
        37    220.8166    971.5286 307.8140494  +6.2746326     1721.087     2504.231     2194.692     77.61076     155.7802     311.4984      1.554     4.11     854.6105     54.92305     239.5393        17     1.257     0.917 -39.36   0
        38    619.9553    969.4294 307.6483987  +6.2888940     929.5073     1572.355     1593.231     77.73504     155.9041     311.4674      1.953     4.60     854.8091     54.92305     138.9557        11     1.263     0.657 -48.41   0
        39    108.8668    970.1985 307.8605737  +6.2714155      659.261     960.4457     502.2519     77.48628      155.408     311.3745      1.525     4.99     853.4166     54.92305     90.83551         6     1.214     0.582 -37.60   0
        40    811.6296    967.0451 307.5688928  +6.2962923      2302.63     3765.637     3615.913     77.73504     155.9041     311.4674      1.725     3.84     851.6949     54.92305     326.2585        23     1.293     1.100 -45.82   0
        41    759.9779    964.8069 307.5904146  +6.2954892     6449.427     10434.05     11356.26     77.61076     155.6562     311.4365      1.711     3.65     852.7879     54.92305     854.9221        37     1.467     1.208 -60.75   0
        42    546.6495    964.0634 307.6790162  +6.2886533     870.6932      1386.14     1176.108     77.98299     155.7802     311.6534      1.647     5.20     855.1958     54.92305     131.5276        11     1.295     0.634 -44.52   0
        43    229.3869    963.9681 307.8107462  +6.2780423     1512.772     2278.774     2718.437     77.61076     155.5942     311.5294      1.679     3.36      854.531     54.92305     221.4958        16     1.078     0.941 -79.20   0
        44    193.8571    963.5134 307.8255130  +6.2770353     844.4388     1389.085     1416.178     78.10668     155.8422     311.7153      1.954     4.63     854.1401     54.92305     124.1753         8     0.989     0.747 -32.59   0
        45     54.2272    961.9748 307.8835366  +6.2729712     2708.788     4307.013     4257.902     77.61076     155.6562     311.4674      1.630     3.54     852.9094     54.92305     389.2638        25     1.430     1.046 -57.44   0
        46    948.0408    960.0043 307.5124877  +6.3037567     6303.408      10887.5     11931.74     77.36161     155.5942     311.3434      1.825     3.65     848.8052     54.92305     789.2473        40     1.449     1.322 -59.02   0
        47    630.1407    954.1862 307.6446818  +6.2955288     734.4731     1171.414      1003.59     77.48628     155.7802     311.3124      1.321     3.95     854.2885     54.92305     146.8295         6     1.070     0.417 -28.91   0
        48    921.7969    951.5785 307.5236672  +6.3063594     1974.949     3292.861     3064.706     77.73504     155.5322     311.3745      1.792     4.25     849.5034     54.92305     252.8938        21     1.381     0.994 -37.84   0
        49    781.2029    948.2731 307.5821564  +6.3030258     1376.367     2109.894     1945.852     77.61076      155.408     311.4365      1.582     3.79     852.0738     54.92305     183.2512        13     1.028     0.932 -50.87   0
        50    642.6176    947.5341 307.6397247  +6.2986933     4462.407     6995.446      7685.47     77.61076     155.7802     311.4674      1.751     3.48     853.8942     54.92305     597.4363        31     1.409     1.125 -50.12   0
        51    254.7720    947.7371 307.8007540  +6.2855971     4226.884     6455.199     6377.505     77.73504     155.8422     311.5294      1.638     3.56     854.6714     54.92305     599.5474        28     1.336     1.101 -61.60   0
        52    991.6932    947.8397 307.4947693  +6.3102365     779.4914     1234.483     1391.528     78.23017     155.7802     311.6843      1.858     4.07     846.8693     54.92305     128.0595         9     1.113     0.804 -18.85   0
        53    464.5708    946.0904 307.7137007  +6.2933219     1143.115     1691.622     1890.048     78.23017     155.5942     311.5294      1.598     3.47     855.3645     54.92305     160.9821        13     1.006     0.870   4.84   0
        54     23.4887    945.0679 307.8968700  +6.2789161     2349.398       3319.9     3315.743     78.23017     156.0279     311.5604      1.550     3.50     852.7153     54.92305     332.2975        19     1.198     0.952 -51.62   0
        55    874.4540    944.0546 307.5435775  +6.3078846     903.8563     1279.864     1714.782     78.35346     155.8422     311.5914      1.614     5.02     850.0157     54.92305     173.6814        12     1.128     1.054 -43.33   0
        56    966.7846    941.8571 307.5053125  +6.3118753     612.9464     1048.454     750.4959     77.48628     155.7802     311.3434      1.593     4.77      847.765     54.92305     94.99121         6     1.086     0.593  68.53   0
        57    567.3299    940.0308 307.6712377  +6.2992692     1680.126     2595.967      2178.13     77.98299     155.8422     311.5604      1.594     4.31      854.486     54.92305     217.3278        19     1.406     0.892 -52.54   0
        58    290.5553    941.5594 307.7861052  +6.2893503     803.5718     1203.053     1692.455     77.85912     155.8422     311.4674      1.817     3.54     855.2945     54.92305     156.6974         8     1.078     0.589 -57.75   0
        59    998.4032    940.3903 307.4922325  +6.3135362     848.0908     1399.437     1830.004     77.48628     155.5322     311.4365      1.868     5.57     846.6555     54.92305     103.1443        10     1.020     0.859  -0.34   0
        60    945.4102    940.9977 307.5142167  +6.3115166     788.4255     1156.542     840.6103     77.61076     155.5322     311.4674      1.420     5.56     848.5343     54.92305     104.6746         9     1.315     0.664 -30.57   0
        61    605.3403    936.0158 307.6555900  +6.3022005     1769.458     2773.875      3093.65     77.61076     155.7802     311.3434      1.817     6.12     854.3495     54.92305      644.725        12     1.517     0.695  28.07   0
        62     56.1148    936.8676 307.8836014  +6.2834008     785.3218     1144.635     1531.279     78.47656     156.0897     311.6224      2.145     5.32      852.776     54.92305     117.4499         9     0.957     0.835  -1.92   0
        63    286.1283    934.2691 307.7881892  +6.2922116     1543.042     2232.287     2592.413     78.10668      155.966     311.5294      1.549     3.77     855.1491     54.92305     210.1935        14     1.129     0.854 -64.72   0
        64    553.6659    932.5366 307.6771632  +6.3019056     646.2329     809.8941     690.0305     78.10668     155.8422     311.5914      1.402     4.26     854.3101     54.92305      86.5697         6     1.172     0.442 -55.52   0
        65    753.0842    929.9185 307.5944480  +6.3096638     820.4568     1335.865     937.0724     77.85912     156.0897     311.6534      1.717     5.61     852.0978     54.92305     111.5986        11     1.351     0.657 -44.88   0
        66    890.7361    926.7892 307.5373954  +6.3155573     6747.254      10529.6     10577.67     77.61076     155.6562     311.4674      1.686     3.42     849.4558     54.92305      862.162        34     1.408     1.162 -59.19   0
        67    426.8360    923.9208 307.7301150  +6.3012094     2179.339     3542.271     4017.868     77.98299     155.9041     311.5914      1.713     3.90     855.0337     54.92305     325.6927        23     1.387     0.999 -47.56   0
        68    328.2747    922.2928 307.7710935  +6.2985724     9673.021     14923.39     16050.98     78.10668      155.966     311.5604      1.686     3.34     855.3105     54.92305     1314.307        40     1.480     1.173 -56.16   0
        69    248.4259    921.2521 307.8042823  +6.2963189     7158.724     10950.97     11698.44     77.73504      155.966     311.4984      1.689     3.29     854.1098     54.92305     989.5404        38     1.448     1.180 -50.21   0
        70    608.8209    917.6166 307.6547633  +6.3099140     2851.639     2832.906     2216.621     77.85912     155.6562     311.4984      0.694     2.12     853.8139     54.92305     1282.356         5     0.642     0.330 -69.25   0
        71    760.6746    916.0001 307.5917633  +6.3156645     805.1844     1346.493     1599.303     77.36161     155.2215     311.3745      1.752     5.99      851.723     54.92305     88.53632        10     1.029     0.982  26.47   0
        72    576.2322    915.7599 307.6683574  +6.3095887     1124.876     1758.231     1883.554     77.73504     155.6562     311.4674      1.640     4.15      853.895     54.92305     164.3884        12     1.087     0.815 -40.68   0
        73    906.4324    911.8723 307.5313777  +6.3222408     1090.438     1744.118     2323.339     77.98299     155.8422     311.6224      2.075     5.76      848.951     54.92305     142.7825        14     1.227     1.045  -8.86   0
        74    139.2886    911.6387 307.8499207  +6.2966172     688.5257     1005.863     861.8049     78.10668     155.7802     311.6224      1.655     5.17     852.8754     54.92305     84.41669         7     0.965     0.783 -51.99   0
        75    862.7753    910.7347 307.5495440  +6.3212520     686.9609     1270.524     1415.766     77.73504     155.8422     311.4984      1.963     4.76     849.6868     54.92305      98.1311         7     0.975     0.761 -67.67   0
        76    405.0377    910.0295 307.7396338  +6.3062133     648.9893     962.9507     802.0618     77.73504     155.5942     311.4674      1.525     5.34     854.7421     54.92305     91.38007         8     1.362     0.592 -55.37   0
        77    973.6744    907.4114 307.5036053  +6.3263278      684.017     1225.457     1464.205     77.61076     155.4701     311.4365      2.025     5.60     846.9116     54.92305     95.11255         8     1.109     0.796 -35.81   0
