#   1 NUMBER                 Running object number                                     
#   2 X_IMAGE                Object position along x                                    [pixel]
#   3 Y_IMAGE                Object position along y                                    [pixel]
#   4 ALPHA_J2000            Right ascension of barycenter (J2000)                      [deg]
#   5 DELTA_J2000            Declination of barycenter (J2000)                          [deg]
#   6 FLUX_APER              Flux vector within fixed circular aperture(s)              [count]
#   9 FLUXERR_APER           RMS error vector for aperture flux(es)                     [count]
#  12 FLUX_RADIUS            Fraction-of-light radii                                    [pixel]
#  13 FWHM_IMAGE             FWHM assuming a gaussian core                              [pixel]
#  14 BACKGROUND             Background at centroid position                            [count]
#  15 THRESHOLD              Detection threshold above background                       [count]
#  16 FLUX_MAX               Peak flux above background                                 [count]
#  17 ISOAREA_IMAGE          Isophotal area above Analysis threshold                    [pixel**2]
#  18 A_IMAGE                Profile RMS along major axis                               [pixel]
#  19 B_IMAGE                Profile RMS along minor axis                               [pixel]
#  20 THETA_IMAGE            Position angle (CCW/x)                                     [deg]
#  21 FLAGS                  Extraction flags                                          
         1    427.6327     26.8801 307.7613663  +6.6824827     5321.117     9563.983     10772.05     79.18039      158.235     316.3757      1.929     5.02     846.8541     55.76637      647.213        36     1.794     1.038 -49.89   0
         2    324.2635     21.7911 307.8044774  +6.6810971     10597.86     19447.53     20606.23     78.80244     158.0463      316.187      1.936     5.55     854.2941     55.76637     1341.658        46     1.806     1.134 -44.81   0
         3    390.4918     19.7161 307.7770366  +6.6841877     1876.827     3440.594     3329.412     79.05461     158.5492     316.5015      1.960     5.46     849.5541     55.76637      245.564        23     1.641     0.920 -43.48   0
         4    651.2357     15.2454 307.6688728  +6.6948141     9213.939     16459.42     18257.61     79.05461     158.1721     316.2813      1.918     5.66     840.6103     55.76637     1125.531        47     1.804     1.127 -47.08   0
         5     69.0309     16.1739 307.9106871  +6.6747917     563.1757      1010.45     1003.786     78.80244     157.9833     316.2184      1.714     3.86     855.2478     55.76637     87.01782         6     1.511     0.283 -59.48   0
         6    815.8740     14.7319 307.6004963  +6.7005582     1428.518     2588.016     3566.128     79.43136     158.3608     316.3443      2.227     6.01     838.6971     55.76637     172.9151        18     1.592     0.816 -50.15   0
         7    528.5838     15.0945 307.7198289  +6.6907488     1006.334     1906.361      1781.48      79.0546     158.0462     316.2184      2.003     6.91     842.2177     55.76637     145.3911        15     1.718     0.779 -52.19   0
         8    886.2930     12.7675 307.5713085  +6.7037325     1365.752     2175.685     2165.867     79.43136     158.1092     316.4386      1.703     5.37     835.8399     55.76637     194.1782        16     1.501     0.739 -35.90   0
         9    251.4977     11.9958 307.8350350  +6.6826840     5191.324     10038.31     10923.37      79.0546     157.9203      316.061      2.078     5.83     856.8781     55.76637     668.4897        43     1.990     1.166 -39.62  16
        10    642.8715     10.6486 307.6725024  +6.6964302     7758.684     13871.38     15471.01     79.30597      158.235     316.4072      1.932     5.75     840.5305     55.76637     988.8894        46     1.854     1.086 -48.91  16
        11    412.6298     10.6890 307.7681455  +6.6886604     6818.236     12165.26     12359.91     79.43136     157.9833     316.3128      1.883     5.78       848.08     55.76637     839.6901        40     1.758     1.106 -47.55  16
        12    674.7364      8.3216 307.6593436  +6.6984624     12578.67     25921.69     32915.28     79.55655     158.2979     316.0295      2.487     8.39      840.226     55.76637     1591.114        71     2.713     1.142 -41.44  16
        13    728.3367      9.5393 307.6370359  +6.6997614     1683.583     2752.774     2512.571     79.30598      158.235     316.4072      1.776     6.53     839.5649     55.76637     209.4283        17     1.532     0.781 -48.56  16
        14    652.1384      6.6830 307.6687864  +6.6983789     2599.294     4872.346     6703.065     79.43136      158.235     306.2422      2.376     5.26     840.3447     55.76637     318.9762        27     1.666     0.987 -50.24  17
        15    191.2124      7.5399 307.8602277  +6.6824868     1060.179     1898.503     1841.262     78.67605     158.1092     312.1323      1.968     6.18     856.2067     55.76637     155.2304        14     1.674     0.694 -37.48  16
        16     59.0331      3.8257 307.9152585  +6.6795503     2723.727     4961.415     4895.344     78.80244     154.8659     275.0859      1.902     5.18      854.241     55.76637     364.0323        29     1.714     1.057 -47.47  24
        17    941.6309      2.4697 307.5486657  +6.7098394     633.9331      1073.38      1411.01     79.18039     141.6422     256.0496      1.931     4.54     833.5822     55.76637     105.6043         7     1.506     0.389 -53.53  24
        18    775.1054      1.8177 307.6178671  +6.7045201     564.4326     723.6988     484.8577     74.78517     132.8692     246.1414      1.496     5.44     839.0937     55.76637     163.7859         8     1.540     0.543 -34.15  24
        19    149.3914      2.0523 307.8777854  +6.6833384     3950.838     5557.359     5449.848     76.49552     136.0517     249.3549      1.494     5.51     855.6022     55.76637     517.4815        20     1.377     0.815 -28.66  24
        20     81.2139      1.3451 307.9061292  +6.6813247     624.2582     772.5209     986.9777     68.39058     125.7108      238.127      1.187     3.78     854.8226     55.76637     113.3378         6     1.018     0.403 -15.63  24
        21    949.5640    986.4062 307.5123308  +6.3039324     5479.935     10499.58     11595.52     78.42267     157.9833     316.1555      2.007     5.14     867.1036     55.76637     605.6732        44     1.834     1.228 -44.85   0
        22    809.8711   1021.4055 307.5691418  +6.2848005     821.3952     1510.407     1454.271     78.80244      152.926     272.1033      1.943     6.82     871.1185     55.76637     110.3302        15     1.673     0.779 -60.66  24
        23    748.6313   1022.0645 307.5945394  +6.2824730     6498.384     11329.75     11841.16      79.0546     146.9526     262.8389      1.850     5.52     872.0862     55.76637     779.2991        35     1.652     1.100 -45.29  24
        24    544.1503   1022.4426 307.6794025  +6.2754449      3501.26     5674.042      6380.18     79.43136     142.4129      257.329      1.789     5.31     875.8126     55.76637     437.9406        26     1.524     0.993 -38.59  24
        25    514.6332   1023.5500 307.6916170  +6.2739946     685.1287     1070.225      1219.83     70.68044     127.5966     239.9587      1.837     4.84     875.6271     55.76637     124.1645         9     1.480     0.449  -8.77  24
        26    418.6327   1022.1091 307.7315124  +6.2713575     689.3548     1111.249     1149.294     79.43136     146.4778     262.3463      1.765     6.13     876.3688     55.76637     101.1556        10     1.455     0.726 -19.72  24
        27    294.2829   1021.4073 307.7831491  +6.2674564     12214.32     22166.63     23768.23     78.92863      152.926     271.9204      1.942     5.81     875.9255     55.76637     1476.376        53     1.981     1.129 -42.54  24
        28    923.3036    977.9942 307.5235139  +6.3065249     1718.552     3057.662     3729.571      79.0546     157.9203      316.187      1.904     5.18     868.1309     55.76637     220.8836        21     1.507     0.977 -64.66   0
        29    644.0754    973.7625 307.6395642  +6.2989000     3922.325     7255.496     7713.894     79.18039     158.2979     316.4072      1.965     5.55     872.5978     55.76637     492.6957        29     1.662     0.990 -45.91   0
        30    256.2008    973.9178 307.8005597  +6.2857751     3572.697     6423.099     6730.555     78.54946     157.7311      316.061      1.919     5.98     875.1472     55.76637     491.8704        30     1.670     1.006 -47.56   0
        31    783.0177    974.1360 307.5818768  +6.3034124     1072.531     2119.023     2482.993     78.92862     158.1721     316.2184      2.033     6.65     870.3139     55.76637     125.5041        16     1.608     0.771 -46.81   0
        32    465.7405    972.3456 307.7136371  +6.2934860     945.8204     1750.045     1256.095     79.43136     158.1721     316.3443      1.924     7.10      875.064     55.76637     120.4478        11     1.368     1.033 -20.08   0
        33     24.9592    971.5404 307.8966203  +6.2789466     1951.557     3376.572      3763.56     79.30597      158.235     316.4386      1.944     5.03     874.4152     55.76637      244.144        22     1.570     0.920 -40.76   0
        34    876.0338    970.6063 307.5433840  +6.3079900     852.1167     1419.176     1266.848     78.67605     158.0462     316.1555      1.640     5.61     868.4239     55.76637     119.9285        11     1.403     0.631 -44.31   0
        35    968.1039    968.3641 307.5052401  +6.3120016     537.3312     1006.288     649.4375     79.43136     158.1092      316.533      1.648     5.96     865.4316     55.76637     95.93182         7     1.562     0.640 -48.15   0
        36   1000.2422    965.8420 307.4919836  +6.3141193     860.1773     1883.706     2055.867      79.0546      158.235     316.2499      2.479     7.72     863.5515     55.76637     126.4051        18     1.988     0.840 -57.37   0
        37    946.8975    968.2322 307.5140475  +6.3113455     667.1617     1012.223     558.3644     79.30597     158.1092     316.4701      1.556     4.43     866.6362     55.76637     101.7511         7     0.762     0.734 -25.08   0
        38    568.7224    966.4468 307.6710891  +6.2993864     1373.697     2416.984     2348.654     79.18039     158.2979     316.3757      1.798     6.14     873.8938     55.76637     223.2595        17     1.826     0.649 -49.42   0
        39    606.7302    963.6686 307.6554058  +6.3018114     816.4625      936.085     874.3834     79.30598     158.3608     316.3443      1.174     2.79     873.0315     55.76637     154.1782         6     0.839     0.615   8.92   3
        40    609.0000    961.9948 307.6545200  +6.3025787     838.9795     1016.925     946.4377     78.54946     157.8572     316.1555      1.284     3.72     872.9562     55.76637     118.3096         7     0.749     0.704  61.48   3
        41     57.1560    963.5462 307.8835274  +6.2833349      664.985     1245.785      1720.39     79.30598      158.235     316.3757      1.895     4.62     874.3826     55.76637     93.58746         8     0.911     0.665 -59.68   0
        42    287.6888    960.6816 307.7879369  +6.2923010      1338.14     2389.522     2408.392     79.05461     158.4236     316.4701      1.891     6.56     875.8775     55.76637     179.2433        19     1.661     0.824 -49.22   0
        43    754.9576    956.4233 307.5941201  +6.3097823     854.4769     1535.092     1597.505     78.92862     158.1092      316.187      1.993     6.53     870.2247     55.76637     112.2905        12     1.769     0.677 -48.33   0
        44    892.2798    953.1503 307.5372262  +6.3157406     5846.087     10736.77     11076.33     79.30598     158.2979     316.3757      1.967     5.07     867.8226     55.76637     701.4619        40     1.799     1.131 -45.39   0
        45    428.0002    950.3496 307.7300444  +6.3012950     1720.275     3262.799      3056.84     78.54946     157.7311     315.9351      1.945     5.41     875.0831     55.76637     267.5604        22     1.603     0.872 -50.05   0
        46    329.8988    948.5415 307.7708262  +6.2987356     8328.382      14838.1     16004.17      79.0546      158.235     316.5015      1.913     5.57     875.5896     55.76637     1025.062        45     1.805     1.093 -46.06   0
        47    249.9169    947.4665 307.8040616  +6.2964819     6256.029     10864.31     11834.07     79.55654     158.4864     316.4386      1.883     5.44      875.219     55.76637     771.1215        34     1.748     0.983 -47.04   0
        48    578.0876    942.2271 307.6680173  +6.3096993     967.9561     1712.723     1954.438     79.43136     157.9833     316.2813      1.886     6.18     873.2072     55.76637     118.7515        14     1.661     0.646 -35.84   0
        49    762.5492    941.4251 307.5914729  +6.3162285     577.5874     1089.939     1523.453     78.92863      158.235     316.2813      1.931     6.11     869.6876     55.76637     97.67426         8     1.492     0.704 -55.11   0
        50    908.0240    938.3008 307.5311890  +6.3223985     1049.708     1860.359      2351.92     79.43136     157.9833      316.187      1.921     6.77     867.0283     55.76637     107.4328        17     1.555     0.826 -29.67   0
        51    211.8627    938.1203 307.8201730  +6.2990558      417.761     738.1539     831.8005     79.43136     158.2979     316.3757      1.555     3.89     874.8729     55.76637      90.5238         5     0.995     0.436 -44.55   0
        52    406.1531    936.1831 307.7395908  +6.3064069     639.7651     1141.308     1195.656     78.80244     158.1721      316.124      1.947     5.01     874.9747     55.76637     80.18805         6     1.376     0.515 -46.20   0
        53    976.3964    933.7108 307.5029602  +6.3265845     666.8075      1191.62     1310.468     78.80244     157.9203      316.061      2.025     6.08     864.0007     55.76637      98.7691         7     1.221     0.852 -46.92   0
        54    837.1307    932.4188 307.5608157  +6.3224492     504.5939     919.9121     1168.826     78.92862     158.1092     316.3128      1.994     3.95     868.4561     55.76637     94.23352         5     1.347     0.332 -50.12   0
        55    744.4196    931.0212 307.5993486  +6.3199146     1352.176     2447.106     2878.628      79.0546     158.1721     316.3128      1.987     6.80     869.7305     55.76637     177.9645        18     1.588     0.818 -46.61   0
        56    567.3017    932.2343 307.6728311  +6.3134616     638.8142     1042.357     1029.749     79.30598     158.1092     316.5015      1.566     3.92     873.1907     55.76637     129.6294         6     0.773     0.621 -46.61   0
        57    974.7283    927.4446 307.5038629  +6.3291154     865.3066     1407.229     2006.309     79.18039      158.235     316.4072      1.939     5.54     863.8569     55.76637     135.3848        10     1.350     0.642 -61.81   2
        58    977.4371    926.1614 307.5027815  +6.3297358      740.948     1053.617     1556.476      79.0546     158.1092     316.2499      1.594     4.44      863.738     55.76637     125.7692         7     1.207     0.464  84.82   3
        59    619.3809    928.0005 307.6513553  +6.3169605     407.1398     480.6132     155.7178     78.92862     157.7942      316.061      1.394     4.17      872.245     55.76637     64.26068         5     1.096     0.452 -24.90   0
        60    609.6342    926.8097 307.6554413  +6.3171244     711.0556     1481.687     1280.663     78.80244     158.0462     316.2184      1.977     3.52     872.3518     55.76637     125.6725         7     0.772     0.697 -60.79   2
        61    529.7022    926.9897 307.6886156  +6.3143616     1041.912      1801.75     1664.572      79.0546     157.8572     316.2184      1.908     6.83     873.6996     55.76637     140.0146        17     1.599     0.818 -45.08   0
        62    662.7049    924.6129 307.6334850  +6.3198151     2160.402     3789.545     3647.662     79.05461     157.9833     316.2184      1.844     5.05     871.4668     55.76637     271.1461        23     1.539     0.967 -41.57   0
        63    823.6117    920.8893 307.5668150  +6.3267551     784.3994     1233.195     935.0918      79.0546     157.9203     316.2499      1.764     6.83     868.3624     55.76637     96.45966        12     1.459     0.896 -27.27   0
        64     59.5254    920.4735 307.8840019  +6.3011946     2558.979     4507.896      4404.44     79.55655     158.4864     316.4386      1.928     6.39      873.884     55.76637     282.2919        28     1.812     0.954 -53.07   0
        65    203.1254    919.5587 307.8244272  +6.3064228     1906.039     3297.627     3279.077     79.18039      158.235     316.4072      1.774     5.74     874.9833     55.76637     229.3999        21     1.581     0.857 -51.84   0
        66     77.0839    919.8301 307.8767356  +6.3020537     1547.184     2772.076     2629.673     79.30597     158.0462     316.2499      1.918     6.92     873.9971     55.76637     241.2043        20     1.815     0.739 -50.92   0
        67    941.4929    919.7698 307.5179173  +6.3311700     704.7537     1169.416     1098.146     79.43136     157.9833     316.3128      1.796     5.90     865.3425     55.76637     102.1528         9     1.117     0.877 -25.35   0
        68    958.8256    917.2483 307.5108066  +6.3327917      413.075     684.9745     1388.657     78.92862     158.2979     316.2813      4.652     5.18     864.4047     55.76637     73.45801         5     1.218     0.623 -68.02   0
        69    236.7845    916.6997 307.8105523  +6.3087390      782.581     1330.345     1256.198     79.30598     157.9833      316.124      1.869     5.57     875.2068     55.76637     101.5807        11     1.373     0.638 -35.00   0
        70    657.5555    913.7407 307.6359884  +6.3241301     5939.726     10308.76     11320.43     79.18039     158.1721     316.4701      1.882     5.41     871.1415     55.76637     726.1821        35     1.716     1.012 -46.03   0
        71    341.8086    915.3323 307.7670036  +6.3128456     789.2692     1446.724     1359.905     78.80244     157.9833     316.2813      1.905     6.12     875.2441     55.76637       103.29         9     1.297     0.811 -47.79   0
        72    795.1927    914.7569 307.5788184  +6.3283330     664.6698     1050.754     886.1153     78.80244     157.9833     316.0925      1.446     5.08     868.6508     55.76637     92.90759         9     1.112     0.655 -27.62   0
        73     17.7464    911.9012 307.9016336  +6.3033206     1062.198     1847.171     1892.531     79.18039      158.235     316.5959      1.777     6.37     873.5494     55.76637     156.5685        15     1.434     0.796 -36.06   0
        74    895.3254    910.1967 307.5374040  +6.3335743     2302.412     4062.028     3894.211     78.80244     157.7311     316.2813      1.845     5.72     866.7094     55.76637     270.6519        23     1.586     0.941 -50.56   0
        75     30.6967    910.3621 307.8963104  +6.3043938     888.6885     1477.913     1409.328     79.30598     158.1092      316.533      1.776     5.96     873.6207     55.76637     143.8154        12     1.690     0.592 -44.76   0
        76    770.8908    909.9254 307.5890691  +6.3295117     565.9955     797.6409     77.28762     79.30598     158.4236     316.4072      1.436     3.90     868.9573     55.76637     106.9228         5     1.275     0.342 -63.22   0
        77    340.5519    906.8433 307.7678118  +6.3163075     14303.04     24975.36     26840.91     79.30598     158.1721     316.3128      1.879     5.30     875.2151     55.76637     1730.154        49     1.800     1.101 -48.47   0
