#   1 NUMBER                 Running object number                                     
#   2 X_IMAGE                Object position along x                                    [pixel]
#   3 Y_IMAGE                Object position along y                                    [pixel]
#   4 ALPHA_J2000            Right ascension of barycenter (J2000)                      [deg]
#   5 DELTA_J2000            Declination of barycenter (J2000)                          [deg]
#   6 FLUX_APER              Flux vector within fixed circular aperture(s)              [count]
#   9 FLUXERR_APER           RMS error vector for aperture flux(es)                     [count]
#  12 FLUX_RADIUS            Fraction-of-light radii                                    [pixel]
#  13 FWHM_IMAGE             FWHM assuming a gaussian core                              [pixel]
#  14 BACKGROUND             Background at centroid position                            [count]
#  15 THRESHOLD              Detection threshold above background                       [count]
#  16 FLUX_MAX               Peak flux above background                                 [count]
#  17 ISOAREA_IMAGE          Isophotal area above Analysis threshold                    [pixel**2]
#  18 A_IMAGE                Profile RMS along major axis                               [pixel]
#  19 B_IMAGE                Profile RMS along minor axis                               [pixel]
#  20 THETA_IMAGE            Position angle (CCW/x)                                     [deg]
#  21 FLAGS                  Extraction flags                                          
         1     39.1283     24.5580 307.9272020  +6.6689096     8558.301     13353.01     13286.97      81.6041     163.0786     326.0924      1.672     4.44     928.3254     57.47337     1242.817        33     1.688     0.906  55.96   0
         2    334.7477     19.9642 307.8045449  +6.6807197     12590.38     20327.24     21628.82      81.6041     163.0786     326.0276      1.719     4.57     921.1846     57.47337     1983.649        40     1.676     0.982  54.98   0
         3     99.6034     18.9018 307.9022702  +6.6732744     1461.922     2373.109     2160.074     81.47446     162.7542     325.7357      1.704     5.63     926.6052     57.47337     204.1854        17     1.539     0.777  49.82   0
         4    400.8433     17.8603 307.7771562  +6.6838005     2194.066     3690.129     3302.581     81.73353     163.0786     326.1896      1.736     4.95     914.7168     57.47337     323.3773        20     1.558     0.825  58.88   0
         5    661.6348     13.3522 307.6689581  +6.6943761     10834.24     16660.19     17308.18     81.34463     163.0786     325.9951      1.662     4.64     906.8875     57.47337     1748.541        34     1.643     0.870  53.46   2
         6    653.2801      8.8195 307.6725818  +6.6959679     9173.936     14072.37      14879.5     81.34463     162.7542     325.9951      1.638     4.96     906.7558     57.47337     1439.526        31     1.673     0.830  52.19  18
         7    995.4126     14.3839 307.5302445  +6.7050700     760.9348     1113.565     331.1704     81.47446     162.7542     325.9951      1.404     3.69     896.0148     57.47337      145.319         7     0.932     0.670 -46.25   0
         8    826.4550     12.8116 307.6004969  +6.7000950     1739.664     2619.871     2545.999     81.08432     163.0138     325.7357      1.682     4.70     900.7679     57.47337     240.6672        15     1.378     0.704  55.48   0
         9    539.3828     12.8748 307.7197663  +6.6904906     1278.607     2220.759     2572.303     81.21458     162.8191     325.9303      1.707     6.37      907.408     57.47337     184.6999        16     1.542     0.739  55.41   0
        10     79.3324     13.7470 307.9108661  +6.6747211     797.2458     1228.622     675.1282      81.6041     163.0138     325.9627      1.629     5.13     926.8676     57.47337      108.125         9     1.230     0.604  50.88   0
        11    261.7915     10.4020 307.8351778  +6.6822218     6108.017     10041.83     11019.29     81.08432     162.7542      325.833      1.778     4.47     924.4307     57.47337     895.9402        31     1.667     0.959  50.24  18
        12    265.0821      7.8924 307.8338955  +6.6833678     861.9749      1686.23     2721.648     81.47446     163.4024     324.0764      2.131     5.17     924.3596     57.47337     180.3977         9     1.676     0.451  55.24  18
        13    896.6075     10.9179 307.5714132  +6.7032128         1572       2368.5     2268.139     81.34463     162.6893     325.9303      1.587     4.40     899.7906     57.47337     269.3137        15     1.336     0.728  55.79   0
        14    423.1907      8.8955 307.7681743  +6.6882479     7669.411     12453.85     12858.14     81.47446     162.6893      325.833      1.703     4.74     912.5393     57.47337     1069.934        33     1.658     0.938  53.55  16
        15    964.8877      9.1828 307.5431019  +6.7062012     559.6203      786.254      1032.33     81.47446     162.8191     325.8979      1.455     4.08     897.2714     57.47337     111.3854         6     1.177     0.404  61.48   0
        16    683.0884      8.0016 307.6602247  +6.6973002     7986.722     12244.32     13077.98     80.95386     162.6893     324.4025      1.610     4.73     906.6124     57.47337     1203.439        28     1.552     0.860  54.05  19
        17    686.5031      5.4617 307.6588915  +6.6984623     13448.54     20466.17      21199.9     81.47446     163.1434     303.8771      1.682     4.50     906.4547     57.47337     2178.548        35     1.637     0.893  55.20  19
        18    738.7573      7.6595 307.6371070  +6.6992982     1861.572     2730.841     2975.668     81.73353     163.0786     322.8674      1.644     5.14     905.0505     57.47337     315.9683        15     1.527     0.665  45.33  16
        19    164.9586      7.1347 307.8755173  +6.6803235     509.3294      847.179     1199.125     81.73353     163.0138      319.312      2.747     5.32     924.6286     57.47337     99.79858         6     1.421     0.563  58.35  16
        20    662.7317      4.7023 307.6687935  +6.6979825     3124.937     4679.286      5352.25     81.73353     163.2082     294.9095      1.614     4.39     906.7527     57.47337     535.2466        22     1.523     0.784  54.44  16
        21    201.5157      5.5591 307.8603831  +6.6821998     1134.691     1844.366     2106.167     81.73353     163.0138     304.6067      1.892     5.50     924.6995     57.47337     183.7408        12     1.412     0.603  38.19  16
        22     69.6952      2.2810 307.9152580  +6.6791292     3104.413      4454.33     4727.557     80.69229      143.642     261.1493      1.552     5.39     926.4583     57.47337     523.6495        19     1.434     0.794  44.60  24
        23    952.4730      2.1391 307.5484965  +6.7086951     617.0601     810.3744      1256.42     79.90247     141.5666     258.6685      1.288     4.59     897.6242     57.47337     100.5257         7     1.265     0.473  48.60  24
        24    161.2429      1.2842 307.8772589  +6.6826132     1550.946     1874.716     2414.633     70.48402     128.7404     244.5963      1.124     3.09     924.4722     57.47337      338.315         8     1.071     0.434   7.25  24
        25    205.5620    987.6669 307.8255140  +6.2770323     896.8427     1370.826     1784.273      81.6041     163.0138     326.1572      1.689     5.14     946.0642     57.47337     132.9102        10     1.267     0.758  67.02   0
        26    759.1051   1020.5177 307.5946127  +6.2819667     7470.958     12059.38     12181.85     81.47446     163.4024      292.426      1.723     4.73     939.4232     57.47337     924.4882        34     1.668     0.980  57.95  24
        27    554.6025   1020.9137 307.6794965  +6.2749833     4080.492      6572.64     6961.466     81.08432     161.1224     286.7685      1.731     4.84     943.8187     57.47337     641.7759        26     1.545     0.928  60.86  25
        28    524.7353   1022.2448 307.6918505  +6.2734368     1067.687     1290.336     1089.093     81.73353     149.2715     268.2178      1.407     4.31     944.5778     57.47337     150.1995        14     1.292     0.805  49.22  24
        29    304.6581   1019.7159 307.7832955  +6.2671237     14665.09     23097.47     24301.03     81.73353     163.0786     301.8529      1.706     4.54     946.1374     57.47337     2292.253        44     1.673     0.997  57.76  18
        30    309.2356   1016.9421 307.7814888  +6.2684216     946.2086     1170.187      1534.96      81.6041     163.0786     324.8258      1.859     5.32     946.1157     57.47337     140.3939        12     1.480     0.658  52.56  18
        31     66.2667    986.3322 307.8833832  +6.2729139     2700.099     4175.799     4316.771     81.73353     163.1434     326.0924      1.684     4.73      945.951     57.47337     395.4983        17     1.495     0.728  61.55   0
        32    960.1607    984.3971 307.5123553  +6.3035656     6063.394     10839.93     11720.94     80.82318     162.8191     325.7681      1.883     4.77     933.1779     57.47337     711.7235        36     1.700     1.085  54.96   0
        33    642.0308    978.6144 307.6446239  +6.2953577     720.9157     1016.909     1441.978     81.34463     162.8191     325.9951      1.635     4.91     940.6407     57.47337     143.1602        10     1.538     0.651  72.67   0
        34    933.9628    976.2401 307.5235052  +6.3060609     1916.455      3477.31     3485.481     81.47446     163.0786     325.9303      1.916     5.54     933.9629     57.47337     253.4497        26     1.775     1.013  53.71   0
        35    654.5778    972.0252 307.6396365  +6.2984956      4609.03     7145.934     6950.551     81.21458      162.884     325.9951      1.663     5.00     940.3491     57.47337     671.2678        25     1.515     0.898  57.81   0
        36    266.8132    972.0275 307.8006148  +6.2855377     4252.479      6593.07     6944.955     81.34463      162.884     325.9627      1.619     4.55      946.077     57.47337     687.2974        24     1.507     0.880  56.82   0
        37    793.3205    972.4656 307.5820215  +6.3029378     1336.539     1990.137     2143.498     81.99177     163.2082     326.0276      1.699     5.43     937.0448     57.47337     186.7671        12     1.415     0.588  45.36   0
        38    476.8725    970.3154 307.7134686  +6.2932694     1001.523     1624.386     1527.095     81.86275     163.4024     326.0924      1.686     5.67     944.1078     57.47337     144.2802        16     1.427     0.932  61.79   0
        39     35.5030    969.4490 307.8967246  +6.2788493     2155.114     3621.361     3704.167      81.6041     163.0138      326.222      1.814     4.01     945.8698     57.47337     312.8503        23     1.507     0.971  57.15   0
        40   1003.7327    971.1266 307.4947102  +6.3104910     713.8466     1136.657     952.2995     81.86275     163.2082     326.0276      1.670     3.39      931.436     57.47337      119.246         7     1.012     0.506  25.27   0
        41    886.1417    968.2601 307.5436265  +6.3077635     975.5228     1659.642     1591.552     81.73353     163.0138     326.0924      1.711     5.34     935.0235     57.47337     141.8585        12     1.417     0.617  60.70   0
        42   1010.3175    964.2972 307.4922052  +6.3135284     863.5977     1564.431      1949.11      81.6041     163.4671     326.1248      1.848     6.58     931.2842     57.47337     116.5609        11     1.877     0.648  39.16   0
        43    215.7769    980.5311 307.8215145  +6.2803193      650.891     1089.848     740.5184     81.34463     163.0138     326.0276      1.579     3.93     946.0697     57.47337     113.0002         6     1.287     0.344  61.40   0
        44    579.2545    964.4606 307.6711618  +6.2991045     1573.605     2310.004     2011.259     81.86275     163.0138     326.0276      1.673     5.59      942.005     57.47337     227.1125        16     1.463     0.764  59.64   0
        45    302.7649    965.5502 307.7859086  +6.2894142     813.6995     1272.848     1483.905      81.6041     163.0786     325.9627      1.905     5.89     946.0243     57.47337     113.8645         9     1.244     0.784  79.51   0
        46    618.2765    960.8196 307.6550840  +6.3019092     1310.807     2022.139     1692.005     81.34463     162.7542     326.0276      1.575     4.91     940.9245     57.47337     198.1797        13     1.339     0.696  57.43   0
        47     67.7642    960.8819 307.8836221  +6.2834671     702.7487     1210.959     1875.927     81.73353     163.0786     326.0276      2.345     5.56     945.5599     57.47337     110.4376         7     1.043     0.836 -13.63   0
        48    298.3784    958.5626 307.7879653  +6.2921511     1430.041     2608.747     2971.973     81.34463     162.8191      325.833      1.991     5.43     946.0203     57.47337     215.1747        17     1.613     0.916  57.81   0
        49    765.4769    955.0449 307.5941661  +6.3092000     781.8981     1280.588     1034.867      81.6041     163.1434     326.0924      1.840     6.39     937.3279     57.47337     128.3378        11     1.691     0.678  52.04   0
        50    902.8888    951.2540 307.5372440  +6.3153393     6558.991     11044.02      11068.9     81.73353     162.9489     326.1896      1.777     5.09     934.0135     57.47337     831.3239        33     1.699     0.974  55.32   0
        51    438.7664    948.2775 307.7300306  +6.3010910     2253.571     3480.943     3507.582      81.6041     163.0786     326.0276      1.672     5.16     943.8813     57.47337     339.7936        20     1.465     0.845  54.04   0
        52    607.4385    948.0315 307.6600136  +6.3068253     661.0842     1028.606      1053.15     81.34463     162.8191     325.8979      1.479     3.94     941.1545     57.47337     129.0926         6     1.325     0.335  49.09   0
        53    340.4056    946.7628 307.7709160  +6.2984271     9491.819     15083.84     14820.03     80.82318     162.8191      325.833      1.698     5.16     945.9066     57.47337     1407.528        34     1.603     0.971  53.63   0
        54    260.4936    945.7110 307.8041265  +6.2961867     6973.777     10984.41     11565.87     81.73353     163.5317     326.1248      1.710     4.82      946.014     57.47337     1106.022        31     1.596     0.923  55.57   0
        55    772.6702    940.1118 307.5916811  +6.3156027       582.76     854.5693      328.558     81.86275     163.3377       326.06      1.203     4.23     936.5801     57.47337     109.4938         7     1.480     0.345  65.80   0
        56    588.5262    940.0308 307.6681344  +6.3094961     1137.794     1655.504     1407.692      81.6041     163.0786     326.0924      1.626     4.41     941.5347     57.47337     166.3406        12     1.340     0.608  46.32   0
        57    918.7297    936.9943 307.5311454  +6.3217514     955.0473     1837.434     2768.563     81.21458     162.6893     325.8979      2.231     6.54     933.0339     57.47337     157.2849        16     1.827     0.657  62.50   0
        58    875.0975    935.4338 307.5493129  +6.3209437     595.5802     1010.414     823.1306     81.73353     162.9489     326.1896      1.754     5.23     934.4384     57.47337     100.1171         6     1.600     0.484  49.57   0
        59    150.8470    935.6946 307.8499833  +6.2966474     558.6634     941.4016     515.8211      81.6041     163.0138     326.1896      1.741     3.87      945.376     57.47337      86.1015         6     1.204     0.356  59.45   0
        60    754.7877    929.1044 307.5994751  +6.3195497     1766.288     2812.381     3388.761     81.47446     162.8191      325.833      1.630     4.89     936.9352     57.47337     257.1652        17     1.550     0.749  60.97   0
        61      5.4203    926.5334 307.9106644  +6.2955504     882.2548      1341.52     1283.333     81.34463     163.0786     303.3201      1.621     4.99     945.7581     57.47337     142.6598        10     1.458     0.482  54.57  16
        62    986.3209    925.1006 307.5034814  +6.3289077     1264.795     2302.492     3038.023     81.47446     163.4024     326.0924      1.894     5.39     931.6089     57.47337      169.813        16     1.547     0.781  52.06   0
        63    618.9683    925.5284 307.6559837  +6.3164971     852.4966     1259.829     861.7834      81.6041     163.0786     326.0276      1.467     4.93     940.6716     57.47337     122.1489        10     1.486     0.463  64.91   0
        64    539.9678    925.0392 307.6887986  +6.3140622     1061.888      1798.26     1719.624     81.34463      162.884     325.8654      1.832     6.10     942.2151     57.47337     163.3736        13     1.521     0.860  60.18   0
        65    673.5214    922.7236 307.6334292  +6.3194743     2463.289     3863.086     4183.458     81.99177     163.3377     326.1572      1.712     4.91     938.9075     57.47337     383.1376        20     1.624     0.742  50.31   0
        66     70.1598    918.7535 307.8840521  +6.3009333     2889.023     4857.447     5012.725      81.6041     163.0786     325.8979      1.766     4.92     944.9579     57.47337     410.2604        24     1.587     0.930  62.28   0
        67    834.0649    918.9962 307.5669003  +6.3263619     811.3359     1281.439     1797.537     80.95386     162.8191      325.833      2.009     5.67     934.6348     57.47337     127.0463        11     1.213     0.746  55.20   0
        68    570.3758    919.5382 307.6763593  +6.3173477     529.3898     536.2792     1021.465     81.34463     163.0138     325.9627      1.681     4.59     941.5012     57.47337     69.51855         6     1.260     0.474  45.24   0
        69    951.8053    918.2050 307.5180429  +6.3306061     808.4362     1366.935     1300.235     81.08432     162.8191     325.9303      1.805     5.19     931.8433     57.47337      142.465         7     1.271     0.598  48.17   0
        70    213.5902    917.6863 307.8245442  +6.3061816     2277.762     3411.281     3208.588     81.34463     162.7542     325.8979      1.592     4.44     945.8688     57.47337     389.6494        18     1.401     0.796  48.92   0
        71     87.5424    917.9897 307.8768618  +6.3018315     1970.552     3069.661     3471.058     81.08432     163.0138     325.7681      1.659     4.63     944.7763     57.47337     322.3551        18     1.492     0.757  60.61   0
        72    247.3412    914.2764 307.8106477  +6.3087192     807.9669     1174.229     1068.497     81.86275     163.1434     326.0276      1.631     5.26     945.9733     57.47337     121.1107        10     1.269     0.617  70.72   0
        73    668.0673    911.8447 307.6360593  +6.3237822     7008.708     10968.86     11612.83     81.73353     163.0138     326.0924      1.666     4.73     938.7109     57.47337     1026.053        31     1.583     0.918  51.34   0
        74    352.3327    913.7020 307.7670794  +6.3124702     840.0448      1122.74     1172.773     81.73353     163.2082     326.0924      1.594     5.90     945.3766     57.47337     153.9548         9     1.302     0.752  49.08   0
        75    805.7972    912.5261 307.5788537  +6.3280909     911.9994      1395.93     1616.706     81.21458     162.5592     325.9303      1.891     4.97     934.8842     57.47337     143.5687         9     1.152     0.608  70.64   0
        76     27.9537    909.8463 307.9018746  +6.3031931     1147.596     1913.688     2079.208     81.73353     162.9489       326.06      1.610     5.87     945.2225     57.47337      177.341        12     1.432     0.677  63.54   0
        77    905.8102    908.1054 307.5374781  +6.3332444     2560.351         4165      4427.37     81.34463     162.6893      325.833      1.647     4.94     932.7131     57.47337     336.0934        22     1.517     0.879  56.04   0
