#   1 NUMBER                 Running object number                                     
#   2 X_IMAGE                Object position along x                                    [pixel]
#   3 Y_IMAGE                Object position along y                                    [pixel]
#   4 ALPHA_J2000            Right ascension of barycenter (J2000)                      [deg]
#   5 DELTA_J2000            Declination of barycenter (J2000)                          [deg]
#   6 FLUX_APER              Flux vector within fixed circular aperture(s)              [count]
#   9 FLUXERR_APER           RMS error vector for aperture flux(es)                     [count]
#  12 FLUX_RADIUS            Fraction-of-light radii                                    [pixel]
#  13 FWHM_IMAGE             FWHM assuming a gaussian core                              [pixel]
#  14 BACKGROUND             Background at centroid position                            [count]
#  15 THRESHOLD              Detection threshold above background                       [count]
#  16 FLUX_MAX               Peak flux above background                                 [count]
#  17 ISOAREA_IMAGE          Isophotal area above Analysis threshold                    [pixel**2]
#  18 A_IMAGE                Profile RMS along major axis                               [pixel]
#  19 B_IMAGE                Profile RMS along minor axis                               [pixel]
#  20 THETA_IMAGE            Position angle (CCW/x)                                     [deg]
#  21 FLAGS                  Extraction flags                                          
         1    731.1579     19.8525 307.6452453  +6.6898443     8613.309     11371.94     11449.19       78.325     156.3399     312.4934      1.397     2.98     828.1481     55.07657     1384.195        26     1.239     0.903  73.42   0
         2    451.5833     15.4549 307.7615526  +6.6823086     7527.454     10154.21     10470.73      77.8277     156.2157     312.2137      1.446     2.85     829.9933     55.07657     1049.104        28     1.260     0.973  72.76   0
         3     52.5028     14.9637 307.9273737  +6.6691158     9989.934     13844.39     14193.79       78.325     156.1535     312.6176      1.459     2.95     828.9941     55.07657     1406.499        32     1.276     1.013  74.30   0
         4    698.4129     14.0050 307.6590466  +6.6911646     1146.019     1392.447     1020.099     77.95232     156.0291     312.3381      1.361     3.42     827.9256     55.07657     178.2487        12     1.028     0.823  75.23   8
         5    527.1396     12.3335 307.7302651  +6.6861271     1026.147     1459.274     1115.694     78.44884     156.2156     312.4623      1.506     3.92      828.347     55.07657      171.476        12     1.137     0.765  84.17   0
         6    443.1023     11.0223 307.7652252  +6.6838544     1110.693     1417.658     1785.963       78.325     156.0291     312.2759      1.473     4.19     830.3161     55.07657     167.3982        11     1.062     0.731 -82.01   0
         7    121.6883     10.6410 307.8987759  +6.6732266      2953.67      4132.66     4685.692       78.325     156.2156     312.4934      1.495     3.19     829.2961     55.07657     423.2407        21     1.199     0.932  83.38   0
         8    113.1108      9.6165 307.9023741  +6.6733612     1698.088     2278.031     2437.834     78.07674     156.0291     312.3381      1.398     3.47     829.2274     55.07657     247.3129        14     1.144     0.787  70.67   0
         9    414.3642      8.1515 307.7772618  +6.6840767     2945.473     3894.111     3527.518     78.07674     156.2778     311.4978      1.430     3.10     831.6559     55.07657     396.8766        18     1.134     0.892 -87.70   0
        10    816.4960      9.1371 307.6101462  +6.6971170      834.113     1171.999      817.424     78.20097     156.4019     312.5245      1.515     3.73     827.8895     55.07657     141.5042         6     0.806     0.496  84.43   0
        11    482.3988      8.7768 307.7489736  +6.6860976     686.5419     957.0313     891.5538     77.95232     155.9669     312.2448      1.564     4.47      828.588     55.07657     108.5497         7     1.040     0.545  62.82   0
        12   1009.6323      5.0309 307.5300339  +6.7052506     858.8208     1365.509     1186.753      77.8277     156.0291     286.1947      1.543     4.89     827.0762     55.07657     139.9102        10     1.157     0.787 -40.30  16
        13    675.0667      3.8084 307.6690886  +6.6945940     12606.45     16938.15     17545.02      77.8277     152.8868     271.5403      1.399     2.99     827.5547     55.07657     2010.369        31     1.264     0.970  80.62  24
        14    839.7007      3.4853 307.6006937  +6.7002246      1905.53     2534.458     2848.651       78.325     150.8414     267.4341      1.464     3.45     827.6645     55.07657     250.4844        17     1.178     0.881  86.92  24
        15     93.1449      4.6296 307.9108371  +6.6747486     891.2087     1170.937     1168.952     78.07674     156.3399     281.8199      1.389     2.85     828.9091     55.07657     155.7603         7     0.731     0.681 -43.63  16
        16    552.7330      3.5563 307.7199259  +6.6906071     1643.275      2298.42     2369.701       78.325     150.9058     268.1952      1.558     3.06     827.9858     55.07657     223.9066        14     0.984     0.890  64.67  16
        17    275.1289      1.6574 307.8353292  +6.6820885     5017.993     5880.758     5784.053     72.13139     129.1378     240.4469      1.119     2.51     835.4184     55.07657     1133.582        16     1.010     0.730  11.61  24
        18    910.2941      1.6898 307.5714217  +6.7033201     1308.925     1624.917     1899.304     72.40003     129.8126     241.0114      1.269     3.22     827.5704     55.07657     221.0532         9     0.858     0.736  17.83  24
        19    451.3752      1.4980 307.7621079  +6.6880634     580.0234     621.6578      1132.49     70.22209     126.4796      237.645      1.107     4.34     829.7778     55.07657     113.8707         5     0.966     0.555  42.53  24
        20    348.1471     10.3403 307.8046999  +6.6809534     15264.51     20675.96     21036.67       78.325     156.2156     312.4623      1.450     3.03     836.4174     55.07657     2241.718        40     1.356     1.044  64.13   0
        21    667.0470      1.1634 307.6725094  +6.6954179     1818.952     2128.779     2583.517     65.50177     121.3886     232.2743      0.884     2.10     827.4615     55.07657     643.6617         6     0.820     0.360   6.63  24
        22    436.7500      1.1539 307.7681960  +6.6877156     1720.125      2057.18     2117.732     65.50177     121.1484     232.1071      0.927     2.20     830.4113     55.07657     607.4709         8     1.027     0.360  -1.47  24
        23    939.4589    988.0298 307.5263585  +6.2970796     41488.67     69251.62     73111.76     78.07674     156.2778     312.4002      1.795     3.56     857.2452     55.07657     5003.106        72     1.596     1.387  73.92   0
        24    979.3895   1023.6135 307.5085929  +6.2837184     2177.549     2547.826     2665.144     68.40147     124.7019     235.8409      1.096     2.56     857.4391     55.07657     561.4971        12     1.110     0.589  -2.22  24
        25    754.7647   1022.5197 307.6018862  +6.2766831     1082.002     1294.292     1052.959     78.20097     139.9595      253.151      1.337     4.31     859.6904     55.07657     156.5496        11     1.048     0.802 -67.94  24
        26    739.2303   1023.2097 307.6083124  +6.2758799     2317.526     3011.143     3010.178     72.93436     130.7068     242.3369      1.276     2.89     859.7836     55.07657      385.355        13     0.987     0.813  11.95  24
        27    462.2463   1023.6353 307.7232891  +6.2664479     521.6043     507.8544     426.6063     68.25941     124.5461     235.5526      0.955     3.47     862.1542     55.07657     119.7897         5     0.751     0.464 -12.54  24
        28     12.2840    987.8063 307.9112894  +6.2661491     3324.711     5165.372     5933.247     77.95232     155.9669     312.3381      1.666     3.28     853.3522     55.07657     493.2573        23     1.243     1.044  73.78   0
        29    246.7829    986.3909 307.8139880  +6.2746062      1939.83     2719.838     2996.248     78.07675     156.0291     312.3381      1.538     3.34      858.805     55.07657     272.8448        18     1.199     0.925  72.35   0
        30    645.1376    984.4736 307.6486723  +6.2887304     878.3157     1300.954     1371.096     78.57248     156.2778     312.4623      1.592     5.00     860.0564     55.07657     141.7057        10     1.163     0.784  52.41   0
        31    134.2753    985.0730 307.8607389  +6.2713753     655.0817     1021.581     595.7691     78.57248      156.526     312.5245      1.530     4.51     856.6359     55.07657     111.8223         6     0.900     0.643  52.31   0
        32    785.6605    979.7615 307.5904886  +6.2953667     6803.241     10825.08      12015.8       78.325     156.3399     312.4934      1.780     3.46     858.7925     55.07657     843.7111        45     1.729     1.195 -84.98   0
        33    837.2455    981.7990 307.5690035  +6.2962459     2325.772     3575.713     3582.199     77.70287     156.0291     312.0582      1.589     3.38     858.4659     55.07657     312.4969        22     1.295     0.992  67.66   0
        34    254.9184    978.8708 307.8108633  +6.2779835     1638.971     2514.933     2777.311     78.57248      156.588     312.4934      1.578     3.16     858.8895     55.07657     239.1447        16     1.057     0.958 -44.10   0
        35    219.2454    978.6857 307.8256791  +6.2768636     902.8852     1356.977      1490.23       78.325     156.1535     312.4623      1.568     5.34     857.6581     55.07657     121.0094        10     1.194     0.675 -73.81   0
        36    572.2584    978.7186 307.6791222  +6.2886710     1017.873      1386.09      1532.57       78.325     156.2778     312.4623      1.593     3.23     860.3929     55.07657     160.0318        10     1.001     0.718 -61.43   0
        37    973.7997    974.7038 307.5125454  +6.3037250     6345.113     10736.42     10994.38      77.8277     155.9046     312.0582      1.800     3.73     856.4116     55.07657     726.7049        41     1.468     1.332  61.53   0
        38     79.9209    976.8364 307.8835805  +6.2729504     2851.734     4090.171     4506.932     78.20097     156.3399     312.4623      1.471     3.08     855.3149     55.07657     437.7516        19     1.192     0.892 -85.87   0
        39    230.2107    970.9839 307.8213857  +6.2804109     673.9807     861.2783     1036.936     78.07675     155.9669     312.3381      1.407     5.19     857.7064     55.07657      109.002         9     1.124     0.727  79.29   0
        40    655.8813    969.1373 307.6447252  +6.2954209     884.5891     1193.227      1046.12     78.44884     156.3399     312.4623      1.498     3.90     859.7017     55.07657     120.9844         9     0.958     0.725  80.17   0
        41    947.5544    966.3356 307.5237214  +6.3063058     2062.001      2973.47     2553.038       78.325     156.2156     312.4623      1.602     3.53     856.6686     55.07657     269.4049        18     1.213     0.916  82.30   0
        42    807.2430    963.1188 307.5820842  +6.3029575     1350.356     2040.959     1973.161       78.325     156.2778     312.4313      1.657     4.47     858.2437     55.07657     205.9214        16     1.312     0.891  75.15   0
        43      5.2210    964.5874 307.9150035  +6.2754972     1171.941     1486.428     1678.131     78.07675     155.9669     288.4246      1.450     3.56     852.8524     55.07657     177.2471        12     1.001     0.863 -44.17  16
        44    668.2179    962.3698 307.6398298  +6.2986269     4929.276     6975.736     7286.796     77.95232     156.0913     312.4002      1.514     3.00     859.4998     55.07657     703.1224        23     1.151     1.042  69.69   0
        45    280.4624    962.5692 307.8008064  +6.2855699     5016.366     7197.879      7564.98     78.07675     156.3399     312.4313      1.575     3.03     859.2164     55.07657     685.8179        29     1.268     1.116  69.93   0
        46   1018.0745    961.9781 307.4945874  +6.3104527     733.4474     982.3483     1384.021     77.95232     156.1535      304.278      1.642     5.23     855.3331     55.07657     97.69348         8     1.098     0.705   8.53  16
        47    490.6263    961.0792 307.7136044  +6.2932234     1183.177     1835.077     2144.699     78.20097     156.1535     312.4313      1.680     3.80     860.2375     55.07657     159.3246        13     0.990     0.941  88.83   0
        48     49.2281    960.0711 307.8968867  +6.2788405     2382.835     3365.053     3644.285     78.07674     156.2778     312.4002      1.566     3.47     853.9668     55.07657     322.2678        20     1.228     0.947  80.79   0
        49    899.7834    958.9368 307.5438023  +6.3077691     920.0732     1449.531     1310.599      77.8277     156.2156      312.307      1.588     4.36     857.2007     55.07657     131.3123         7     0.786     0.689  46.44   0
        50    991.9789    957.3714 307.5055758  +6.3114860     567.4874     1016.304     673.9561     77.70287     156.0913     312.3691      1.778     5.06     855.6803     55.07657     121.6986         5     0.987     0.735 -62.95   0
        51    316.3573    955.9240 307.7861276  +6.2895164       841.89     1382.865     1263.867     78.20097     156.2778     312.4934      1.788     4.36     859.5469     55.07657     136.1611         9     1.112     0.624 -86.59   0
        52    972.0950    955.9093 307.5138802  +6.3114276     740.9787     1121.836     1152.379       78.325     156.7739     312.4623      1.549     5.00     856.0264     55.07657     88.39697         9     0.960     0.736 -70.30   0
        53    593.1364    954.9193 307.6712514  +6.2991944     1925.316     3056.323     3539.812     78.44884     156.3399     312.4313      1.751     4.69     859.8847     55.07657     248.4313        21     1.404     1.086  32.60   0
        54    632.1014    951.4857 307.6551890  +6.3019139     1424.577     1836.866     1937.576       78.325      156.712     312.5245      1.442     3.60     859.5456     55.07657     202.1696        13     0.977     0.952 -85.95   0
        55     82.1929    952.3067 307.8834630  +6.2831534     652.3113     1041.213     1416.905     77.95232     155.9669     312.2759      2.023     4.22     854.5953     55.07657     111.7657         5     1.113     0.456   4.05   0
        56    311.8297    948.8723 307.7882441  +6.2922759     1482.421     2043.599     2371.021     78.20097     156.2778     312.4313      1.458     3.55     859.2267     55.07657     222.0144        12     1.059     0.804  79.60   0
        57    579.8402    948.3807 307.6769907  +6.3014494     691.3705      1164.93     957.3922     77.95232     156.0913     312.1826      1.685     5.83     859.8638     55.07657     96.28326         8     1.016     0.943  62.09   0
        58    778.8015    945.4818 307.5944823  +6.3092903      971.277      1441.77     1337.312     77.57785     155.8424     312.2137      1.612     5.53     858.3245     55.07657     109.8834        11     1.227     0.703 -82.07   0
        59    916.4682    941.6379 307.5374525  +6.3154669     7039.195     10984.76     11278.41     78.20097     156.2778     312.5555      1.685     3.33     856.6672     55.07657     874.8716        35     1.356     1.209  69.67   0
        60    154.8347    942.8196 307.8536251  +6.2895090      647.337     953.6935     858.5782      77.8277     156.0913     312.2448      1.650     4.78     856.0573     55.07657     103.1493         7     1.009     0.641   2.69   0
        61    452.4799    938.7328 307.7301910  +6.3011725     2421.777     3357.413     3570.158     78.44884      156.464     312.4623      1.500     3.16     859.7789     55.07657     337.3581        17     1.130     0.880  74.76   0
        62    354.0619    937.2181 307.7711021  +6.2985023     10708.49     15069.27     15621.77     77.95232     156.2156     312.3381      1.479     2.89     859.3253     55.07657     1613.657        34     1.262     1.093  84.67   0
        63    274.1098    936.1736 307.8043305  +6.2962541      7922.59     11119.01     11758.97     78.44884     156.0291      312.307      1.468     2.84     857.9777     55.07657     1221.105        29     1.257     1.039  81.71   0
        64    192.6238    935.2063 307.8381928  +6.2939203     502.4706     626.3127     655.6318      77.8277     156.0913     312.3381      1.225     2.71     856.3066     55.07657      97.3252         5     0.725     0.447 -70.99   0
        65    602.2901    930.5928 307.6682657  +6.3095434     1228.888     2014.741     2197.654     77.95232     155.9669     312.2448      1.856     4.44     859.3265     55.07657     182.0889        13     1.163     0.863  49.96   0
        66    786.3783    930.0064 307.5918538  +6.3159321      718.736     873.7292     1077.918     77.95232     156.0913     312.2759      1.420     4.95     857.9586     55.07657     113.3094         7     1.205     0.575  52.39   0
        67    932.0623    926.8471 307.5314716  +6.3220929     1016.226     1362.801     736.0814     78.20097     156.1535     312.4934      1.365     3.77     856.2284     55.07657     161.0394        10     1.082     0.624  80.85   0
        68    164.7924    926.4102 307.8500431  +6.2966177     768.5966     1131.633     1175.701      77.8277     156.0913     312.3691      1.707     3.17     855.8859     55.07657     148.2776         9     1.001     0.743  82.11   0
        69    888.2749    925.2242 307.5497063  +6.3213039     733.3657      1139.23     552.2978     77.95232     156.0913     312.4002      1.674     5.04     856.4897     55.07657     93.23395         8     1.029     0.698  59.98   0
        70    430.9595    924.8679 307.7395908  +6.3061762     665.4983     986.4839     705.3464     78.20097     156.2156     312.5245      1.564     4.50     859.6289     55.07657     108.9904         7     1.023     0.562  60.63   0
        71    999.3299    921.8272 307.5037093  +6.3264054     661.8546     956.8895      955.358     77.95232     156.1535     312.4002      1.664     5.60     854.7317     55.07657     79.00653         9     1.434     0.617 -79.24   1
        72    768.5236    920.0110 307.5996011  +6.3194631     1778.243     2658.158      2931.17     77.95232     155.9046      312.307      1.489     3.67     858.1664     55.07657      280.881        15     1.151     0.862  51.58   0
        73    861.1534    920.2713 307.5611326  +6.3224448     733.6003       960.67     1098.895       78.325     156.2778     312.4623      1.389     2.81     856.6651     55.07657     116.6681         7     0.832     0.569 -26.88   0
        74    592.2222    920.2676 307.6727915  +6.3134697      655.019     831.6653      486.221     77.95232     156.2156     312.4313      1.508     4.40     859.3243     55.07657     95.21515         5     0.785     0.701 -60.61   0
        75    644.3177    916.2222 307.6512974  +6.3168806      618.815     653.0907     546.1315     78.07675     155.9669     312.3691      1.328     4.99     858.9041     55.07657     81.80829         7     1.009     0.699  83.98   0
        76    632.4830    916.2443 307.6562104  +6.3164761     861.5122     1055.093     1040.744       78.325     156.2778     312.4623      1.466     3.86     858.9788     55.07657     113.9794         9     0.888     0.758  59.31   0
        77    553.9070    915.7126 307.6888521  +6.3140693     1307.902     1773.929     1370.957       78.325      156.712     312.5555      1.417     4.21     859.6582     55.07657     185.8436        14     1.276     0.789  89.13   0
