#   1 NUMBER                 Running object number                                     
#   2 X_IMAGE                Object position along x                                    [pixel]
#   3 Y_IMAGE                Object position along y                                    [pixel]
#   4 ALPHA_J2000            Right ascension of barycenter (J2000)                      [deg]
#   5 DELTA_J2000            Declination of barycenter (J2000)                          [deg]
#   6 FLUX_APER              Flux vector within fixed circular aperture(s)              [count]
#   9 FLUXERR_APER           RMS error vector for aperture flux(es)                     [count]
#  12 FLUX_RADIUS            Fraction-of-light radii                                    [pixel]
#  13 FWHM_IMAGE             FWHM assuming a gaussian core                              [pixel]
#  14 BACKGROUND             Background at centroid position                            [count]
#  15 THRESHOLD              Detection threshold above background                       [count]
#  16 FLUX_MAX               Peak flux above background                                 [count]
#  17 ISOAREA_IMAGE          Isophotal area above Analysis threshold                    [pixel**2]
#  18 A_IMAGE                Profile RMS along major axis                               [pixel]
#  19 B_IMAGE                Profile RMS along minor axis                               [pixel]
#  20 THETA_IMAGE            Position angle (CCW/x)                                     [deg]
#  21 FLAGS                  Extraction flags                                          
         1    676.4922     18.6295 307.6690773  +6.6947061     10785.44     16213.96     17420.27     78.26362     155.6607     311.6316      1.660     4.36     815.7324     54.94653     1882.816        35     1.632     0.875  36.96   1
         2    841.2599     18.1305 307.6006501  +6.7004068     1701.149     2590.053      2625.75     78.26362     155.9088     311.6936      1.570     4.45     815.2805     54.94653     264.7949        19     1.564     0.782  35.09   0
         3    911.5128     16.1388 307.5715333  +6.7035690     1522.196     2507.984     2753.297     78.26362     156.0946     311.7556      1.734     5.01     814.7759     54.94653     262.1071        14     1.370     0.701  38.12   0
         4    668.0707     14.1193 307.6727262  +6.6962873     8776.993     13817.26     15757.08     78.38696     156.2183     311.7556      1.694     4.15     815.6539     54.94653     1475.903        41     1.697     0.979  34.66   1
         5    276.6659     15.4942 307.8352623  +6.6826280     6226.541     10040.31     11430.65     78.14008     156.0327     311.7556      1.817     4.55     824.9557     54.94653     1084.294        41     1.752     1.181  14.88   0
         6    697.9166     13.3881 307.6603528  +6.6975853     7797.062     12448.63     14597.68     77.76827     155.7228     311.5696      1.737     4.30     815.6014     54.94653     1192.478        38     1.759     0.991  37.14   3
         7    701.3391     10.7408 307.6590196  +6.6987925      12708.7      19579.4     21280.88     78.14008     155.8468     311.7556      1.650     4.50     815.5578     54.94653     2242.189        38     1.702     0.888  38.01  19
         8    437.9557     14.1630 307.7683114  +6.6885788     7923.038     12305.53     12748.82      77.8924     155.9088     311.6006      1.588     4.22     818.5866     54.94653     1326.851        33     1.626     0.870  33.79   0
         9    753.6519     13.0089 307.6372133  +6.6996011     1833.945     2612.254     2736.702     77.64394     155.7848     311.4766      1.518     4.09     815.4775     54.94653     311.9914        14     1.356     0.635  37.10   0
        10    677.5034      9.8828 307.6689494  +6.6983513     3028.714     4473.268     6099.976     78.01633     156.2802     311.7866      1.635     4.03      815.536     54.94653     502.6714        20     1.536     0.755  39.22  16
        11    216.9239     10.8329 307.8602335  +6.6825496      1155.38     2065.242     2105.232     78.01633     155.9088     311.6936      2.068     6.81      819.686     54.94653     162.8772        17     1.728     0.842  15.73  16
        12     84.2429      7.1891 307.9154663  +6.6796014      3123.58     4899.915     5578.483     77.64394     155.7228     305.3683      1.682     4.76     817.3903     54.94653     477.9613        22     1.572     0.785  34.02  16
        13    966.6996      6.5960 307.5489262  +6.7093462      873.702     1336.201     1585.053      77.8924     155.6607     300.8422      1.751     4.74     813.8484     54.94653     148.6683         8     1.366     0.467  38.45  16
        14     65.3421      6.3339 307.9233456  +6.6793196     390.6226     506.3433      335.547     78.26362     155.8468     298.8122      1.424     4.24     816.6169     54.94653     80.38287         5     1.256     0.408  52.63  16
        15    174.8998      4.6663 307.8778958  +6.6836861     4841.609     7706.639      8478.93     78.14008     156.0327     281.6008      1.684     4.39     819.5554     54.94653     710.7889        29     1.714     0.853  33.90  16
        16    802.0671      3.1401 307.6174309  +6.7052902     1087.896     2164.694     2421.443     78.26362     146.7803     261.8685      2.244     5.83     814.8323     54.94653     148.4161        17     1.757     0.886  27.63  24
        17    909.5988      1.6374 307.5728117  +6.7094930     1599.287     2082.693     2468.661     71.28664     128.0808     239.1128      1.340     3.37     814.2954     54.94653     276.8795        12     1.129     0.655  16.62  24
        18    656.1804      1.2679 307.6780947  +6.7011966     614.8544     724.9278      563.906     66.95365     122.8445     233.3876      0.991     1.73     815.4477     54.94653     207.5267         5     0.711     0.394  19.97  24
        19    246.7200      1.2723 307.8481779  +6.6874961     781.3198     974.5354     524.1387     67.38515     123.2371     233.6359      1.186     3.58     822.0225     54.94653     157.9878         6     0.991     0.404  11.87  24
        20    220.9798    993.3544 307.8256057  +6.2770098     688.7611     1279.373     1040.669     77.76827     155.8468     311.5696      1.958     6.69     845.0914     54.94653     103.2034         9     1.231     1.021  39.96   0
        21    835.0616   1023.4264 307.5697241  +6.2851033     526.9159     947.2397     1236.311     70.74246     127.4001     238.3438      2.041     4.56     843.2283     54.94653     94.36676         6     0.879     0.671  27.47  24
        22    773.2852   1023.7299 307.5953552  +6.2829203     1934.871     2631.437     2781.376     67.24163     123.1587     233.6359      1.253     3.70     843.9399     54.94653      476.178        12     1.388     0.444   0.03  24
        23    566.8710   1018.5632 307.6812013  +6.2781690     7339.137     12560.08     14478.56     78.01634     155.9088     299.8128      1.938     4.26     847.3823     54.94653      940.001        44     1.780     1.172  40.05  18
        24    324.4809   1022.7545 307.7816642  +6.2683361     885.3379     1221.127     1497.485     77.14462     136.7628     249.0479      1.714     4.69     848.1105     54.94653     118.1891         8     0.925     0.727  -1.98  27
        25    318.8425   1023.6044 307.7839759  +6.2677965     5226.774     7278.788     8334.319     68.38139     124.4851     235.3662      1.376     3.85     848.2202     54.94653     1131.013        21     1.642     0.667  -1.51  27
        26    291.3146   1022.5505 307.7954363  +6.2673102     875.2097     1203.089     1116.416     78.14008     139.2827     252.1322      1.509     4.30     848.6118     54.94653      139.317         9     1.113     0.696  25.28  24
        27     81.2950    991.7871 307.8836323  +6.2729741      2421.89     4186.126      4038.49      77.8924     155.6607     311.5696      1.828     4.95     842.9028     54.94653     300.2932        25     1.643     0.920  27.58   0
        28    975.3231    989.5578 307.5126323  +6.3037556     5342.426     10148.56     11437.56     78.01634     155.9088     311.7556      2.059     4.69     841.7163     54.94653     597.1176        48     1.856     1.281  36.05   0
        29    231.8252    986.0113 307.8213504  +6.2804050     517.3533     811.3753     911.9623     77.76827     155.7228     311.6316      1.655     3.90     845.1683     54.94653     73.37018         6     0.940     0.463  52.79   0
        30    949.0078    981.4666 307.5238244  +6.3062214     1549.458     3269.234     3943.927     77.64394     155.6607     311.5696      2.244     5.64     842.4351     54.94653     215.9094        26     1.696     1.194  49.80   0
        31    809.0172    978.1198 307.5820433  +6.3029436     1197.477     2015.939     2284.771     77.76827     155.5986     311.6316      1.831     4.56     843.3242     54.94653     156.9519        15     1.246     0.865  36.61   0
        32    669.7932    977.3163 307.6398586  +6.2986348     4023.946     6861.539     7236.894     77.76827     155.5986     311.6006      1.809     4.31     846.3909     54.94653     522.8026        32     1.617     1.059  34.49   0
        33    281.8788    977.5727 307.8008584  +6.2855656     4037.097     6860.214     7234.936     78.01634     155.8468     311.7246      1.825     4.58     846.2543     54.94653     507.9534        33     1.687     1.028  30.25   0
        34   1018.6512    976.5195 307.4950809  +6.3105799     546.7152     967.6843     1077.618     78.14008     155.9707     298.9091      1.848     4.88     840.4059     54.94653     70.14624         6     0.968     0.697  68.74  16
        35    491.8621    975.7510 307.7137644  +6.2933411     1027.049     1773.385     1665.535     78.14008     155.8468     311.7866      1.936     6.04     847.2559     54.94653     139.5645        13     1.405     0.729  43.59   0
        36     50.6320    975.0648 307.8969196  +6.2788498     1830.306     3204.623     2987.468      77.8924     155.9088     311.6936      1.810     4.81     841.8809     54.94653      225.525        24     1.598     0.958  30.02   0
        37    902.0794    973.9398 307.5435540  +6.3077680     776.1564     1324.445      925.967     78.26362     155.9088     311.6626      1.780     6.19     843.0574     54.94653     120.0212        11     1.402     0.840   9.10   0
        38    594.3969    969.8011 307.6714042  +6.2992221     1498.611     2257.402     1837.406     77.51942     155.4744     311.4766      1.581     4.51     846.9891     54.94653     225.6081        17     1.358     0.834  38.71   0
        39      7.3065    979.8361 307.9147409  +6.2754256     1013.324     1468.919     1651.286     78.26362     155.7848     306.4421      1.503     3.05     841.3422     54.94653     156.8936         9     0.910     0.645  19.61  16
        40    633.5662    966.2142 307.6552658  +6.3020104     1057.961      1816.97     2056.853     77.76827     155.6607     311.6006      1.877     5.86     846.6227     54.94653     128.6124        15     1.363     0.840  48.61   0
        41     83.2514    966.7252 307.8836612  +6.2833876     657.7618      1233.89      1577.12     78.14008     155.9707     311.7246      2.014     3.41      842.134     54.94653      109.177         5     0.954     0.352  42.86   0
        42    313.3691    964.0532 307.7882409  +6.2922019     1258.472     2000.332     2084.066     78.01633     155.9707     311.6316      1.636     5.07      846.107     54.94653     186.9983        17     1.591     0.716  34.53   0
        43    317.7907    971.1410 307.7861684  +6.2894234     724.8536     1102.748     1290.935     77.51942     155.7848     311.4456      1.821     4.85     846.4202     54.94653     107.0751         9     1.031     0.647  19.23   0
        44    780.8936    959.9084 307.5943236  +6.3095264     771.9348     1169.694     1312.379     78.14008     156.4037     311.7246      1.524     5.31     843.8748     54.94653     105.7524        10     1.218     0.672  38.55   0
        45    156.3174    958.7363 307.8536036  +6.2891364     488.8859     591.3128     105.6874     78.26362     156.0327     311.7556      1.270     3.40     843.1417     54.94653     82.15991         5     1.171     0.285  34.81   0
        46    917.8745    956.4632 307.5375792  +6.3155099     5849.352     10600.96     11680.24     78.38696     155.9088     311.6936      1.966     4.48     842.6921     54.94653     674.4778        43     1.853     1.174  29.48   0
        47    453.9013    953.8419 307.7302528  +6.3011189     1826.917     2823.251     2716.548     78.14008     155.7848     311.9415      1.663     4.35     847.0457     54.94653     271.4715        17     1.442     0.761  29.75   0
        48    355.4347    952.1857 307.7711783  +6.2985098     8628.874      14300.5     15318.47     77.76827     155.6607     311.6006      1.818     4.30     846.5113     54.94653     1177.618        43     1.749     1.057  31.79   0
        49    275.5840    951.1585 307.8043556  +6.2962612     6525.165     10572.95     11493.63     77.64394     155.6607     311.5076      1.768     4.00     844.8913     54.94653      847.743        32     1.615     0.956  33.06   0
        50    603.8415    945.3171 307.6683013  +6.3096470     972.2658     1544.816     1533.734     78.14008     155.9088     311.6626      1.579     4.49     846.8497     54.94653     146.1819        13     1.338     0.697  41.95   0
        51    788.4763    945.1895 307.5916665  +6.3158567     549.7076     860.5712     706.1327     77.76827     155.5365     311.5386      1.656     4.41     843.7488     54.94653     81.16003         7     1.080     0.513  40.52   0
        52    933.5673    941.6989 307.5315565  +6.3221285     1023.556     1944.886      2948.38     78.14008     155.7848     311.8486      2.700     6.83     842.2252     54.94653     136.5542        15     1.561     0.839   5.40   0
        53    166.6217    941.9753 307.8498887  +6.2964024     642.0751     908.6669     1146.895     77.76827     155.7228     311.6936      1.598     4.14     842.8796     54.94653     105.6965         7     0.972     0.628  68.29   0
        54    890.6850    940.7700 307.5493876  +6.3210851     677.6893     1100.783     1511.518     78.14008     155.7228     311.6006      2.071     5.66     842.8802     54.94653     97.49408         7     1.234     0.732   6.87   0
        55    432.3756    940.3795 307.7396376  +6.3059579     680.4338     963.5638     1223.323     77.76827     155.7228     311.6936      1.500     4.96     846.9438     54.94653     103.8431         7     0.993     0.701 -52.95   0
        56    770.0338    934.6992 307.5996713  +6.3195738     1436.959     2466.179     2774.426     78.14008     155.7848     311.8795      1.795     4.83     844.1846     54.94653     214.0076        16     1.419     0.742  29.78   0
        57    593.6249    935.1818 307.6728803  +6.3134910     752.1964      1263.94     1008.014      77.8924     155.7848     311.6626      1.745     4.32     846.8502     54.94653     127.1972         7     1.202     0.441  21.75   0
        58    634.7715    931.5776 307.6559213  +6.3163524     840.6382     1199.338     782.0192     77.64394     155.7228     311.6006      1.397     4.08     846.3289     54.94653     138.0686         8     1.015     0.740 -75.76   0
        59     20.5663    931.9488 307.9108453  +6.2956429     937.3194     1271.835       1209.5     78.01633     155.9088     311.6316      1.637     6.38     840.0165     54.94653     139.8372        11     1.410     0.811  23.45   0
        60   1001.0608    930.0040 307.5039289  +6.3292022     1007.782     2000.116     3008.468     77.51942     155.7228     311.4456      2.101     5.37     841.0213     54.94653     143.7942        14     1.594     0.703  36.38   0
        61    555.5340    930.5859 307.6888446  +6.3141169     1139.298     1644.348     1911.243     77.64394     155.7848     311.6626      1.525     4.59     846.9629     54.94653      158.288        13     1.300     0.693  40.66   0
        62    688.5536    927.8404 307.6337216  +6.3196896     2146.964     3370.319     2971.671     78.01634     155.9088     311.5696      1.728     4.09      845.424     54.94653      329.121        24     1.718     0.887  42.33   0
        63     85.1214    924.1984 307.8843118  +6.3010093     2470.852     4644.535     5026.833     77.51942     155.3501     311.5076      1.967     4.73     840.8521     54.94653     333.1131        29     1.556     1.165  51.93   0
        64    849.8456    924.6592 307.5668763  +6.3263779     726.0445     1186.099     1375.474     78.01634     155.9088     311.8176      1.656     4.21     843.3156     54.94653     116.7205         8     1.106     0.549  19.89   0
        65    102.5948    923.4734 307.8770838  +6.3018948     1807.911     3006.558     3816.959     77.76827     155.4744     311.6316      1.852     4.91     841.1457     54.94653     222.2662        20     1.564     0.823  36.85   0
        66    228.9390    923.1985 307.8246526  +6.3062435     2116.901     3483.568     3527.754     77.51942     155.7228     311.4456      1.723     4.40     843.3495     54.94653     283.2187        21     1.555     0.820  36.97   0
        67    965.7122    923.1102 307.5188314  +6.3308733     639.0597     1136.247     1489.032      77.8924     156.4037     311.8176      1.833     5.34     841.4438     54.94653     109.9633         8     1.480     0.644  18.13   0
        68    985.4293    921.1687 307.5107114  +6.3323307     582.1234     852.9301     1249.812     77.64394     155.6607     311.4766      1.603     5.87        841.1     54.94653     94.09393         8     1.154     0.931  -6.97   0
        69    683.1882    917.2298 307.6363027  +6.3238919     6250.782     10267.12     11166.91     77.64394     155.6607     311.6006      1.728     4.31     845.2736     54.94653     843.2751        33     1.612     1.018  36.94   0
        70    367.4827    919.1816 307.7672819  +6.3125402     879.6593     1491.996     1910.868     77.76827     155.5986     311.6936      1.656     5.58      845.941     54.94653     119.7671        10     1.393     0.630  33.83   0
        71    263.3066    920.3787 307.8104823  +6.3085590     766.1517     939.3433      846.882     78.01634     155.7228     311.5386      1.243     3.02     843.6822     54.94653     137.3101         7     0.941     0.471  -8.09   0
        72    820.7979    917.9980 307.5791558  +6.3281611     704.6774     1311.098     1319.622     77.51942     155.4744     311.4145      1.884     5.28      843.416     54.94653     106.9681         8     1.161     0.678  -5.64   0
        73     43.2735    915.5152 307.9019723  +6.3031903     1015.617     1652.034     1425.126     78.26362     156.2183     311.7556      1.861     6.43     840.0386     54.94653     136.1614        15     1.405     0.825  31.45   0
        74    921.1329    913.2190 307.5376656  +6.3334746     2416.645     4233.507      4619.03     77.76827     155.9088     311.6316      1.874     4.50      842.115     54.94653     324.7041        24     1.510     0.987  36.97   0
        75    472.4493    915.2728 307.7238432  +6.3176641     570.0468     853.0429     751.9911     78.14008     155.9707     311.7556      1.231     3.33     846.3383     54.94653     94.81781         5     0.723     0.466  71.65   0
        76     56.4602    914.1011 307.8965466  +6.3042167     1029.108     1498.962     1628.486      77.8924     155.8468     311.8486      1.613     5.61      840.205     54.94653     145.7731        13     1.478     0.673  46.80   0
        77    366.1590    910.3887 307.7681255  +6.3161266     14915.75     24457.14     26536.95     77.51942     155.7228     311.4456      1.757     4.43     845.6227     54.94653     2245.015        50     1.760     1.061  29.49   0
