#   1 NUMBER                 Running object number                                     
#   2 X_IMAGE                Object position along x                                    [pixel]
#   3 Y_IMAGE                Object position along y                                    [pixel]
#   4 ALPHA_J2000            Right ascension of barycenter (J2000)                      [deg]
#   5 DELTA_J2000            Declination of barycenter (J2000)                          [deg]
#   6 FLUX_APER              Flux vector within fixed circular aperture(s)              [count]
#   9 FLUXERR_APER           RMS error vector for aperture flux(es)                     [count]
#  12 FLUX_RADIUS            Fraction-of-light radii                                    [pixel]
#  13 FWHM_IMAGE             FWHM assuming a gaussian core                              [pixel]
#  14 BACKGROUND             Background at centroid position                            [count]
#  15 THRESHOLD              Detection threshold above background                       [count]
#  16 FLUX_MAX               Peak flux above background                                 [count]
#  17 ISOAREA_IMAGE          Isophotal area above Analysis threshold                    [pixel**2]
#  18 A_IMAGE                Profile RMS along major axis                               [pixel]
#  19 B_IMAGE                Profile RMS along minor axis                               [pixel]
#  20 THETA_IMAGE            Position angle (CCW/x)                                     [deg]
#  21 FLAGS                  Extraction flags                                          
         1    616.9893     27.8213 307.6806006  +6.6761914     2396.906     5376.866     6634.948     87.91272     175.9658     352.2122      2.452     6.89     1077.307     62.11401     294.2384        38     2.070     1.298  84.33   0
         2    685.7927     18.5212 307.6523066  +6.6823276     1203.591     2305.784     2031.405     87.91272     175.6849     352.1421      1.897     6.49     1076.277     62.11401     154.5879        18     1.484     0.966 -70.61   0
         3    174.1869     11.4929 307.8652546  +6.6681204     7629.043     15657.13     16297.38     88.05305     175.9658     352.1771      2.095     4.83     1103.215     62.11401     861.1169        48     1.747     1.435 -67.75   0
         4    518.5261      9.6182 307.7221529  +6.6804202       2076.5         4206     4504.876     87.77217     176.1762     352.2823      2.064     5.29     1079.179     62.11401     232.4102        31     1.585     1.344 -53.39  16
         5    919.6577      8.8331 307.5553931  +6.6941190     3747.972     5677.002      5912.91     88.19315     176.3163     352.3173      1.647     3.45     1067.752     62.11401     457.2592        23     1.214     1.091 -65.99   0
         6    456.7793      7.6370 307.7478927  +6.6791746     1315.005     2816.646     3225.266     87.91272     175.9658     348.4767      2.169     6.79     1081.814     62.11401     159.0931        22     1.679     1.168 -35.18  16
         7    720.5945      7.2667 307.6382152  +6.6881357     1375.688     2717.022     2626.436     87.77217     175.8956     345.8808      2.030     5.90     1073.507     62.11401      167.813        20     1.309     1.271 -42.88  16
         8    984.4030      5.1708 307.5285949  +6.6977849     1776.158     2827.022     2749.928     87.77217     175.9658     324.5562      1.638     4.09     1061.521     62.11401     249.5277        20     1.376     0.931 -80.78  16
         9    703.9042      2.3382 307.6453208  +6.6896144     5545.741     8185.361     8512.837     87.49039     155.9544     282.9782      1.631     4.22     1074.452     62.11401     628.6038        26     1.355     1.086 -24.32  24
        10    624.1900      1.9224 307.6784791  +6.6871267     2379.778     3515.261     3333.544     83.74111     149.1564     275.6407      1.536     4.46     1076.327     62.11401     315.7383        16     1.277     0.885 -22.01  24
        11    706.7059   1007.9622 307.6103374  +6.2744214     1157.741     1882.118     2756.494     88.47268     176.1061     352.5275      1.870     4.48     1128.956     62.11401     171.3987         8     0.858     0.665 -54.88   0
        12    886.8025   1022.2122 307.5350364  +6.2745325      1693.62     2214.363     2194.076     87.91272     161.3243     290.1302      1.364     3.18     1126.682     62.11401     265.8127        12     1.078     0.687 -87.05  24
        13    788.9733   1023.6916 307.5756306  +6.2706659     2571.091     2989.545     3236.011     76.49863     139.2241     264.5327      0.971     2.01     1126.882     62.11401     797.0931        10     0.919     0.521   4.58  24
        14    579.6289   1021.3264 307.6626823  +6.2646653     75362.98       111457     116263.4     88.19315     171.3446     304.2547      1.597     3.27     1132.888     62.11401     10485.23        74     1.506     1.242 -60.59  24
        15    236.8922   1007.3372 307.8055396  +6.2589881     1377.932     2019.472     1686.482     88.33302     176.3863     352.4575      1.575     3.51     1133.362     62.11401      209.775        13     1.030     0.883 -69.40   0
        16    435.3556   1006.0029 307.7231357  +6.2661764     714.7347     1132.032     1089.751     87.63139     175.7552     352.0018      1.464     4.07     1132.578     62.11401     119.0206         7     1.267     0.374 -75.71   0
        17    727.8627   1004.7626 307.6016551  +6.2764476      1134.08     1379.965     866.7732     88.33302     176.3163     352.3874      1.409     4.73     1127.854     62.11401     187.1532         9     1.026     0.618 -57.01   0
        18    358.5524   1003.0379 307.7551428  +6.2648338     1935.224     2960.099     3188.162     88.19315     176.2462     352.2823      1.614     4.39     1133.461     62.11401     222.8829        16     1.290     0.860 -41.39   0
        19    540.9502    993.1332 307.6797001  +6.2750173     4069.794      6417.19     6921.678     88.19315     176.1061     352.3173      1.696     3.57     1131.725     62.11401     590.9124        27     1.424     1.040 -77.11   2
        20    538.1006    985.2888 307.6811480  +6.2781617     8177.583     12567.49     13618.75     88.33302     176.7359     352.3524      1.667     3.54     1131.418     62.11401     1052.932        34     1.473     1.079 -70.61   2
        21    745.4114    992.5231 307.5947755  +6.2820867     8363.027     12104.46     12771.99     87.91272     175.8254     352.2122      1.570     3.11     1126.773     62.11401     1125.028        35     1.358     1.091 -72.83   0
        22    511.4363    994.4975 307.6919157  +6.2734687     1043.292      1579.72     1409.128     88.33302     176.1061     352.5625      1.663     3.54     1131.832     62.11401     163.3765         9     1.070     0.617 -61.81   0
        23    291.1606    991.9281 307.7835147  +6.2671675     14529.99     22703.63     24830.57     88.19315     176.2462     352.4575      1.706     3.38     1133.383     62.11401     1952.565        56     1.786     1.231 -50.52   0
        24    806.3920    992.0280 307.5694568  +6.2843219     1128.044     1829.206     2001.713     87.91272      176.036     352.1771      1.536     4.31     1125.292     62.11401     174.1372         9     1.081     0.619 -51.25   0
        25    415.2986    992.2958 307.7319301  +6.2711667     868.5652     1288.185     1723.835     88.33302     176.8058     352.2122      1.539     5.33     1132.417     62.11401     128.0983        11     1.195     0.846 -65.93   0
        26    262.5567    989.3204 307.7954859  +6.2672872      946.134     1430.858     1094.141     88.33302     176.2462     352.3524      1.615     3.99     1133.264     62.11401     147.6953         8     1.020     0.653 -57.24   0
        27    906.6697    985.9441 307.5279986  +6.2901710     9897.479     13977.75     14504.49     88.33302     176.1061     352.3524      1.470     2.99     1123.894     62.11401     1617.873        36     1.394     1.023 -72.96   0
        28    880.3400    982.0617 307.5390682  +6.2908985     13433.76        19549     20871.22     88.33302     176.2462     352.4224      1.533     3.03      1124.28     62.11401     2050.264        44     1.444     1.158 -63.51   0
        29    592.9965    982.6891 307.6584286  +6.2810671     1348.846     2316.879     2423.719     87.77217     175.8956     352.0369      1.833     4.85     1131.291     62.11401     190.2748        13     1.208     0.759 -87.27   0
        30   1002.0909    981.4243 307.4885051  +6.2952095     5558.025     7635.344     7101.123     88.47268      176.036     352.2122      1.432     2.76     1121.658     62.11401     886.8822        26     1.227     0.939 -69.62   0
        31    524.7642    981.0205 307.6868323  +6.2794791     4089.273     6463.639     7195.659     87.77217      176.036      352.107      1.743     3.63     1131.314     62.11401     551.6575        28     1.454     1.143 -20.41   0
        32    634.3771    980.3035 307.6413168  +6.2834324     1460.565     2271.875      2132.97     88.33302     175.9658     352.1771      1.624     4.12     1130.175     62.11401     206.8358        16     1.179     1.013  59.06   0
        33     59.6698    979.9059 307.8800896  +6.2643780     744.0872     1100.219     788.7285     88.19315     176.3163     352.3874      1.497     3.50      1133.24     62.11401     131.0839         5     0.804     0.439  75.44   0
        34    477.7479    977.7908 307.7064742  +6.2792430     2023.766      3313.79     3093.901     87.77217     176.1061      352.107      1.706     3.81     1131.432     62.11401     291.1644        19     1.332     0.903 -64.02   0
        35    912.0792    969.6429 307.5262978  +6.2970828      48335.5     68538.19      71622.2     88.33302     176.2462     352.3524      1.506     3.03     1122.666     62.11401     7251.584        62     1.450     1.161 -65.34   0
        36    219.5376    968.1771 307.8140714  +6.2745783     1790.248     2807.709      3365.41     87.91272     176.2462     352.2823      1.754     3.75     1132.754     62.11401     239.6538        16     1.202     0.860 -69.39   0
        37    618.5481    966.3704 307.6483618  +6.2886584     804.1262     1187.292     772.5378     88.05305     176.3863     352.2823      1.670     4.90     1130.104     62.11401     117.0154         8     0.986     0.689  86.85   0
        38    107.7702    966.9097 307.8605466  +6.2713573     790.4269     1120.102     669.3652     88.47268     175.9658     352.3173      1.472     4.31      1131.93     62.11401     135.9628         6     0.815     0.648 -19.92   0
        39    809.9856    963.4843 307.5689220  +6.2962292     2490.171     3603.222     3344.233     87.91272     175.9658     352.2472      1.578     3.32     1124.046     62.11401     386.5648        24     1.388     0.979 -63.41   0
        40    758.2075    961.2092 307.5905109  +6.2954446     6973.107     10656.47     11690.61     87.63139      176.036     352.2472      1.649     3.24     1125.176     62.11401     935.1499        35     1.505     1.048 -65.90   0
        41    227.7702    960.4454 307.8109123  +6.2780467     1445.922     2145.724     1913.524     87.91272     176.2462     352.2472      1.532     4.85     1132.743     62.11401      195.217        15     1.367     0.798 -63.64   0
        42    544.9722    960.8821 307.6791146  +6.2884701      750.468     1048.487     615.8474     88.19315      176.036     352.3173      1.477     4.20     1130.427     62.11401     121.5667         6     0.888     0.713 -46.34   0
        43    192.3342    960.7021 307.8256253  +6.2767542     772.3182      1201.87     1655.381     88.33302     176.3163     352.4224      2.175     3.67     1132.318     62.11401     121.6028         7     0.992     0.848 -73.93   0
        44    946.4515    956.3258 307.5124633  +6.3037253     7908.981     10903.16     11459.45     88.33302     176.3163     352.4224      1.481     2.95      1120.83     62.11401     1159.706        32     1.346     0.998 -65.28   0
        45     52.8602    958.8618 307.8836302  +6.2728397     2605.831     4050.597     4074.878     88.33302     176.2462     352.4224      1.621     3.66     1133.063     62.11401     351.8571        22     1.270     1.062 -77.85   0
        46    920.1144    948.2514 307.5236767  +6.3061841     2371.975     3335.052     3760.234     88.33302     176.1762     352.4925      1.472     3.10     1120.887     62.11401     362.0533        19     1.173     0.947 -72.88   0
        47    253.1279    944.3408 307.8009212  +6.2855461     4215.003     6705.956     6776.359     88.47268     176.2462     352.3524      1.710     3.66     1132.813     62.11401     505.2983        31     1.439     1.137 -84.41   0
        48    779.8410    944.5599 307.5820818  +6.3030407     1460.552     2173.819     2554.521     88.05304     176.2462     352.2472      1.622     3.65     1123.965     62.11401     243.2831        14     1.136     0.852 -51.08   0
        49    640.9160    944.0584 307.6398189  +6.2986184     4521.383      6923.25     6409.682     88.33302     176.2462     352.4575      1.560     3.38     1127.911     62.11401     608.9501        26     1.385     0.991 -62.40   0
        50    990.3335    943.6654 307.4946553  +6.3104122     756.4293     1148.433     962.8287     88.33302     176.2462     352.4224      1.749     4.19     1118.954     62.11401     106.6122         7     1.093     0.458 -60.49   0
        51    463.0140    942.5759 307.7137817  +6.2932932     973.3652     1362.582     1312.802     88.05304      176.036     352.3173      1.543     5.79     1130.587     62.11401     138.6207        14     1.376     0.937 -70.36   0
        52     21.9504    942.0140 307.8970411  +6.2787601     2208.206     3326.914      3556.11      87.6314     176.1762     352.0719      1.524     3.79     1133.274     62.11401     293.8009        19     1.262     0.955 -74.23   0
        53    872.5385    940.6697 307.5436981  +6.3077327     1000.608     1183.712      826.532     88.47268     176.2462     352.4224      1.288     3.80     1121.931     62.11401     174.1254         8     1.046     0.498 -88.66   0
        54    964.5949    938.2584 307.5055306  +6.3117897     781.4025     1130.226     936.7277     87.77217     176.1061     352.1421      1.429     2.61     1119.052     62.11401     114.1798         5     0.702     0.463 -72.05   0
        55    565.6627    936.6630 307.6713335  +6.2991622     1743.998      2494.15     2660.877     88.33302     176.2462     352.4224      1.632     4.14     1129.407     62.11401      187.012        18     1.199     1.010 -69.27   0
        56    289.3183    937.7723 307.7861075  +6.2894698     848.4139     1296.342     1044.031     88.19315      176.036     352.3173      1.615     5.74      1133.19     62.11401     112.5348         9     1.070     0.868 -51.61   0
        57    996.8625    935.9683 307.4922005  +6.3138079     836.3856     1550.971     1632.949     88.05304     176.3163     352.3524      1.647     6.15      1118.16     62.11401     155.6218        12     1.658     0.711 -69.38   0
        58    604.8005    932.8015 307.6552026  +6.3020627      1172.46     1676.354     1260.723     87.63139     175.7552     352.0369      1.383     3.98     1129.133     62.11401     182.8761        11     1.111     0.702  85.91   0
        59     55.0087    933.2142 307.8836051  +6.2835028     781.0322     1337.559     1701.403     88.05304     175.9658     352.2823      2.019     4.93     1132.508     62.11401     137.5111         7     1.012     0.679  -2.05   0
        60    284.9333    930.8266 307.7881636  +6.2921913     1347.473     1978.335     2769.977     87.91272     176.1061     352.2823      1.644     4.97     1133.113     62.11401     159.1334        14     1.192     0.867 -50.96   0
        61    751.4863    926.8553 307.5944574  +6.3094078      965.205     1510.446     1861.299     88.33302     176.1762     352.5625      1.753     4.00     1124.024     62.11401     141.1227         7     0.907     0.639 -38.08   0
        62    127.5564    926.1658 307.8537038  +6.2888457     490.4596     914.4725     869.8669     88.05304     176.2462     352.2122      1.944     4.80     1131.913     62.11401     100.7567         5     1.073     0.608 -25.01   0
        63    889.0392    923.3161 307.5374244  +6.3154481     7693.142     10970.17     11062.53     88.33302     176.1762     352.3173      1.504     3.03     1120.377     62.11401      1167.73        28     1.291     1.014 -71.40   0
        64    425.0709    920.5168 307.7302891  +6.3011350     2169.744     3159.668     3594.605     88.61211     176.5262     352.4224      1.567     3.58     1130.646     62.11401     263.2563        18     1.182     0.981 -89.58   0
        65    326.7253    919.0041 307.7711995  +6.2984717     8686.383     13949.04     14967.27     87.91272     175.6849     352.2823      1.728     3.63       1132.5     62.11401     1098.366        36     1.487     1.134 -76.27   0
        66    246.8430    917.9312 307.8044238  +6.2962417     6658.722     10789.62     10952.18     88.33302     176.1762     352.4575      1.690     3.54     1132.538     62.11401     774.3273        37     1.469     1.212 -81.84   0
        67    575.1599    912.5381 307.6681994  +6.3094418      1082.84     1441.734     1089.828     88.33302     176.2462     352.4575      1.468     4.63     1128.048     62.11401     155.7104        12     1.245     0.750 -82.01   0
        68    759.2254    911.8029 307.5917475  +6.3158817     720.7424       764.74     656.3605     87.91272     175.8956     352.1771      1.434     4.80     1123.273     62.11401     101.0002         8     1.182     0.552 -71.40   0
        69    904.9191    908.3008 307.5313301  +6.3221772     1111.388     1361.828     1571.832     88.33302     176.7359     352.4925      1.334     3.30     1119.243     62.11401     169.6479        11     1.013     0.706 -72.21   0
        70    137.3923    908.1316 307.8502270  +6.2966225     668.5143     722.5339     953.3802     87.77217     175.9658     352.2823      1.340     4.99     1131.819     62.11401     99.10193         6     1.143     0.616 -13.10   0
        71    861.2077    907.3647 307.5495235  +6.3211096     714.2697     1057.059     336.2199     87.77217      176.036     352.1421      1.561     2.64     1120.556     62.11401     115.3031         5     0.715     0.455  16.58   0
        72    972.1174    904.0982 307.5035501  +6.3261470     808.4113     1224.776     1991.938     88.33302      176.666     352.4925      1.555     3.99     1116.752     62.11401     126.2217         6     0.949     0.479 -50.31   0
        73    741.1882    901.4810 307.5995886  +6.3195435     1638.661     2316.699     2884.826     87.91272     175.8956     352.2122      1.553     4.15     1123.272     62.11401     242.5896        14     1.173     0.820 -73.12   0
        74    565.3687    902.1650 307.6726166  +6.3133988     640.7324     941.5388     510.9664     87.91272     175.9658      352.107      1.545     4.13     1127.403     62.11401     98.93604         5     1.136     0.430 -77.95   0
        75    834.2364    901.7209 307.5609194  +6.3225428     655.5247      744.891     679.7461     88.19315     176.3163     352.3874      1.266     3.81     1121.073     62.11401     109.2446         5     0.865     0.482 -46.15   0
        76    972.5572    897.1976 307.5035987  +6.3290114     1525.676     2134.003     2496.605      87.6314     175.8254     352.0369      1.478     4.69     1116.307     62.11401     214.3212        11     1.218     0.643 -58.66   0
        77    605.6319    897.7711 307.6560357  +6.3165567     636.6523     940.2279     890.8038     87.77217     175.9658     352.1421      1.403     3.46     1126.965     62.11401     106.1622         5     1.156     0.299 -35.91   0
