#   1 NUMBER                 Running object number                                     
#   2 X_IMAGE                Object position along x                                    [pixel]
#   3 Y_IMAGE                Object position along y                                    [pixel]
#   4 ALPHA_J2000            Right ascension of barycenter (J2000)                      [deg]
#   5 DELTA_J2000            Declination of barycenter (J2000)                          [deg]
#   6 FLUX_APER              Flux vector within fixed circular aperture(s)              [count]
#   9 FLUXERR_APER           RMS error vector for aperture flux(es)                     [count]
#  12 FLUX_RADIUS            Fraction-of-light radii                                    [pixel]
#  13 FWHM_IMAGE             FWHM assuming a gaussian core                              [pixel]
#  14 BACKGROUND             Background at centroid position                            [count]
#  15 THRESHOLD              Detection threshold above background                       [count]
#  16 FLUX_MAX               Peak flux above background                                 [count]
#  17 ISOAREA_IMAGE          Isophotal area above Analysis threshold                    [pixel**2]
#  18 A_IMAGE                Profile RMS along major axis                               [pixel]
#  19 B_IMAGE                Profile RMS along minor axis                               [pixel]
#  20 THETA_IMAGE            Position angle (CCW/x)                                     [deg]
#  21 FLAGS                  Extraction flags                                          
         1    258.6253     57.1659 307.8354458  +6.6644480     1980.557      4487.32       6684.9     87.30204     175.3044     350.8535      3.191     6.47     1086.163     61.88055     218.9241        37     1.953     1.358 -43.07   0
         2    334.7383     23.4043 307.8049435  +6.6809395     8399.745     18587.54      21127.8     87.30204     175.3045     350.7487      2.305     5.61     1079.039     61.88055     938.3975        61     2.082     1.480 -34.59   0
         3    661.7451     16.7199 307.6692011  +6.6946385     7974.798     16201.51     18204.04     88.14016     175.5838     351.0978      2.145     5.04     1062.737     61.88055     909.6212        54     1.933     1.377 -33.13   1
         4    826.6753     15.7546 307.6006537  +6.7005402     1197.883     2271.501     2349.628     87.86167     175.6536     351.0978      1.995     6.73     1055.912     61.88055     152.1555        16     1.467     0.868 -44.24   0
         5    262.0532     13.7519 307.8354918  +6.6824885     4438.242     9749.251     11374.23     88.14015     175.5838     351.0629      2.335     5.84      1086.22     61.88055     476.5009        49     2.088     1.355 -31.99   0
         6    897.0260     14.1114 307.5714560  +6.7035631     1198.041      2431.61     2625.241     88.14015     175.3743     350.8884      2.139     5.69     1054.335     61.88055     138.7994        14     1.374     0.787 -25.92   0
         7    653.3953     12.1329 307.6728279  +6.6962537     6268.112     12641.36      14406.5     87.44228     175.2345     350.8535      2.169     4.92     1062.585     61.88055     689.2251        48     1.972     1.278 -36.04  17
         8    423.2687     12.3566 307.7685074  +6.6884663     5364.094     11411.67     12631.05     88.00102      175.514     351.1328      2.221     5.27     1069.568     61.88055     625.8286        49     1.946     1.401 -31.62  16
         9    685.2927      9.7798 307.6596440  +6.6982904     10723.62     24894.15     32310.96     87.86167     175.3743     350.8884      2.640     7.75     1061.857     61.88055     1215.361        72     2.786     1.298 -36.73  16
        10    738.7024     11.2014 307.6373877  +6.6994861     1374.768     2408.082     2808.145     87.44228     175.3044     350.6788      1.853     6.24     1058.426     61.88055     152.1937        17     1.497     0.913 -52.81   0
        11    662.8094      8.2122 307.6690457  +6.6981870     2233.499     4396.761     5815.971      87.7221     175.3743     350.4341      2.380     4.71      1062.55     61.88055     275.0863        29     1.582     1.181 -27.39  17
        12    202.1899      9.1153 307.8605391  +6.6823948     747.5363     1732.069     1570.681      87.5823     175.2345     350.8884      2.426     6.52     1086.497     61.88055     127.7964         7     1.374     0.868 -51.51  16
        13     69.5536      5.4502 307.9158105  +6.6794544     2323.806     4657.506     5301.994     88.00102     175.4442     327.0292      2.071     5.15     1086.716     61.88055     266.1174        33     1.657     1.257 -47.49  16
        14    160.4543      3.0273 307.8780984  +6.6835077     3633.375     7084.136     7423.272      87.7221     164.2623     293.2068      2.049     5.60     1086.457     61.88055     394.8888        35     1.819     1.181 -30.97  24
        15    952.2130      4.3528 307.5488366  +6.7094305      666.178     1371.171     1369.602     87.30204     174.9546     312.6628      2.175     3.47     1050.843     61.88055     101.5244         6     0.726     0.638 -55.19  16
        16    787.1803      2.0090 307.6175398  +6.7048990     910.9885     1520.577     1639.829     84.59323     150.1544     276.0733      1.860     5.12     1055.839     61.88055     129.7473        10     1.378     0.600 -30.86  24
        17    823.9408    994.4136 307.5688333  +6.2963398     2115.086     3315.753     3457.953     87.30203      175.514     350.7487      1.635     4.27     1107.864     61.88055     335.2766        19     1.491     0.800 -30.26   0
        18    820.3589   1023.0011 307.5693595  +6.2844160     1009.209      1533.99     1352.493     84.15755     149.9911     275.8513      1.522     4.84     1109.583     61.88055     163.5145         9     1.448     0.458 -25.95  24
        19    759.6019   1023.1107 307.5945991  +6.2823458     6805.898     9467.717     9919.454     82.68872     148.2656     273.7555      1.456     4.50     1109.782     61.88055     1010.771        22     1.424     0.809 -19.58  24
        20    555.3403   1023.4119 307.6794539  +6.2754051     2738.161     3666.771     3923.452     79.51591     143.6482     268.6044      1.276     3.53      1112.27     61.88055     580.9686        15     1.288     0.714 -14.38  24
        21    429.4044   1022.9856 307.7317901  +6.2713718     1050.703     1335.587     1149.503     84.73795     150.3175     276.2508      1.506     6.22     1112.657     61.88055     126.0288        13     1.149     0.946   3.04  24
        22    305.3416   1022.5638 307.7833469  +6.2673941     13120.74     20014.34     21238.25     88.00102     156.7814     283.7343      1.733     5.52     1115.167     61.88055     1762.765        44     1.975     0.956 -25.99  24
        23    772.1152    992.4450 307.5904325  +6.2954256     6405.601     10524.66     11650.35     88.00102      175.514     351.0629      1.786     4.56     1108.525     61.88055     900.7843        35     1.755     0.955 -34.85   0
        24    558.7291    991.7310 307.6791148  +6.2885999     874.9284     1655.454     1604.984     88.00102     175.7233      351.028      1.839     6.56     1111.898     61.88055     145.3594        11     1.599     0.756 -39.23   0
        25    241.4251    991.1508 307.8109641  +6.2782238     1175.991     1916.423     1993.315      87.5823     175.6536     350.9582      1.688     4.99     1114.314     61.88055      167.819        15     1.175     1.039 -28.71   0
        26    206.2337    991.3892 307.8255765  +6.2769460     855.2223     1468.633      1076.77     87.44228     175.3045     350.8884      1.731     5.63     1114.173     61.88055     121.7651        10     1.470     0.609 -37.46   0
        27     66.5957    989.6515 307.8836481  +6.2729797     2432.111     4027.801     4027.902     87.30204     175.3743     350.6089      1.780     4.85     1114.495     61.88055     334.3411        22     1.608     0.934 -31.48   0
        28    960.3060    987.4713 307.5124079  +6.3037466     6795.318     10638.03     11119.91     87.86167     175.6536     351.0629      1.684     4.51     1102.453     61.88055     973.2299        34     1.629     0.963 -28.69   0
        29    643.4850    981.5460 307.6442438  +6.2956355     506.7915     769.3486     686.4399     88.00102     175.5838     351.2374      1.857     3.68     1111.205     61.88055     120.5364         5     0.918     0.559 -46.69   0
        30    934.0159    979.1232 307.5236119  +6.3063189     2094.376     3365.718     3666.212     87.44228     175.3044     350.9233      1.671     5.00     1104.142     61.88055     311.9869        19     1.552     0.777 -35.82   0
        31    793.6987    975.8217 307.5820243  +6.3030091     1313.316     2118.224     2191.978     87.86167     175.3044     350.8185      1.571     4.36     1107.392     61.88055     233.2039        14     1.512     0.674 -39.36   0
        32    654.7813    975.1938 307.6397644  +6.2986355     4171.605     6899.168     6899.787      87.5823     175.2345     350.8884      1.723     4.34     1110.759     61.88055     610.1343        28     1.633     0.934 -33.69   0
        33    267.0916    975.4818 307.8008309  +6.2855536     3702.301     6329.862     6790.008      87.7221     175.8627     351.1328      1.810     4.62     1114.425     61.88055     466.6718        32     1.702     1.029 -33.56   0
        34   1004.0233    974.5771 307.4946765  +6.3105252     823.3278     1425.041     1464.944     87.44228     175.4442      351.028      1.513     5.11     1099.042     61.88055     146.7224        10     1.425     0.519 -24.18   0
        35    477.2372    973.7471 307.7135799  +6.2933025     995.8484     1726.505     1440.627     87.86167     175.5838     351.0978      1.824     4.73     1112.211     61.88055     132.2667        11     1.197     0.644 -11.80   0
        36     35.9988    972.9703 307.8969252  +6.2788403     1978.081     3568.692     3755.781     87.30204     175.3743     350.8535      1.977     4.94     1113.728     61.88055     276.4412        22     1.634     0.897 -22.53   0
        37    886.7123    971.4518 307.5435245  +6.3079120      1048.93     1612.682     2102.948     88.00102     175.4442     351.1676      1.820     6.32     1105.212     61.88055     133.8411        12     1.647     0.682 -40.08   0
        38    957.4825    969.1059 307.5141982  +6.3112363     837.7502     945.5142     517.4167      87.7221     175.9324     351.2025      1.395     6.06     1102.155     61.88055     114.1125        10     1.263     0.817 -36.79   0
        39    978.5882    969.3904 307.5054191  +6.3118210     592.3781     936.3751      1177.21      87.7221     175.3743      351.028      1.562     4.63     1100.724     61.88055     85.92102         6     1.237     0.491 -28.71   0
        40    579.1130    967.7696 307.6714540  +6.2991749      1409.35     2274.385     2494.081     88.14015     175.3044     350.9582      1.855     5.60      1111.52     61.88055     182.7233        15     1.608     0.693 -30.20   0
        41   1011.2388    967.2001 307.4919262  +6.3138114     722.1152     1381.861     1230.453     86.87994     175.3044     350.7836      1.866     5.58     1098.671     61.88055      137.485         8     1.441     0.866 -15.49   0
        42    618.4551    964.1548 307.6552297  +6.3019812     1148.644     1976.847      1919.46     88.00102     175.5838     351.0629      1.931     4.86      1111.13     61.88055     175.6079        10     1.238     0.679 -28.50   0
        43     68.2878    965.1823 307.8837747  +6.2831399      667.128     1128.487     1442.951      87.7221     175.3044     350.8884      1.881     5.17     1113.678     61.88055     85.17432         6     1.114     0.680  -2.80   0
        44    298.6492    961.9268 307.7881783  +6.2922076     1249.154     2178.054     2550.109     88.00102     175.6536     351.0978      1.848     5.68     1114.365     61.88055     166.9257        14     1.453     0.816 -47.02   0
        45    765.5135    957.6993 307.5943453  +6.3095528     915.9831     1664.636     1376.911     88.00102     176.0717     351.1328      1.791     5.58     1107.306     61.88055     116.4211         9     1.163     0.755 -32.63   0
        46    902.9778    954.3710 307.5373405  +6.3155066     6624.871     10384.58     10268.59     87.44228     175.3743     350.9233      1.638     4.45      1103.83     61.88055     923.4631        28     1.618     0.838 -31.42   0
        47    140.3596    956.0551 307.8541412  +6.2893268     518.7801     914.7685     1458.534     87.86167     175.6536     351.0978      2.296     4.21     1113.744     61.88055     83.59033         5     1.075     0.470 -25.92   0
        48    438.8810    951.7750 307.7302582  +6.3010926     1967.323      3329.87     3628.413      87.7221     175.3044      351.028      1.838     5.95     1112.057     61.88055      243.199        21     1.696     0.829 -27.67   0
        49    340.6637    950.0999 307.7711223  +6.2984979     8330.591     14439.29     15761.61     88.00102     175.6536     351.0629      1.860     4.40     1113.597     61.88055     1123.901        43     1.753     1.128 -35.93   0
        50    260.6964    949.0465 307.8043824  +6.2962547     6211.717     10593.94     11077.65     88.00102      175.514     351.2374      1.812     4.49     1114.212     61.88055     761.6755        37     1.686     1.091 -33.73   0
        51    588.4847    943.9357 307.6683641  +6.3093293     975.2116     1817.774     1870.374     88.14015     175.7233     351.0978      1.916     6.40     1111.078     61.88055     165.2563        12     1.409     0.850 -40.47   0
        52    773.4289    942.3770 307.5915723  +6.3161436      572.488     863.1133     1177.946     87.44228     175.3743     350.8884      1.825     4.18     1106.425     61.88055     93.22668         5     0.984     0.506 -43.24   0
        53    919.1095    939.5923 307.5311345  +6.3221462     947.9652     1261.724     1213.715      87.5823     175.2345     350.8535      1.509     5.53     1102.671     61.88055     163.0073        10     1.327     0.649 -29.45   0
        54    222.3843    939.8221 307.8206123  +6.2987798     458.4379     653.6938     411.7571      87.7221     175.3743     350.9931      1.349     3.39      1113.97     61.88055     91.96362         5     0.782     0.426 -69.06   0
        55    875.2116    938.7659 307.5494024  +6.3210259     704.6423     1171.607      1489.99     87.44228     175.3743     350.8535      1.506     2.93     1103.641     61.88055     105.0792         6     0.732     0.569 -43.18   0
        56    986.2415    935.3177 307.5033840  +6.3261452     750.3903     1323.566     1811.525     88.00102     175.5838     350.9931      1.974     5.53     1100.071     61.88055     106.0919         8     1.068     0.809  53.52   0
        57    755.2432    932.4262 307.5994637  +6.3196463     1462.389     2418.914     2971.884      87.5823     175.5838     350.9582      1.794     5.62     1106.788     61.88055     205.6074        16     1.502     0.782 -32.50   0
        58      6.3540    929.9889 307.9106991  +6.2955918     766.5987     1427.419     2507.456     87.44228     175.3743     336.4117      2.093     5.82     1111.234     61.88055      84.9978        10     1.264     0.755 -39.54  16
        59    986.5809    928.1078 307.5034851  +6.3291336     1215.278     1799.135         2920     87.86167     175.3044     350.8884      1.612     3.37     1099.958     61.88055     203.4043        11     1.072     0.660 -37.28   0
        60    619.7421    928.8661 307.6558850  +6.3165955     881.2837      1307.59      822.149     88.14015      175.514     351.0629      1.541     3.44      1110.22     61.88055     120.8578         5     0.991     0.344 -43.32   0
        61    540.6339    928.5416 307.6887653  +6.3140875     1006.842     1591.359      1372.58     87.86167     175.5838     350.9931      1.768     4.47     1111.272     61.88055     154.8254        10     1.094     0.763 -24.13   0
        62    673.4058    926.0175 307.6336835  +6.3195630     2443.782     3647.876     3596.651      87.5823     175.2345     350.8884      1.661     4.77     1108.192     61.88055     319.8728        20     1.504     0.835 -32.87   0
        63    964.5731    923.7962 307.5127747  +6.3301818     723.8657     1374.933     2132.397     87.44228     175.3743     350.8884      2.414     6.01      1100.49     61.88055     113.7034         9     1.637     0.621 -29.98   0
        64    834.4504    922.1751 307.5668973  +6.3265190     893.8348      1549.34     1679.609      87.5823     175.5838     350.9582      1.731     4.06     1103.757     61.88055     163.9565         9     1.131     0.655 -14.31   0
        65    213.9968    921.0648 307.8247321  +6.3062437     1877.271     3633.897     4122.833     87.30204     175.3044     350.8185      2.091     6.09     1113.795     61.88055     222.6343        25     1.743     0.991 -28.30   0
        66     88.0926    921.3174 307.8770336  +6.3019166      1748.23     3019.539     2954.012      87.7221     175.9324     351.2025      1.806     4.78     1112.812     61.88055     247.7074        20     1.477     0.904 -31.10   0
        67    951.8727    921.2903 307.5181361  +6.3307940      896.951      1357.39     1403.099     88.00102     175.8627     351.0629      1.625     4.57     1100.791     61.88055     163.0686         8     1.284     0.462 -23.47   0
        68     70.6287    921.9903 307.8842665  +6.3010526      2532.94     4432.067     4556.978      87.5823     175.3743     350.8884      1.883     4.37     1112.473     61.88055     292.4832        26     1.416     1.149 -55.12   0
        69    668.2855    915.0543 307.6361806  +6.3239190     6126.211     10344.94     11553.69     88.00102      175.514     351.2374      1.806     4.29     1107.969     61.88055     847.2455        35     1.702     1.007 -32.39   0
        70    353.3831    917.0352 307.7669555  +6.3125765     712.2863     1177.777     1283.208      87.5823     175.3743     350.8185      2.108     5.53     1112.767     61.88055     106.2471         8     1.238     0.696  -6.47   0
        71    805.7434    916.0511 307.5790316  +6.3280912     638.4535     1230.915     1567.317     88.00102     175.5838     351.0629      1.693     4.02     1104.176     61.88055     112.3119         6     0.925     0.499 -53.08   0
        72     28.6842    913.8304 307.9019698  +6.3030136     944.8844     1901.378     2091.511     88.00102     175.3743     350.9233      2.109     6.66      1111.52     61.88055      119.234        11     1.416     0.878 -37.79   0
        73     41.6838    911.9489 307.8966327  +6.3042270     1067.517     1514.492     920.0518     88.00102      175.514     351.1676      1.537     5.82     1111.761     61.88055     161.4135        13     1.280     0.804 -35.66   0
        74    905.9877    911.3436 307.5375367  +6.3333740     2572.522     4285.738     4369.409     87.30203      175.514     350.7137      1.676     5.07     1101.786     61.88055     339.3132        20     1.553     0.780 -32.04   0
        75    351.3505    908.3356 307.7680942  +6.3161006     13529.91     24279.41     26149.95     87.86167      175.514     351.0978      1.913     4.50     1112.798     61.88055     1609.884        49     1.809     1.180 -32.11   0
        76     86.0639    909.3347 307.8782826  +6.3067962     1000.172     1480.503     1373.364     88.00102     175.5838     351.0629      1.557     5.45     1112.602     61.88055     152.9978        12     1.301     0.643 -29.68   0
        77    936.9286    909.5680 307.5247397  +6.3351371     504.1764     513.0626     269.2577     87.86167     175.5838      351.028      1.244     3.93     1100.861     61.88055     95.35522         5     0.901     0.491   5.09   0
