#   1 NUMBER                 Running object number                                     
#   2 X_IMAGE                Object position along x                                    [pixel]
#   3 Y_IMAGE                Object position along y                                    [pixel]
#   4 ALPHA_J2000            Right ascension of barycenter (J2000)                      [deg]
#   5 DELTA_J2000            Declination of barycenter (J2000)                          [deg]
#   6 FLUX_APER              Flux vector within fixed circular aperture(s)              [count]
#   9 FLUXERR_APER           RMS error vector for aperture flux(es)                     [count]
#  12 FLUX_RADIUS            Fraction-of-light radii                                    [pixel]
#  13 FWHM_IMAGE             FWHM assuming a gaussian core                              [pixel]
#  14 BACKGROUND             Background at centroid position                            [count]
#  15 THRESHOLD              Detection threshold above background                       [count]
#  16 FLUX_MAX               Peak flux above background                                 [count]
#  17 ISOAREA_IMAGE          Isophotal area above Analysis threshold                    [pixel**2]
#  18 A_IMAGE                Profile RMS along major axis                               [pixel]
#  19 B_IMAGE                Profile RMS along minor axis                               [pixel]
#  20 THETA_IMAGE            Position angle (CCW/x)                                     [deg]
#  21 FLAGS                  Extraction flags                                          
         1    225.6786     21.7456 307.8646830  +6.6679393     6000.127     14102.94     17155.56     84.16003      167.655     335.2434      2.529     7.48     991.5768     59.08623     648.8275        60     2.427     1.357  28.29   0
         2    971.1912     19.2859 307.5550239  +6.6940102     2512.437     5607.061      6519.06     83.62737     167.3215     335.0434      2.422     7.77     966.4841     59.08623     343.3987        33     2.257     0.964  28.70   0
         3    569.7576     19.7906 307.7217968  +6.6803344     1621.898     3869.385     4460.708     83.49368      167.455     334.9434      2.425     8.78     977.3243     59.08623     200.3224        29     2.115     1.058  33.22   0
         4    755.5583     12.2176 307.6448550  +6.6897016     4234.666     9485.525     11040.65     83.49368      167.455     334.9767      2.384     7.62     974.8644     59.08623     498.0118        45     2.404     1.052  27.09  16
         5    675.6707     11.4512 307.6780729  +6.6873364      2272.51     5116.281     5930.835     83.89413      167.655     335.2434      2.347     7.88      976.423     59.08623     295.3956        38     2.320     1.037  28.51  16
         6    475.7356      7.5223 307.7612740  +6.6822376     3546.875     8139.646      10015.3     84.29268     167.7216     330.9504      2.515     7.93     980.4509     59.08623     377.0917        44     2.338     1.154  27.66  16
         7     76.8259      7.3319 307.9270111  +6.6688648     4878.762     11318.56     13286.48     83.62737     167.5217     329.4957      2.484     7.02     992.4429     59.08623     567.2958        52     2.323     1.261  29.81  16
         8    372.6664      2.9390 307.8042508  +6.6806598     6982.734     16182.33     18823.33     84.02718     155.6291     278.5663      2.353     7.94     986.1617     59.08623     790.8441        51     2.324     1.206  19.97  24
         9    146.2737      3.0052 307.8983056  +6.6729970     1342.755     3289.213     4605.207     83.62737     156.2024      279.687      3.218     8.66     991.6704     59.08623     171.5345        32     2.175     1.085  23.24  24
        10    437.3973      1.0000 307.7774225  +6.6836403     701.0106     1409.483     2142.438     67.34794        127.1     246.0259      2.630     4.54      980.605     59.08623     155.3582         7     1.428     0.411   6.43  26
        11    561.6645   1004.5203 307.6920057  +6.2734507     836.3124     1459.654     1144.231     84.29268     167.7216     335.1768      1.920     5.11     1008.308     59.08623     110.4871         8     1.189     0.622  33.41   0
        12    796.0321   1023.3008 307.5940769  +6.2735599     837.8478     1382.539     1054.272     77.81457     139.0222     258.6439      1.718     5.83     1005.777     59.08623      124.964        11     1.657     0.577  16.30  24
        13    342.6616   1002.2119 307.7830004  +6.2670390     9266.837     21570.91     25588.48     83.49368      167.455     334.9434      2.456     8.20     1010.327     59.08623     1145.403        65     2.338     1.373  21.64   0
        14    857.5876   1002.1000 307.5692330  +6.2843767     705.8185     1488.762     1310.479     83.76085     167.3883     334.9767      2.148     6.57     1004.431     59.08623     111.9417        11     1.814     0.668  36.17   0
        15    466.1071   1002.7688 307.7317347  +6.2709623     716.6536     1245.078     1365.936     84.16003      167.455     335.2101      2.063     5.44     1010.331     59.08623     115.4968         6     1.343     0.623  16.96   0
        16    315.9672   1000.4615 307.7941412  +6.2668630      610.726     971.3447     1593.641     83.76085     167.7216     335.1434      2.053     4.88     1010.223     59.08623      97.4519         8     1.001     0.675   6.07   2
        17    958.1516    996.3791 307.5276741  +6.2901060     5933.129     12892.69     15071.53     83.62737      167.655     335.0101      2.301     7.70     1001.739     59.08623     784.5056        46     2.348     1.013  29.91   0
        18    931.8065    992.5319 307.5387407  +6.2908129     8070.251     18250.39     20794.07     83.49368     167.3215     335.0434      2.344     8.47     1001.659     59.08623     1086.906        50     2.361     1.050  26.54   0
        19    644.4806    993.0649 307.6580097  +6.2809618     909.2861     1854.861     1762.212     84.29267     167.7216     335.1768      2.256     7.79     1007.582     59.08623     122.6224        17     2.187     0.776  26.69   0
        20      4.8537    992.1198 307.9235735  +6.2598153     1828.402     3095.552     3705.919     84.02718      167.655     305.2054      2.133     4.99     1009.957     59.08623     221.8661        19     1.471     0.886  50.06  18
        21    576.1149    991.5246 307.6864437  +6.2793022     2703.883     6307.624     7995.275     84.16003     167.9879     335.2767      2.636     8.88     1008.139     59.08623     358.2219        34     2.209     1.015  22.75   0
        22    685.1716    990.8986 307.6411893  +6.2832219     982.6125     2036.992      2412.88     84.16003     167.3883     335.1768      2.313     7.62     1006.919     59.08623     176.7601        17     2.059     0.789  24.85   0
        23    110.6962    990.2220 307.8797005  +6.2641719     553.0175     1382.957     1568.262     83.89413      167.455     335.0101      2.558     8.41      1010.12     59.08623     102.3157        10     2.020     0.978  27.85   0
        24    528.8677    987.8724 307.7061814  +6.2792230     1556.383     3052.314     2994.192     84.16003     167.7883     335.2101      2.082     8.06     1008.714     59.08623     207.8918        24     2.166     0.840  27.47   0
        25    963.6138    980.0937 307.5259520  +6.2970135     28915.97     63970.09     72181.84     83.76086     167.3883     335.0434      2.298     9.09     1001.284     59.08623     4008.658        78     2.346     1.142  27.21   0
        26     36.3401    980.0378 307.9109116  +6.2658673     1992.019     4422.374     5204.635     84.02718     167.7216     335.2434      2.344     8.19     1010.011     59.08623      270.801        26     2.040     0.919  28.94   0
        27    270.8234    978.2349 307.8136317  +6.2745201     1235.706     2550.584     3336.493     83.49368     167.3883     334.9767      2.472     7.76     1010.177     59.08623     174.8831        19     1.954     0.861  26.05   0
        28    861.6592    973.9823 307.5684857  +6.2961237     1471.344     3412.403     3414.733     83.62737     167.5217     334.9434      2.263     8.54     1003.199     59.08623     223.7999        27     2.203     0.924  24.27   0
        29    809.7083    971.6916 307.5901311  +6.2953290     4296.114     9999.891     11982.74     84.02718     168.1873     335.2434      2.454     9.18     1003.974     59.08623     618.9614        41     2.297     1.025  33.30   0
        30    278.8641    970.8053 307.8105444  +6.2778587     935.0228     2328.715     2792.805     83.35976     167.3883     334.9767      2.519     8.66     1010.202     59.08623     135.8266        20     2.040     1.027  18.74   0
        31    594.6160    970.7267 307.6794624  +6.2885115     621.8931     742.1827     760.3548     83.49368     167.3883     335.1434      1.448     3.47     1007.801     59.08623     95.01886         5     0.754     0.462  75.22   0
        32    104.2663    968.9940 307.8830871  +6.2727201     1697.989     4015.697      4271.64     83.49368     167.3883     335.0101      2.361     7.88     1010.059     59.08623      231.121        24     2.128     0.817  24.83   0
        33   1000.3378    967.7096 307.5111200  +6.3033559     2311.747      2964.08     3129.218     84.02718     167.7883     335.2767      1.192     2.62     1000.609     59.08623      484.539         9     1.022     0.571  50.65   3
        34    996.7760    966.3896 307.5126430  +6.3037818     5087.298     8047.813     8733.242     83.62737      167.455     335.0768      1.742     6.27     1000.555     59.08623     627.1089        30     1.752     1.000  36.12   3
        35    971.3213    958.4208 307.5234783  +6.3062207      1298.54     2842.169     2909.947     83.62737     167.3215     335.2101      2.187     7.35      1000.56     59.08623     193.7504        19     1.999     0.756  26.32   0
        36     29.0686    956.6505 307.9147210  +6.2752784     838.3438     1532.702     1625.481     83.89413     167.5217     335.2101      2.072     6.93     1010.007     59.08623     115.7714        14     1.743     0.773  20.21   0
        37    692.4026    954.4958 307.6394104  +6.2984961     2882.539     6508.766     7165.276     83.62737     167.3215     334.8766      2.312     7.70     1005.966     59.08623     361.4863        32     2.224     0.936  25.25   0
        38    304.6775    954.6108 307.8003744  +6.2854151     2815.809     6469.401     6899.394     83.62737     167.2547     335.0434      2.349     7.88     1010.291     59.08623     381.5006        37     2.204     1.038  24.79   0
        39    830.9201    954.8901 307.5818883  +6.3029776     881.9679     1699.936     2041.601     83.76086     167.8548     335.3101      1.993     5.92     1002.998     59.08623     142.2625        13     1.753     0.563  24.48   0
        40    514.4114    952.5909 307.7133704  +6.2933055     642.2444     1433.893      1637.79     83.76086      167.455     335.1434      2.405     5.15     1008.685     59.08623     107.0581         8     1.618     0.463  17.99   0
        41     72.9974    951.9316 307.8966445  +6.2787099     1476.601     2752.129     2747.776     83.35976     167.2547     334.9767      1.927     7.34     1010.009     59.08623     206.4998        19     1.787     0.844  27.82   0
        42    925.4841    951.9514 307.5427259  +6.3073581     647.0868     1304.085     1438.128     84.02718      167.655     335.2434      2.288     4.55     1001.075     59.08623     104.8055         6     1.198     0.492  48.80   2
        43    616.7187    946.7327 307.6710931  +6.2991614     1241.452     2177.551     2278.536     84.16003     167.9214     335.2767      1.956     7.49     1007.223     59.08623     159.2785        21     1.903     0.826  24.95   0
        44    338.9387    947.5036 307.7863905  +6.2895034     603.7734     898.8776     1806.298     83.76085     167.7216     335.2767      1.842     4.11     1010.349     59.08623      83.7251         5     1.126     0.429  63.85   1
        45    105.0520    943.9938 307.8836058  +6.2830693     565.3857     1046.678     1305.472     83.49368      167.455     334.8433      2.904     6.29     1009.988     59.08623     130.3571         9     1.925     0.578  20.24   0
        46    656.2335    942.8389 307.6548186  +6.3020957      819.492     1826.985     1965.773     83.76085      167.455     334.9767      2.250     7.39     1006.385     59.08623     133.3735        15     2.120     0.721  38.16   0
        47    337.9911    942.2389 307.7869614  +6.2916454     789.0759      1751.77     3657.607     83.35976      167.455       334.91      3.551     6.14     1010.353     59.08623     142.0577        11     1.532     0.691  10.69   2
        48    804.4751    937.9254 307.5934371  +6.3090966     530.7598     972.4234     1394.291     84.29267     167.9214     335.3101      1.943     4.43     1002.973     59.08623     91.72278         6     1.546     0.361  18.04   0
        49    940.5349    933.7252 307.5370880  +6.3153880     4782.176     10213.01     10863.27     84.16003      167.655     335.1768      2.186     8.66     1000.452     59.08623     661.0668        38     2.219     0.944  26.93   0
        50    476.8257    930.9683 307.7297026  +6.3009704     1332.821      3297.26     3421.139     83.49368     167.3883     335.0434      2.427     7.98     1008.944     59.08623     218.1627        27     2.150     0.975  27.76   0
        51    378.2011    929.3956 307.7707009  +6.2983021     5959.377     13388.62     15437.44     83.35976     167.1879     334.9434      2.387     7.69     1010.265     59.08623     696.2537        48     2.331     1.099  27.50   0
        52    298.3371    928.3099 307.8038937  +6.2960615     4254.708     9719.499     11153.18     84.02718     167.7883     335.2767      2.373     7.92     1010.357     59.08623      536.649        41     2.332     1.045  29.40   0
        53    215.4480    926.5422 307.8383651  +6.2939984     486.8421     773.5149     617.7232     84.02718      167.655     335.3434      1.811     4.99     1010.121     59.08623     79.47333         6     0.967     0.729   4.64   0
        54    626.0458    922.4853 307.6680360  +6.3094868     839.6597     1695.408     2072.634     84.02718     167.5884     335.2101      2.372     6.73     1006.525     59.08623     107.0872        14     1.750     0.726  21.78   0
        55    956.1586    918.7733 307.5311023  +6.3220850     629.5108      1174.63     1587.209     83.62737     167.5217     335.0434      1.978     5.67     999.5897     59.08623     117.2578        10     1.587     0.570  25.83   0
        56    792.7664    912.0916 307.5991655  +6.3193716     930.2386     2463.908     3297.531     84.16003     167.5217     335.2434      2.608     7.96     1002.628     59.08623     149.7866        19     2.374     0.746  23.70   0
        57    884.3862    910.9859 307.5611628  +6.3228979     519.6862     907.4114     467.2756     83.89413     167.3215     335.1434      1.687     4.76     1000.754     59.08623     70.98407         5     0.994     0.647   0.55   0
        58     42.7672    909.2512 307.9106373  +6.2953122     566.5776     763.6435     1065.891     83.89413     167.7216     335.1434      1.783     5.32     1009.997     59.08623     90.89728         6     1.227     0.651  38.15   0
        59   1022.6896    907.0560 307.5038713  +6.3291492     933.8863      1290.98     1801.823     83.09129     147.8242     268.8521      1.677     4.96     996.8891     59.08623     136.1344         8     1.227     0.567  47.09  24
        60    576.0609    906.4570 307.6893278  +6.3144266     813.3163     1433.818     1725.226     84.16003     167.5884     335.2434      2.234     5.18     1007.045     59.08623     128.4584         8     1.342     0.565  50.91   2
        61    711.3188    905.1307 307.6332154  +6.3195147     1675.557     3679.521     4467.191     84.29267     167.9214     335.2434      2.349     7.78      1004.37     59.08623     232.3973        27     2.175     0.874  29.68   0
        62    106.9298    901.1036 307.8842758  +6.3008422     1930.068     4014.319     4634.774     83.89413     167.7882     335.2101      2.405     5.16     1009.644     59.08623     238.3524        22     1.448     1.125  29.40   2
        63    125.2184    900.5548 307.8767018  +6.3016859     1142.603     2623.856     2834.887     83.62737     167.5217     334.9434      2.491     8.49     1009.659     59.08623     158.2749        24     2.145     0.978  21.24   0
        64    988.9339    900.4524 307.5181079  +6.3307469     538.9416     1023.825     852.1773     84.02718     167.5884     335.1434      1.850     3.71     997.6224     59.08623     88.73932         6     1.545     0.256  35.80   0
        65    251.2463    900.1447 307.8243942  +6.3061047     1401.006      3126.99      3597.74     84.02718      167.655     335.2434      2.403     8.07      1010.41     59.08623     157.2267        25     1.994     0.913  27.77   0
        66    705.9821    894.3910 307.6357920  +6.3237704     4566.431     10025.73     11618.23     83.76085     167.3883     335.0101      2.316     7.52      1004.07     59.08623     573.9014        40     2.289     1.009  27.29   0
        67     65.2876    892.2360 307.9018634  +6.3030982     724.7196     1332.814     1680.312     84.02718     167.5217     335.2101      2.552     7.32     1009.809     59.08623     128.2969        13     1.768     0.850  28.23   0
        68    943.4035    890.6590 307.5373404  +6.3332673     1840.489     3949.934     3923.261     83.35976     167.5217     334.9434      2.273     8.19     998.9622     59.08623     260.0131        27     2.111     0.889  33.13   0
        69    388.9734    887.5705 307.7676383  +6.3159349     9954.438     22594.84     26444.34     83.49368      167.455     335.0434      2.380     7.63     1009.959     59.08623     1167.656        66     2.409     1.235  26.54   0
        70     78.5722    890.9541 307.8963916  +6.3040759     877.2056      1779.85     2380.161     83.49368     167.7216     335.1101      2.605     6.13     1009.682     59.08623     107.3547        11     1.242     0.850   9.57   0
        71    122.2006    887.8749 307.8783831  +6.3068197     766.4937     1386.385      1604.31     83.22563     166.9874     335.0101      2.402     6.56     1009.522     59.08623     109.0936         9     1.422     0.849  22.99   2
        72    259.5298    886.8987 307.8214022  +6.3118533     919.6674     1722.568     1760.554     83.89413     167.7883     335.2101      2.042     7.93     1010.503     59.08623     133.2491        17     1.915     0.919  27.31   0
        73    151.1813    877.4706 307.8667031  +6.3120934     1025.754     1747.337     2646.575     83.62737     167.5217     335.1434      2.211     7.70     1009.453     59.08623      135.061        14     1.869     0.888  33.26   2
        74    465.3468    878.1177 307.7362482  +6.3224073     592.3718     1118.656     1711.491     84.02718      167.655     335.2767      3.211     5.60     1008.218     59.08623     91.71564         6     1.346     0.656  44.05   0
        75    933.8403    872.4100 307.5419229  +6.3404828     1277.903     2755.966     2533.253     83.35976      167.455     334.9434      2.161     8.19     998.7263     59.08623     173.8839        24     2.258     0.829  25.09   0
        76    135.6528    871.7172 307.8733443  +6.3139452     1500.237     3187.268     3818.919     84.02718      167.655     335.3434      2.236     7.15      1009.38     59.08623     245.2136        26     1.997     0.962  31.40   0
        77    904.5911    871.9154 307.5540840  +6.3397078      1325.52     3017.016     3458.422     83.62737     167.3215     335.0434      2.275     7.60     999.5842     59.08623     185.3312        22     2.201     0.735  27.60   0
