#   1 NUMBER                 Running object number                                     
#   2 X_IMAGE                Object position along x                                    [pixel]
#   3 Y_IMAGE                Object position along y                                    [pixel]
#   4 ALPHA_J2000            Right ascension of barycenter (J2000)                      [deg]
#   5 DELTA_J2000            Declination of barycenter (J2000)                          [deg]
#   6 FLUX_APER              Flux vector within fixed circular aperture(s)              [count]
#   9 FLUXERR_APER           RMS error vector for aperture flux(es)                     [count]
#  12 FLUX_RADIUS            Fraction-of-light radii                                    [pixel]
#  13 FWHM_IMAGE             FWHM assuming a gaussian core                              [pixel]
#  14 BACKGROUND             Background at centroid position                            [count]
#  15 THRESHOLD              Detection threshold above background                       [count]
#  16 FLUX_MAX               Peak flux above background                                 [count]
#  17 ISOAREA_IMAGE          Isophotal area above Analysis threshold                    [pixel**2]
#  18 A_IMAGE                Profile RMS along major axis                               [pixel]
#  19 B_IMAGE                Profile RMS along minor axis                               [pixel]
#  20 THETA_IMAGE            Position angle (CCW/x)                                     [deg]
#  21 FLAGS                  Extraction flags                                          
         1      7.6346     34.5010 307.9369384  +6.6319153     727632.4      2162771      2582285     90.88715     181.1981       358.99      2.713     6.40     1179.055     63.91001     61669.18       355     2.432     2.031 -60.18  28
         2     30.3699     19.2032 307.9279938  +6.6389944     5957.652      16325.8      19037.5     90.31008      181.126     362.3602      2.579     6.49     1176.621     63.91001     728.4276        61     2.045     1.728 -58.35   0
         3    831.7698     13.2704 307.5944914  +6.6682038     3623.984     8212.688     9280.413     90.74323     181.3423     362.5405      2.296     5.52     1141.172     63.91001     367.7609        42     1.736     1.469 -58.83   0
         4    777.1333     13.9597 307.6172200  +6.6661019     1815.255     4489.706     5380.938     90.74322     181.2702     362.6847      2.495     8.48     1142.137     63.91001     196.0833        33     1.716     1.455 -81.33   0
         5     68.7832     12.8463 307.9122162  +6.6429071     1042.772     1823.337     2432.764     90.31007     181.1981     362.3241      1.966     7.53         1172     63.91001     159.7518        13     2.204     0.721  87.74  19
         6     72.2829     11.1191 307.9108179  +6.6437375     1511.575     2962.059     3393.568     90.74322     181.6304     362.6847      2.110     5.74     1171.625     63.91001     204.0782        23     1.563     1.176  60.57   3
         7     13.2262      6.8974 307.9355517  +6.6435008      1345.78     3302.634     2301.445     91.03084     181.0538     352.8203      2.225     8.84     1178.704     63.91001     160.9175        27     1.782     1.225 -56.43  16
         8    771.3096      2.2220 307.6200425  +6.6707551     903.5645     1516.542     1734.075      89.7293     158.5793     289.3141      1.883     6.29       1141.6     63.91001     120.9264        11     1.334     0.833 -38.03  24
         9    580.9469   1010.3225 307.6651444  +6.2481272     2221.604     4122.458     4402.852     91.03084     181.3423     362.5766      2.018     5.11     1198.306     63.91001     239.0848        25     1.441     1.199 -73.12   0
        10    654.0023   1022.5898 307.6343322  +6.2454942     737.5324     991.7386      809.246     90.31007     161.1141     292.2805      1.599     4.51     1197.142     63.91001     101.1011         5     1.026     0.563  74.84  24
        11    287.0000   1000.5803 307.7877783  +6.2423440     1134.329     2015.315      1939.56     90.31007     180.7648     362.1798      1.884     4.26     1198.453     63.91001     163.1787         8     1.212     0.608 -82.32   2
        12     11.0084    997.8055 307.9027009  +6.2342570     9714.778     18181.38     19003.14     90.16523      181.126     362.3963      1.994     4.15     1195.058     63.91001     1134.021        49     1.738     1.321 -60.73  16
        13    709.8131    998.4018 307.6119285  +6.2573399     3514.865     6532.701     6661.178     90.45469     180.9816     362.3241      1.984     4.38     1195.882     63.91001      373.755        30     1.497     1.199 -41.42   0
        14    619.6509    996.8333 307.6494970  +6.2549865     1400.063     2758.353     2982.226     90.74322     181.4144     362.4684      1.958     5.83     1197.099     63.91001     161.3612        18     1.451     0.921 -31.34   0
        15    240.0455    995.6217 307.8074829  +6.2428226     1090.808     1932.486     2226.493     90.45469     181.3423     362.3963      1.826     7.12     1198.391     63.91001     148.8868        16     1.510     0.971 -26.90   0
        16    719.1856    990.2387 307.6083048  +6.2610226     672.9037     959.5951     897.2443     90.59907      181.126     362.2881      1.350     3.74     1195.648     63.91001     106.2048         5     1.039     0.386 -87.27   0
        17    804.8652    987.2576 307.5727546  +6.2651028     12027.68     20896.49     22047.22     91.03084     181.2702     362.6126      1.861     4.08     1195.001     63.91001     1452.273        50     1.712     1.269 -52.27   0
        18     75.7143    988.0355 307.8761126  +6.2404582     5985.161     11400.05     11994.18     90.88715     181.1981     362.5766      2.013     4.23     1196.128     63.91001     675.0574        41     1.587     1.398 -60.17   0
        19    588.4236    978.2280 307.6631204  +6.2616295     118343.5     230574.5     259210.9     90.31007     181.1981     362.3963      2.101     4.51     1196.916     63.91001     13240.53       113     1.992     1.514 -54.32   3
        20    590.0772    971.1714 307.6626713  +6.2645985     53968.82     106676.7       118273     90.74322     181.4144     362.5766      2.099     4.78      1196.61     63.91001     5768.151        84     1.905     1.460 -41.17   3
        21    222.4322    981.4667 307.8152923  +6.2480789     2615.614      5157.65     5786.371     90.74323     181.4144     362.5045      2.092     5.13     1197.948     63.91001     286.0625        31     1.610     1.307 -68.89   0
        22    763.9569    980.7336 307.5899970  +6.2664368     782.9033     1099.844     1564.013     90.88715     181.2702     362.6126      1.535     4.17     1195.078     63.91001     120.7938         5     0.744     0.695  -0.47   0
        23    969.7811    977.6695 307.5044562  +6.2745394     699.2408     1450.288     1922.261     90.45469     181.1981     362.5045      2.438     4.64     1192.133     63.91001     101.4417         6     1.029     0.594 -66.05   0
        24    799.3231    975.1661 307.5754693  +6.2699117     6118.512      10638.5     11751.34     90.74322     181.3423     362.5405      1.885     4.09     1194.419     63.91001     771.3585        38     1.627     1.204 -54.30   0
        25    897.0975    971.8464 307.5348970  +6.2745312     1464.066     2182.092     2108.137     90.88715     181.1981     362.7567      1.586     3.80     1193.046     63.91001     247.9504        13     1.175     0.733 -57.47   0
        26    220.0004    970.4917 307.8166771  +6.2525295      1531.56     3180.646     3776.604     90.02016     180.7648     362.2159      2.210     5.62     1197.627     63.91001     184.5824        26     1.450     1.290  83.60   0
        27    723.1954    967.5985 307.6074020  +6.2705052     5857.388     10673.39     11642.85     90.16524     180.8371     362.2881      1.959     4.34     1195.091     63.91001     668.8966        39     1.620     1.257 -57.45   0
        28    438.2198    967.8844 307.7259691  +6.2608937     2742.931     5906.406     6708.876     90.45469     180.9816     362.5045      2.184     5.51     1197.753     63.91001     290.4038        34     1.729     1.272 -55.32   0
        29    579.2350    966.7599 307.6673321  +6.2660591     3186.607     6229.731     7576.157     90.59907     181.1981     362.3602      2.173     5.02     1196.605     63.91001     322.7334        31     1.632     1.207 -42.24   0
        30    756.0533    968.2669 307.5937072  +6.2713221     651.3486     1192.762     2184.713     90.88715     181.2702     362.4684      1.370     3.75     1194.737     63.91001     119.6636         5     1.145     0.353 -14.14   0
        31    715.2754    966.8677 307.6107223  +6.2705435     927.3572     1812.609       2218.5     91.03084     181.4864     362.5766      2.071     6.24     1195.099     63.91001       99.245        12     1.070     1.023  47.06   0
        32    754.8663    962.8212 307.5943852  +6.2735314     1105.472     1823.388     2253.955     90.45469     181.3423     362.5045      1.781     4.11     1194.593     63.91001     155.0176        12     1.023     0.909 -42.61   0
        33    962.5590    957.0454 307.5081573  +6.2828165     6423.591     10438.41     10745.39     90.74322     181.3423     362.3963      1.732     3.83     1191.102     63.91001     849.8944        32     1.548     1.035 -57.90   0
        34    247.2341    957.8462 307.8057756  +6.2586616     932.3703     1546.226     2007.142     90.45469     181.2702     362.5045      1.842     5.72     1197.496     63.91001     113.5813        10     1.139     0.809 -30.62   0
        35    722.3301    955.1742 307.6081823  +6.2756070     2067.729      4042.23     5501.642     90.45469     181.1981     362.5045      2.644     4.89     1194.775     63.91001     273.2733        27     1.548     1.191 -33.45   2
        36    369.2756    952.8513 307.7551659  +6.2648007     1083.812     2140.938     1272.265     90.88715     181.4144     362.5766      2.023     5.71     1198.237     63.91001     163.9518        15     1.198     1.165 -15.42   0
        37    551.4274    942.9354 307.6797099  +6.2749708     2980.912     6148.702     6961.115     90.45469     181.3423     362.4684      2.190     5.18      1195.97     63.91001     339.7777        36     1.740     1.271 -52.96   0
        38    301.7564    941.6999 307.7836384  +6.2671508     10425.53     21864.99     25311.03     90.88715     181.1981     362.8288      2.264     4.94      1197.66     63.91001     1031.589        66     2.015     1.536 -40.71   0
        39    755.8359    942.1686 307.5946801  +6.2820922     6335.595     11483.53     12373.01     90.45469     181.0538     362.2881      1.935     4.40     1193.893     63.91001     729.2562        39     1.627     1.246 -45.60   0
        40    521.5981    943.8239 307.6920917  +6.2736097     739.6002     1397.307     1572.407     90.45469     180.9816     362.3241      1.947     2.37     1196.423     63.91001     126.3478         5     0.709     0.449  68.88   0
        41    817.3932    941.4204 307.5690906  +6.2844476     962.8597      1720.59     2269.536     90.45469     181.0538     362.3602      1.987     5.64       1192.4     63.91001     141.6779        10     1.220     0.735 -80.08   0
        42    272.4802    938.8172 307.7959177  +6.2673630     593.9247     1082.161     1384.353     90.45469     180.9816     362.4684      1.882     4.77     1197.268     63.91001     84.12012         6     1.375     0.469  23.46   0
        43    917.2578    935.4957 307.5277353  +6.2902117     7969.911     13400.18     14515.17     90.74323     181.3423     362.7207      1.824     3.87     1190.215     63.91001     976.4568        38     1.657     1.121 -51.04   0
        44    548.7326    935.1093 307.6810963  +6.2781127     5954.854     12133.08     14265.58     91.03084     181.4864     362.5766      2.215     4.95     1195.652     63.91001     596.7332        45     1.844     1.369 -55.41   0
        45   1012.5635    931.1812 307.4882219  +6.2951564     4790.807     7616.065     8302.062     90.31007      181.126     362.3241      1.716     3.76     1189.697     63.91001     656.7344        35     1.685     1.052 -53.57   0
        46    890.8063    931.7301 307.5388694  +6.2908884     10880.51     18941.74     20293.48     90.31007     180.9094     362.4323      1.849     3.90     1190.516     63.91001     1434.506        44     1.606     1.253 -51.45   0
        47    603.5646    932.9919 307.6583522  +6.2808138     924.4834     1762.735     1999.349     90.31007      181.126     362.3241      1.876     6.24     1194.955     63.91001     121.1663        10     1.428     0.766 -25.30   0
        48    535.1945    930.8188 307.6868749  +6.2794332     2968.377     5937.467     7193.083     90.45469     180.9094     362.3602      2.323     5.28      1195.71     63.91001     313.3197        37     1.678     1.434 -25.54   0
        49    644.5987    930.2416 307.6413706  +6.2833160     975.6142     1682.616      1816.57     90.16524     180.9816     362.2159      1.872     5.11     1194.546     63.91001     126.3359         9     0.993     0.744 -16.82   0
        50    488.4322    927.3396 307.7064508  +6.2793111     1453.195     3150.702     2965.969     90.59907     181.4144     362.5045      2.148     5.79     1196.455     63.91001     170.7111        19     1.345     1.134  27.50   0
        51    922.5680    919.3005 307.5260723  +6.2970759     39208.66     66252.28     70582.11     90.88715     181.1981     362.7567      1.845     3.99     1189.362     63.91001     4916.734        69     1.732     1.282 -58.74   0
        52    459.8221    919.5381 307.7186201  +6.2815785     6192.427     6161.666     5133.948     90.45469     181.3423     362.4684      0.750     1.44     1196.476     63.91001     2181.772         7     0.595     0.451 -42.94   0
        53    230.1878    917.7641 307.8142305  +6.2746431     1250.662     2777.793     3097.683     90.31007      181.126      362.252      2.364     7.45     1196.464     63.91001     165.1942        21     1.349     1.287  73.01   0
        54    820.5391    913.1840 307.5687357  +6.2962125     1988.763     3494.542     4223.813     90.31007     181.2702     362.3602      1.977     4.69     1190.885     63.91001     224.6512        21     1.451     1.053 -46.53   0
        55    768.8183    911.0825 307.5903289  +6.2953608     5321.064      10139.1     11684.48     90.45469     180.9816     362.5405      2.084     4.33     1191.974     63.91001     630.0215        42     1.820     1.254 -53.63   0
        56    239.1519    909.9947 307.8107647  +6.2781510     977.3235     1787.196     1837.255     90.16523      181.126     362.2159      2.032     5.58     1196.456     63.91001     136.2609        10     1.056     0.831 -47.08   0
        57     63.4320    908.3127 307.8839366  +6.2729667      1925.97     3857.513     3974.134     91.03084      181.126     362.5766      2.167     6.09     1194.932     63.91001     205.6093        28     1.547     1.346 -32.90   0
        58    956.8007    906.0598 307.5122739  +6.3036801     6219.157     10661.83     11524.28     90.02016     181.0538     362.2159      1.833     3.95     1188.775     63.91001     807.9174        35     1.551     1.198 -58.33   0
        59    930.1958    898.2545 307.5236086  +6.3060202     1826.572     3386.729     3912.118     90.16523     181.0538     362.2159      1.957     5.00     1188.483     63.91001     230.1162        22     1.543     0.964 -58.78   0
        60    263.7345    894.2303 307.8010716  +6.2854823      2829.98     6154.064      6811.36     90.59907     181.3423     362.5045      2.253     5.73     1196.623     63.91001     316.4275        38     1.783     1.401 -74.51   0
        61    790.0704    894.5743 307.5820435  +6.3028846     1046.781     1914.191     1888.284     90.45469     181.1981     362.5045      1.893     4.75     1190.484     63.91001     147.1067        10     1.088     0.775 -53.44   0
        62    651.4989    893.9684 307.6397272  +6.2985246      3233.11     6569.109     7045.798     90.88715     181.1981     362.7207      2.091     5.14     1192.914     63.91001     326.4917        37     1.636     1.391 -54.10   0
        63     32.9772    891.8206 307.8971699  +6.2787569     1568.218     3230.698     3608.212     90.59907      181.126     362.5045      2.113     5.31     1194.659     63.91001     201.1799        22     1.502     1.114 -44.07   0
        64   1000.3155    892.9837 307.4946071  +6.3105239     735.4705     968.7325      1019.52     90.45469     181.0538     362.4684      1.228     3.96     1188.301     63.91001     130.1189         6     1.064     0.423  78.60   0
        65    882.4260    890.4929 307.5437493  +6.3076390     739.5804     1259.463     905.0132     91.03084     181.0538     362.3963      1.435     4.47     1189.117     63.91001     125.6156         8     1.238     0.460 -80.90   0
        66    576.2125    886.4301 307.6713108  +6.2991301     1068.653     2222.508     1864.376     90.31007     181.0538     362.5045      2.006     7.41     1194.012     63.91001     138.3828        14     1.361     1.129  57.10   0
        67   1007.6130    885.1725 307.4918338  +6.3139917     760.6852     1434.015     1170.724     90.31007      181.126     362.4684      2.060     4.72     1188.009     63.91001      122.718         8     1.111     0.569 -64.00   0
        68    615.8669    882.5884 307.6549398  +6.3020374     906.0276     1816.329     2097.025     90.31007      181.126     362.4323      2.041     7.44     1193.243     63.91001     109.9884        13     1.481     1.047 -54.20   0
        69    295.9688    880.4643 307.7881265  +6.2922439     856.3228     1963.828     2329.218     90.59907     181.4144     362.5045      2.191     7.27     1196.836     63.91001      139.382        11     1.610     0.920   5.39   0
        70    762.0474    874.2800 307.5943908  +6.3103333     426.9439     964.7491     1564.744     90.88715     181.3423     362.5766      2.912     4.65     1189.894     63.91001     101.0592         5     1.197     0.514  58.18   2
        71    899.4906    872.9808 307.5372394  +6.3154375      6108.22     10216.76     10572.64     90.74322     181.0538     362.4323      1.784     3.92     1188.179     63.91001     786.6041        37     1.615     1.146 -53.31   0
        72    435.8002    871.1611 307.7302567  +6.3007540      1173.23     2864.173      3287.44     89.72929      181.126     362.2881      2.474     7.19     1194.517     63.91001     134.9801        15     1.592     0.910   2.39   2
        73    337.3603    868.8986 307.7712959  +6.2984024     6034.366     13417.77     14740.96     90.88715     181.1981     362.8288      2.267     5.39     1195.852     63.91001     622.8538        52     1.906     1.490 -52.46   0
        74    257.4511    867.8323 307.8045832  +6.2961730     4356.025      9742.56     10053.76     90.74323     181.4144     362.5045      2.212     5.28     1196.208     63.91001     426.9482        45     1.772     1.485 -39.06   0
        75    586.2857    861.8238 307.6679526  +6.3096268      808.726     1783.521     2173.939     90.88715     181.0538     362.4323      2.472     6.75     1193.088     63.91001     112.9342        10     1.330     0.960 -25.51   0
        76    915.5165    858.2110 307.5310691  +6.3220689     961.8297     1610.299     1978.065     90.45469     181.0538     362.3963      1.652     5.69     1187.115     63.91001     113.5844        12     1.067     0.854 -23.45   0
        77    871.5732    856.6278 307.5494094  +6.3212632     589.3719     857.5112     1232.255     90.31008      181.126     362.3963      1.274     3.66      1187.97     63.91001     102.4081         5     1.357     0.283 -44.82   0
