#   1 NUMBER                 Running object number                                     
#   2 X_IMAGE                Object position along x                                    [pixel]
#   3 Y_IMAGE                Object position along y                                    [pixel]
#   4 ALPHA_J2000            Right ascension of barycenter (J2000)                      [deg]
#   5 DELTA_J2000            Declination of barycenter (J2000)                          [deg]
#   6 FLUX_APER              Flux vector within fixed circular aperture(s)              [count]
#   9 FLUXERR_APER           RMS error vector for aperture flux(es)                     [count]
#  12 FLUX_RADIUS            Fraction-of-light radii                                    [pixel]
#  13 FWHM_IMAGE             FWHM assuming a gaussian core                              [pixel]
#  14 BACKGROUND             Background at centroid position                            [count]
#  15 THRESHOLD              Detection threshold above background                       [count]
#  16 FLUX_MAX               Peak flux above background                                 [count]
#  17 ISOAREA_IMAGE          Isophotal area above Analysis threshold                    [pixel**2]
#  18 A_IMAGE                Profile RMS along major axis                               [pixel]
#  19 B_IMAGE                Profile RMS along minor axis                               [pixel]
#  20 THETA_IMAGE            Position angle (CCW/x)                                     [deg]
#  21 FLAGS                  Extraction flags                                          
         1    931.4358     28.9227 307.5552569  +6.6940673      4017.71     6010.226     5682.663     77.78867     155.5156     310.8458      1.580     3.54      820.339     54.78618      617.323        25     1.391     0.916 -34.26   0
         2    435.9900     17.0378 307.7615054  +6.6824043     6340.475     9823.477     10199.88     77.29319     155.2683     310.5367      1.576     3.65     823.8113     54.78618     1011.277        30     1.449     0.989 -31.84   0
         3     36.9180     16.5795 307.9273184  +6.6691849       8451.4      13147.5     13745.53     77.66509     155.1446     310.7531      1.668     3.68     826.8422     54.78618     1156.039        36     1.554     1.011 -30.25   0
         4    511.6343     14.0419 307.7301779  +6.6861765     935.2656     1415.045     1409.598     77.66509     155.4538     310.6604      1.661     6.00     821.5797     54.78618     139.3904        13     1.403     0.721 -24.63   0
         5    332.5640     11.9581 307.8046467  +6.6810316     12784.05     19719.97     20904.16     77.66509     155.4538     310.6913      1.646     3.83     829.2946     54.78618     1833.409        43     1.646     1.001 -34.11   0
         6    427.2579     12.6852 307.7652798  +6.6839084     916.2544     1392.909     1849.607     77.91204     155.4538     310.9076      1.645     5.85     824.2495     54.78618     123.3962        11     1.144     0.842 -45.14   0
         7    106.1732     12.3580 307.8986892  +6.6732585      2426.21     3954.167      4370.36     77.54132     155.4538     310.6604      1.687     4.16     828.0031     54.78618     324.1292        22     1.519     0.870 -39.63   0
         8    800.6752     11.0946 307.6101845  +6.6970627     910.2463     1189.855     993.0495     77.66509     155.6391     310.8149      1.372     3.49     820.2801     54.78618     161.9908        10     1.074     0.616 -46.59   0
         9    398.5201      9.9942 307.7773101  +6.6840555     2278.755     3590.382     3548.008     77.54132     155.0207     310.5985      1.645     4.22     826.0706     54.78618      334.963        23     1.539     0.890 -31.35  16
        10     97.4567     11.0591 307.9023543  +6.6735014      1613.09     2209.382     2256.805     78.03522     155.4538     310.8458      1.494     3.95     828.0729     54.78618     236.4712        14     1.261     0.724 -49.17   0
        11    659.5674      5.4336 307.6690035  +6.6946829     10832.93      16697.9     17306.79     77.41736     155.2065     289.0717      1.669     3.69     821.4128     54.78618      1670.93        44     1.606     1.063 -34.19  24
        12    993.9375      7.1389 307.5300168  +6.7051449     704.5489     1139.895     1064.026     77.91204     155.4538     304.3509      1.733     3.16     817.2631     54.78618     126.3538         6     0.910     0.443 -36.30  16
        13    823.9224      4.9661 307.6007309  +6.7003693     1578.719     2531.929     3157.089     77.78867     155.4538      284.044      1.925     3.96     819.9436     54.78618     231.4924        18     1.336     0.851 -44.66  16
        14    537.2875      4.9841 307.7198241  +6.6907752     1388.951     2158.163     2410.386     77.66509     155.2065      284.213      1.686     3.97     821.5532     54.78618     203.5146        15     1.242     0.817 -23.98  16
        15     77.8638      6.1762 307.9106590  +6.6748578     646.9597     1284.276     1204.428     77.54132     155.4538     296.4859      1.899     4.52     827.2599     54.78618     92.90668         8     1.388     0.418 -28.36  16
        16    894.5890      2.7431 307.5714435  +6.7036461     1609.958     2567.388     2715.373     77.29319      142.022     255.3765      1.774     4.42     819.3992     54.78618     198.1155        17     1.269     0.881 -44.52  24
        17    259.6776      2.4110 307.8352502  +6.6825254     6619.863     10176.63     10694.42     77.54132     138.1829     250.7077      1.685     4.32     827.7976     54.78618      924.484        31     1.723     0.919 -21.11  24
        18    650.6778      1.6261 307.6728249  +6.6959573     7014.028     8767.385     9080.713     71.21361     127.9325      238.737      1.195     3.17     821.2637     54.78618     1515.535        22     1.299     0.753 -11.86  24
        19    420.6671      1.6525 307.7683894  +6.6882420     6286.875     8058.537     7994.814     71.48285     128.3073      239.139      1.272     3.41     824.5453     54.78618     1217.816        25     1.416     0.766  -8.78  24
        20    680.3541      1.3503 307.6605039  +6.6970639     3571.318     4381.361     4800.862     67.89951      123.579     234.1057      1.101     2.48     821.3807     54.78618     917.1587        15     1.286     0.547  -2.61  24
        21    629.8864    986.3378 307.6484161  +6.2887270     794.7541       1048.6     915.0924     78.03522     155.6391     310.8149      1.682     5.38     854.3364     54.78618     109.7121         9     1.183     0.691 -50.16   0
        22    740.3840   1023.8599 307.6012846  +6.2769287     480.8008     604.9461     392.8661     64.41513     120.3502     230.5502      1.505     3.60     853.3408     54.78618     122.9681         5     1.105     0.337  -4.49  24
        23    724.5075   1023.8168 307.6078773  +6.2764161     736.9504     1039.347      931.664     65.74342     121.1456     231.0912      1.555     3.87      853.825     54.78618     182.3851         8     1.445     0.385  -1.64  24
        24    370.1028   1022.8441 307.7550388  +6.2649581      1819.98     2599.842     2717.617     76.16659      135.232     246.8469      1.533     3.84     854.8893     54.78618     281.8225        14     1.132     0.797 -18.09  24
        25    118.5943    987.1927 307.8606479  +6.2712349     598.5558     830.1382     548.6564     77.29319     155.2683     310.6604      1.570     3.65      850.809     54.78618      100.258         5     0.998     0.385   5.32   0
        26    821.6875    983.6308 307.5688775  +6.2962519     2161.923     3737.844     4131.795     78.03522     155.2683     310.7531      1.862     4.17     850.7329     54.78618      256.477        25     1.434     1.090 -38.19   0
        27    769.8989    981.4761 307.5904507  +6.2954126     6103.343     10303.04     11480.58     77.54132     155.5773      310.784      1.867     4.08     851.6976     54.78618     768.6865        42     1.770     1.154 -41.47   0
        28    556.8367    980.9070 307.6789255  +6.2885256     963.9621      1521.39     1036.308     78.03522     155.3302     310.8767      1.585     4.40     854.2327     54.78618     147.9657         8     0.881     0.626 -41.81   0
        29    239.5199    980.1821 307.8106837  +6.2781904     1264.277     2379.988     2366.736     77.54132     155.1446     310.7222      1.818     6.68     853.3172     54.78618     210.6607        19     1.902     0.871 -16.85   0
        30    203.8576    980.0740 307.8254922  +6.2770378     881.9846     1481.043     1508.329     77.91204     155.4538      310.784      1.734     4.56      852.341     54.78618     137.6917         8     1.159     0.527 -28.97   0
        31     64.4347    978.4036 307.8834274  +6.2730429     2562.577     4087.199     4177.181     77.04426     155.3302     310.5985      1.689     4.01     850.2592     54.78618     383.4612        24     1.553     0.909 -35.62   0
        32    958.2011    976.4888 307.5124394  +6.3037536     5658.031     10219.19     10704.13     77.16882     155.0207     310.5676      1.910     4.25     848.6863     54.78618     657.5621        39     1.609     1.253 -25.87   0
        33    214.2028    972.3328 307.8214582  +6.2805810     642.8865     1032.505     678.9763     77.29319     155.1446     310.6295      1.649     5.62     852.4373     54.78618     81.80872         8     1.099     0.810  51.25   0
        34    640.7527    970.8741 307.6444233  +6.2954745     564.5679      854.431     1140.493     77.78867     155.5156     310.8149      1.924     3.31     853.8083     54.78618     101.8575         5     0.931     0.342 -44.82   0
        35    932.0070    968.2142 307.5235913  +6.3062966     1845.755     3340.763     3479.274     77.54132     155.2065     310.6604      1.980     4.51     849.1326     54.78618     222.1519        24     1.537     0.977 -54.15   0
        36    791.5510    964.5777 307.5820272  +6.3031121     1300.429     2425.883     2284.694     77.54132     155.5156     310.7222      1.876     5.06     851.0164     54.78618     166.3008        19     1.484     0.949 -48.07   0
        37    652.6432    964.0957 307.6397140  +6.2986705       4348.1     6990.173     7425.634     77.91204      155.392     310.9385      1.757     3.80     853.4607     54.78618     585.6937        31     1.538     1.018 -29.31   0
        38    264.8098    964.3244 307.8007186  +6.2855859     4253.446     6776.541     7306.491     77.54132     155.0207     310.6294      1.689     4.06     853.4444     54.78618     591.4741        30     1.651     0.932 -27.32   0
        39    474.8462    962.5244 307.7135818  +6.2933701     1115.248     1750.131     1910.925     77.78867     155.5156     310.8458      1.728     6.52      854.274     54.78618     166.6826        17     1.617     0.803 -27.31   0
        40     33.4528    961.7304 307.8968512  +6.2788842     2161.321     3515.339     3462.998     77.78867     155.3302      310.784      1.759     3.92     849.3903     54.78618     278.2736        22     1.501     0.879 -32.33   0
        41    884.5393    960.2680 307.5435647  +6.3079944     824.5446     1326.959     1308.977     78.03522      155.392     310.8149      1.808     4.38     849.9434     54.78618     121.6943         6     0.924     0.590 -30.29   0
        42    956.3661    957.9431 307.5138211  +6.3113491     687.4014     1073.098     879.5013     77.78867     155.4538     310.8149      1.777     7.56     848.2875     54.78618     103.0285        10     1.607     0.995   6.82   0
        43    577.2054    956.6594 307.6712828  +6.2992177     1638.268     2389.312     2413.104     77.41736     155.3302     310.5985      1.561     4.08     853.8401     54.78618     223.9081        20     1.381     0.927 -38.38   0
        44    300.8300    957.8179 307.7859838  +6.2894806     750.5662     1339.164     1550.239     77.54132     155.2683     310.7531      1.796     5.05     853.9619     54.78618     113.6461         9     1.167     0.629 -21.53   0
        45   1008.3058    956.6113 307.4923010  +6.3136297     654.2866     1342.553     1524.567     77.66509     155.1446     310.5985      2.759     5.48     846.9559     54.78618     107.5183         9     1.292     0.655 -54.63   0
        46    616.1447    952.6411 307.6552513  +6.3021791     1116.872     1686.489     1635.191     77.78867     155.4538     310.8458      1.507     3.52     853.6152     54.78618     193.2833        11     1.064     0.743 -26.20   0
        47     65.8151    953.4611 307.8836954  +6.2833863     600.7449     1052.675     2057.353     77.41736      155.392     310.5985      1.928     3.50     849.6415     54.78618     91.61182         5     0.800     0.443 -20.10   0
        48    296.6021    950.8080 307.7879749  +6.2922326     1335.507     2075.063     2270.662     77.29319     155.1446     310.5985      1.568     4.91     853.8425     54.78618     170.2588        15     1.389     0.751 -22.35   0
        49    564.5248    948.5778 307.6768186  +6.3021299     666.6401     1071.388     791.5983     77.54132     155.3302     310.7531      1.729     3.72     853.7192     54.78618     137.5877         7     0.888     0.666 -14.24   0
        50    762.8805    946.8586 307.5945239  +6.3094702     712.7113     1191.823     936.1587     78.03522     155.5156     310.8149      1.759     4.91     851.5204     54.78618     119.5742         9     1.306     0.733 -23.51   0
        51    900.8151    943.4233 307.5373706  +6.3154917     6146.035     10296.45     10700.21     77.66509     155.2683     310.7222      1.817     3.93     849.3012     54.78618     734.3898        38     1.605     1.156 -32.26   0
        52    139.7806    944.6320 307.8532870  +6.2895173     609.6951     872.9723     237.4057     77.41736     155.2683     310.6604      1.609     4.84     850.5955     54.78618     88.20703         7     1.069     0.946 -34.51   0
        53    436.7180    940.5583 307.7301491  +6.3011616     2222.135     3372.267     3008.862     77.91204     155.4538     310.7531      1.593     4.08     853.7112     54.78618     302.3702        19     1.399     0.846 -33.46   0
        54    605.7453    940.9526 307.6599608  +6.3066569     506.2216     648.1381     669.6956     77.91204     155.4538     310.8767      1.315     3.86      853.438     54.78618     97.16132         5     0.823     0.519 -34.90   0
        55    338.4609    938.8788 307.7709982  +6.2985615     9441.561     14627.71     15927.86     78.03522     155.5156      310.784      1.692     3.66     853.8264     54.78618     1360.023        41     1.622     1.048 -29.18   0
        56    258.5112    937.7402 307.8042282  +6.2963494     7041.434     11077.67     11879.95     77.78867     155.5773     310.9076      1.712     3.82     852.6647     54.78618     1014.632        37     1.634     1.003 -34.98   0
        57    176.3155    936.2353 307.8384026  +6.2942111     531.3657     1043.417     1215.354     77.91204      155.392      310.784      1.799     4.97     851.0033     54.78618     89.35632         8     1.311     0.533 -59.55   0
        58    586.7906    932.2176 307.6681234  +6.3096291     1132.744     1969.864     1824.917     77.66509     155.2065     310.6913      1.773     5.91     853.3246     54.78618     153.6776        14     1.333     0.738 -27.29   0
        59    771.4840    931.5334 307.5914651  +6.3160845     668.1055     967.2741     777.3839     78.03522     155.7008     310.8767      1.526     3.79     851.2358     54.78618      109.284         6     0.936     0.441  16.37   0
        60    916.7667    928.5231 307.5312460  +6.3221752     973.0497      1859.51     2272.323     77.78867     155.4538      310.784      2.462     7.01     848.6008     54.78618     118.4669        15     1.371     1.004 -47.02   0
        61    149.3048    928.5086 307.8498764  +6.2964936     666.0278     1034.866     537.1957     77.91204     155.9473      310.784      1.710     5.32     850.6314     54.78618     94.38837         8     0.993     0.806 -24.28   0
        62    872.8641    927.3043 307.5495148  +6.3212142      687.026     1235.213     1387.016     77.78867     155.5773     310.8458      1.794     4.48     849.7887     54.78618     92.93091         7     1.241     0.460   0.62   0
        63    752.9974    921.4581 307.5994780  +6.3196268     1486.337     2230.217     2808.027     77.29319     155.2683     310.5676      1.684     4.54     851.3521     54.78618     210.5002        18     1.517     0.766 -25.89   0
        64      3.3387    918.5347 307.9108100  +6.2957037     915.6414     1569.946     1478.255     77.91204      148.243     263.8852      1.828     6.49     847.4214     54.78618     126.9479        12     1.272     0.929 -25.61  24
        65    984.2780    917.1763 307.5035949  +6.3291102     1071.128     1957.098     2845.961     77.54132     155.2683      310.784      2.040     7.28     846.5234     54.78618     125.7321        18     1.425     1.041  -7.57   0
        66    617.2012    918.1409 307.6559698  +6.3164578     673.6769     979.4619     977.2893     77.29319     155.2065     310.5057      1.603     4.02      852.758     54.78618     115.6023         7     1.035     0.519 -24.65   0
        67    538.0137    917.1624 307.6888797  +6.3142125     1114.458     1399.714     1162.907     77.41736     155.2683     310.5367      1.331     3.41     853.0475     54.78618     184.7781        11     1.020     0.717 -70.54   0
        68    671.5358    914.9158 307.6335190  +6.3196060     2379.475     3701.529     3437.881     78.03522     155.5773     310.8767      1.652     4.00     851.8018     54.78618     364.2364        22     1.496     0.869 -32.04   0
        69    961.5929    912.9066 307.5131565  +6.3301170     617.6417     1008.492     1251.176     77.54132     155.1446     310.6295      1.677     5.83     846.9903     54.78618     91.68909         7     1.106     0.866 -87.75   0
        70     68.0421    910.9124 307.8842058  +6.3010267     2859.375     4689.383     4718.336     77.91204     155.4538     310.8458      1.712     4.03      848.735     54.78618     394.0233        26     1.521     0.994 -40.28   0
        71    832.0645    911.5128 307.5669830  +6.3263725     882.8548     1299.404     1318.653     77.91204     155.6391     310.8458      1.544     5.18     850.1389     54.78618     125.2907         8     1.016     0.748 -42.25   0
        72     85.4997    910.3370 307.8769777  +6.3018511     1890.057     2926.511     2740.432     77.66509     155.5156     310.8458      1.623     4.23     849.0715     54.78618      265.656        21     1.427     0.997 -21.83   0
        73    211.6914    909.8440 307.8246051  +6.3062944     2175.096     3344.286     3523.476     77.91204      155.392     310.9385      1.609     4.11     851.1328     54.78618     300.2223        17     1.306     0.801 -41.56   0
        74    949.9151    909.6567 307.5181137  +6.3310695     592.2092     1032.535     1169.867     77.91204     155.4538     310.9385      1.558     4.39     847.2245     54.78618     110.7325         7     0.810     0.676 -11.36   0
        75    245.8656    906.7391 307.8105217  +6.3087235     791.7798      957.766     498.8755     77.91204      155.392     310.8149      1.346     5.77     851.7989     54.78618      140.615        10     1.243     0.760 -29.19   0
        76    666.0748    904.0692 307.6361500  +6.3239015     6657.376      10433.6     10861.91     78.03522     155.5773     310.8149      1.654     3.77     851.7406     54.78618     936.2695        39     1.722     0.994 -28.64   0
        77    351.0201    905.6383 307.7669020  +6.3127057     829.3405     1490.075     1802.979     77.54132     155.2683     310.5676      1.850     5.78     853.0043     54.78618     121.8851         9     1.405     0.744 -14.56   0
