#   1 NUMBER                 Running object number                                     
#   2 X_IMAGE                Object position along x                                    [pixel]
#   3 Y_IMAGE                Object position along y                                    [pixel]
#   4 ALPHA_J2000            Right ascension of barycenter (J2000)                      [deg]
#   5 DELTA_J2000            Declination of barycenter (J2000)                          [deg]
#   6 FLUX_APER              Flux vector within fixed circular aperture(s)              [count]
#   9 FLUXERR_APER           RMS error vector for aperture flux(es)                     [count]
#  12 FLUX_RADIUS            Fraction-of-light radii                                    [pixel]
#  13 FWHM_IMAGE             FWHM assuming a gaussian core                              [pixel]
#  14 BACKGROUND             Background at centroid position                            [count]
#  15 THRESHOLD              Detection threshold above background                       [count]
#  16 FLUX_MAX               Peak flux above background                                 [count]
#  17 ISOAREA_IMAGE          Isophotal area above Analysis threshold                    [pixel**2]
#  18 A_IMAGE                Profile RMS along major axis                               [pixel]
#  19 B_IMAGE                Profile RMS along minor axis                               [pixel]
#  20 THETA_IMAGE            Position angle (CCW/x)                                     [deg]
#  21 FLAGS                  Extraction flags                                          
         1    931.9038      7.4848 307.5495622  +6.9833283     4603.315     12208.31      15734.8     96.87039     193.7408     381.2623      2.760     8.21     1290.483     68.11731     541.4786        52     2.386     1.490  78.20  19
         2    935.3322      6.4823 307.5481566  +6.9838591     3086.982     5606.571     6200.225     97.02355     193.5874     372.0777      1.976     5.28     1290.207     68.11731     346.5458        18     1.653     0.823  83.02  19
         3    613.6996      7.1701 307.6830713  +6.9728083      2670.95      10548.6     15172.11     96.87039     192.9729     378.6833      3.272    11.60      1299.02     68.11731     365.9631        69     2.604     2.036 -44.44  18
         4    611.0549      3.9633 307.6842859  +6.9740511     2427.597     3884.303      4881.44       96.717     190.4168     338.3449      1.781     4.15     1299.249     68.11731      284.027        15     1.119     0.951 -51.94  19
         5    767.7302      6.6824 307.6184663  +6.9781711     1062.082     2594.232     3921.981     97.17646     193.5874      374.147      3.059     4.89     1293.263     68.11731     147.7883        12     1.317     0.771  24.61  18
         6    855.1238      2.3084 307.5819440  +6.9829112     645.2261      1184.26     1088.743     95.79145     170.8537     309.8013      1.679     4.62     1291.964     68.11731     99.58728         5     1.340     0.452 -60.90  24
         7   1013.9722      1.3347 307.5153311  +6.9886228     2799.139     4071.988     4788.995     83.71504     153.4561     290.7133      1.394     4.48     1283.602     68.11731     612.7875        15     1.559     0.513   1.75  24
         8    770.7045      2.2456 307.6173635  +6.9801129     767.5312     2006.125      3377.59     95.63633     169.3698     308.8412      3.375     4.82     1292.889     68.11731     139.5078         6     1.132     0.581  20.39  24
         9    930.7072    987.0675 307.5181127  +6.5765349      910.944     2069.144     2617.151       96.717     193.5107      386.484      2.553     6.76      1357.33     68.11731     128.5505        10     1.328     0.966 -14.54   0
        10    486.4264   1023.2874 307.7031606  +6.5466273     2584.062     3957.492     4300.115     89.87357     160.1786     298.1765      1.693     5.79     1365.314     68.11731     357.1528        18     1.603     0.720   6.51  24
        11    349.5923   1020.3581 307.7606107  +6.5432505     10022.66     31849.53        37749     96.10096     193.0498     348.4199      2.753     6.73     1366.677     68.11731     1256.169        78     2.122     1.994  12.84  24
        12    215.8151   1021.6906 307.8166384  +6.5382006     1335.407     2972.238     2612.045     96.56335     183.7502     327.5529      2.081     8.23     1365.749     68.11731     178.0256        25     2.055     1.120  17.37  24
        13    405.6577    985.0054 307.7382697  +6.5598121     604.5426      1192.06     1690.513     96.25533     193.1267     386.0996      1.859     5.16     1364.836     68.11731     121.5979         6     1.537     0.489  49.47   0
        14    354.1518    984.9294 307.7598615  +6.5581140     775.3245     2074.981     2671.678     96.87039     193.2036      386.484      2.537     6.00     1365.406     68.11731     111.4011        10     1.482     0.682  -4.11   0
        15    693.0083    977.0000 307.6180819  +6.5727687     1607.262     2609.484     3837.856     95.94633     192.8189     386.1765      1.851     6.01     1361.375     68.11731     255.1914        11     1.623     0.625  10.06   3
        16    694.5729    974.2141 307.6175171  +6.5739778     2830.755     6173.181     7548.162     96.40947     193.0498     386.3303      2.506     8.21     1361.093     68.11731      310.921        39     2.006     1.775  43.41   2
        17    132.4554    976.7166 307.8530557  +6.5540687     910.3193     1864.826     2352.948     96.87039     193.2804     386.5608      1.792     4.50     1363.592     68.11731     137.1385         8     1.225     0.470  47.13   0
        18     29.3731    975.2668 307.8963093  +6.5511983     713.5571     1536.615     1583.881     96.40947     193.1267     386.3303      2.399     5.57     1361.461     68.11731     104.6942         7     1.309     0.667  43.06   0
        19    711.1763    973.0773 307.6105943  +6.5750056     1125.719     3390.305     4165.754     96.40947     193.1267     386.4071      2.775     9.54       1360.3     68.11731     143.9791        28     1.731     1.466 -34.69   0
        20    301.7268    968.8068 307.7823649  +6.5630468     726.6683     2129.378     3014.535     96.40947     192.7419     386.3303      2.595     5.42     1364.637     68.11731     101.3602         8     1.396     0.595 -67.60   2
        21    949.0757    963.8073 307.5111706  +6.5868064     3289.122     7557.315     8527.811     96.40947     192.6649     386.2534      2.302     5.32     1356.331     68.11731     412.2571        40     1.703     1.469 -79.15   0
        22    428.3348    963.1459 307.7294807  +6.5696497     921.8659     1971.258     2154.403     96.87039     193.2036     386.4071      2.380     6.59     1363.802     68.11731     122.1385         9     1.314     0.927  18.43   0
        23    190.2096    960.0622 307.8293954  +6.5629275     1989.413     7067.847     9049.308     96.10096     193.0498      386.215      2.930     7.80     1363.455     68.11731     302.5331        56     2.094     1.930  76.74   0
        24    324.0443    950.2151 307.7736202  +6.5715162     842.8657      2092.83     2529.543     96.25533     193.0498     386.1765      2.299     5.14     1363.957     68.11731      120.394         7     1.400     0.534 -23.75   0
        25     96.3624    946.8027 307.8691677  +6.5652736      632.949     1140.924     1582.895     95.79145     192.9729      386.215      1.932     2.52     1362.098     68.11731     124.1276         5     0.738     0.427 -68.49   0
        26    246.6226    944.9365 307.8062462  +6.5711054     631.2682      1314.53     1592.943     96.40947     193.2804     386.2918      2.183     4.63     1363.173     68.11731      95.5459         5     1.027     0.593 -17.51   0
        27    665.4819    941.2252 307.6307899  +6.5867016     1413.592     2732.633     4200.079     96.56335     192.9729     386.4456      2.318     6.74     1359.733     68.11731     205.0206        17     1.892     0.674  23.41   3
        28    667.4595    938.0366 307.6300651  +6.5880918     2222.424     4438.109      5710.89     96.87039     193.2804     386.4456      2.267     6.67     1359.446     68.11731     290.6921        30     1.958     1.110  24.04   3
        29    505.1915    941.2256 307.6979821  +6.5813299     836.0505     1803.968     2403.703     96.40947     193.0498     386.2534      2.062     6.86      1362.21     68.11731     132.8085        10     1.730     0.763  31.64   0
        30    846.5822    939.5096 307.5549285  +6.5934720     800.1403     1892.204     2892.001     96.56335     192.9729     386.3303      2.416     5.17     1357.876     68.11731     119.9011         7     1.710     0.442  62.35   0
        31    607.7922    938.9467 307.6550476  +6.5857155     916.5181     2344.319     2555.693     96.25533     193.0498     386.0996      2.483     6.95     1361.295     68.11731     116.5073        12     1.508     0.897 -44.08   2
        32    164.9079    927.2155 307.8410803  +6.5757141     720.4193     1682.205     2420.518     96.56335     193.0498     386.2918      2.533     5.60     1362.152     68.11731     124.7736         6     1.314     0.673  45.88   0
        33    167.2475    923.7475 307.8402136  +6.5772328     884.6931     2069.081     2925.407     97.02355     193.2036      386.484      2.714     6.31      1362.03     68.11731     127.2979        11     1.822     0.613  29.32   0
        34    398.0000    915.9985 307.7437419  +6.5882075     5343.754     8989.116     10176.15     95.94633     192.6649     386.0612      1.806     5.10     1362.438     68.11731     680.3801        21     1.567     0.891  81.86   3
        35    401.3468    913.6194 307.7424169  +6.5893077     8910.759     21929.14     30583.94     96.25534     193.2804      386.215      2.843     8.16     1362.324     68.11731     1008.637        80     2.498     1.983  66.73   3
        36    724.6335    915.3235 307.6068399  +6.5994365     3833.764     6368.507     7785.719       96.717     193.2804     386.4071      1.880     5.95     1357.355     68.11731     479.9829        21     1.705     0.851  45.44   3
        37    726.7332    912.4975 307.6060520  +6.6006802     5719.156     13121.98     16425.15     96.87039     193.3572     386.5224      2.598     6.24     1357.175     68.11731      663.696        53     2.282     1.392  31.58   2
        38     86.7961    909.2261 307.8744136  +6.5805532     721.2052      1895.39     2752.548     96.25533     193.0498     386.2534      2.444     3.51     1360.431     68.11731      98.6366         5     1.019     0.350  44.37   0
        39     90.5023    907.9331 307.8729026  +6.5812149     1082.861     2191.056     2521.783     96.87039     193.3572     386.5224      2.321     4.28     1360.377     68.11731     148.9819         7     0.902     0.580  60.88   2
        40    524.6087    900.1099 307.6911888  +6.5990531     1515.947     5371.718     6931.129     96.40947     192.8959     386.1765      2.914     8.88     1360.397     68.11731     229.6523        40     2.119     1.804 -39.73   0
        41    487.2576    899.1162 307.7068789  +6.5982129     909.4882     2424.792     3337.303     96.87039     193.2804     386.5224      3.091     7.86      1360.78     68.11731     107.4758        16     1.937     0.891  -0.76   2
        42    831.4576    896.6890 307.5626661  +6.6107468     4616.888     13812.64     16158.78       96.717     193.2036     386.5992      2.679     6.71     1355.985     68.11731     591.9518        62     1.982     1.904 -59.62   0
        43    918.0089    894.5117 307.5264527  +6.6145426     4666.512     12663.83     14864.44     96.40947     192.8959     386.1765      2.589     6.18     1353.956     68.11731     602.1667        58     1.918     1.841 -71.25   0
        44    630.4472    898.3193 307.6468794  +6.6033437      650.499     1574.497     3436.574     96.87039     193.2804      386.484      3.766     5.47     1358.781     68.11731     111.2516         5     1.245     0.678 -42.55   0
        45    884.8146    895.7961 307.5403267  +6.6129006     1278.558     2867.237     3694.597     96.40947     192.8189     386.2534      2.501     7.00     1354.988     68.11731     152.6744        16     1.459     0.940 -60.79   2
        46    628.8320    892.6853 307.6477407  +6.6056290     948.0459     2320.512     3241.974     96.87039     193.0498     386.3687      2.470     4.96     1358.593     68.11731     192.4453        10     1.460     0.553  -2.07   2
        47    451.4790    884.2524 307.7223643  +6.6031841     967.9725     2175.833     3261.132     96.87039     193.2804     386.4456      2.913     3.49     1360.589     68.11731     145.2717         8     0.959     0.795  21.99   2
        48    437.0645    888.0073 307.7282838  +6.6011412     690.0595     1582.107     2109.461     96.25534     192.9729     386.2534      2.236     4.79     1360.884     68.11731     87.17773         6     1.313     0.495  12.06   0
        49    285.0616    882.4598 307.7921847  +6.5983386      2242.53     7984.658     11929.31     96.87039     193.2804      386.484      3.333     9.87     1361.693     68.11731     250.2313        74     2.553     2.097 -84.55   0
        50    820.9814    887.4083 307.5673608  +6.6142501     662.3274     879.6288     1851.808     96.56335     192.8959     386.2534      1.412     4.22     1355.491     68.11731     99.45996         5     0.812     0.626 -87.64   1
        51    769.3634    886.0347 307.5890450  +6.6130945     852.5521     2305.007      3127.43     96.56335     192.9729     386.1381      2.728     7.91     1355.624     68.11731     118.7345        13     1.541     1.135 -53.84   0
        52    681.7314    882.8376 307.6258865  +6.6114895     13554.46     46362.87     58900.68       96.717     193.2804     386.5608      2.915     7.24      1356.95     68.11731     1680.205       103     2.241     2.209  32.71   0
        53    822.7452    884.3148 307.5667223  +6.6155937     792.0438      2078.92     2248.309     96.87039     193.2804     386.6376      2.509     7.21     1355.292     68.11731     125.6566        11     1.770     0.823  27.42   0
        54    915.6801    881.3123 307.5278594  +6.6199456     1367.032     3495.754     4116.824     96.56335     193.5874     386.5992      2.533     7.94     1353.095     68.11731     188.8324        28     1.688     1.412 -21.98   0
        55    849.4172    879.8063 307.5556878  +6.6183572     3238.736     9297.513     11035.58     96.40947     192.9729     386.2534      2.607     6.54     1354.788     68.11731     400.8425        51     1.891     1.816 -63.64   0
        56    952.2865    880.6387 307.5125347  +6.6214476     754.3428     1756.489     1615.827     96.87039     193.2036     386.4456      2.109     5.92     1352.058     68.11731     104.7471         7     1.582     0.623  78.45   0
        57    393.2752    879.0202 307.7469349  +6.6034027     1796.239     6078.667     7919.782     96.40947     193.0498     386.3687      2.985     8.80     1361.124     68.11731     233.2305        50     2.031     1.959 -21.33   0
        58     50.9814    870.7576 307.8906918  +6.5953186     1706.359     5972.398     7462.503     96.25533     193.0498     386.1765      2.862     7.59     1358.376     68.11731     276.8367        47     2.126     1.862  56.42   0
        59    221.0870    867.5020 307.8194935  +6.6023979     10149.39     39372.88     52156.13     96.87039     193.8174      386.484      3.097     7.83     1361.257     68.11731       1584.8        99     2.362     2.246  61.37   0
        60    194.8392    870.8513 307.8303862  +6.6001241     1642.992     3364.333     4842.761     96.56335     193.2804     386.4456      2.441     8.37     1360.546     68.11731     196.4315        23     1.932     1.013  26.36   3
        61    197.1173    867.3079 307.8295477  +6.6016720     2520.066     5854.306     7607.967     96.56335     193.6641     386.5608      2.529     7.09     1360.484     68.11731     309.8452        35     2.077     1.125  29.12   3
        62   1006.7789    869.5898 307.4900495  +6.6278541     753.6552     1893.634     2737.421     96.40947     192.9729     386.2534      2.807     7.00     1349.702     68.11731     121.3649         9     1.821     0.753  80.88   0
        63    343.3121    864.8312 307.7683449  +6.6076159     12453.33     24995.24     28819.14     97.02354     193.0498     386.3687      2.155     7.37     1361.325     68.11731     1269.684        41     2.171     1.008  41.21   3
        64    345.7826    861.4639 307.7674197  +6.6090970     18034.81     44090.29     54801.39     96.25534     193.2036     386.2534      2.582     7.60      1361.22     68.11731     2139.974        76     2.512     1.517  36.67   3
        65    101.0059    867.3386 307.8698351  +6.5984236     1032.963      2216.85     2973.335     96.10096     193.0498     386.1765      2.295     5.83     1358.234     68.11731     152.4771        11     1.459     0.655  16.60   3
        66    102.2801    863.2442 307.8694357  +6.6001665     1711.486     3882.674     5416.965     96.87039     193.2804     386.4456      2.605     8.51     1358.134     68.11731     206.0129        27     1.952     1.247  35.09   2
        67    247.8698    862.9993 307.8084142  +6.6051683      4174.37     8841.758     10892.84     96.25534     192.7419      386.215      2.241     7.64     1361.261     68.11731     454.0369        29     2.125     0.918  32.12   3
        68    250.0401    859.4568 307.8076208  +6.6067121     6763.693     16835.26     23689.03     96.87039     193.3572      386.484      2.953     7.50      1361.13     68.11731     786.7544        78     2.957     1.577  22.10   3
        69    684.1400    858.8214 307.6256617  +6.6215422     10676.85     38163.81     49192.96     96.40947     193.2036     386.3303      2.985     7.77     1355.946     68.11731     1361.992       102     2.258     2.234 -58.52   0
        70      2.6973    856.6625 307.9113954  +6.5995433     3846.339     8311.122     8773.855     96.56335     176.2436     316.9557      2.199     6.84     1358.053     68.11731     537.3353        40     2.030     1.323  88.19  24
        71    733.6084    857.8417 307.6049552  +6.6236047     611.9445     1029.828     1569.601     96.10096     193.0498     386.1381      1.900     5.52       1354.2     68.11731     114.2501         6     1.421     0.604  39.55   0
        72     36.5736    853.8351 307.8972883  +6.6018592     757.0876     1250.904      1601.61     96.10096     192.9729     386.1381      1.848     4.21     1358.036     68.11731     106.9281         7     1.292     0.391  75.79   0
        73    943.7315    838.4063 307.5174977  +6.6386982     1016.121     2504.347     3890.375     96.25534     192.8189     386.2534      3.034     8.33     1348.712     68.11731     133.5216        14     1.809     1.072  50.81   0
        74    219.9258    833.7740 307.8210883  +6.6163629     8165.402     33934.02     46675.26     96.40947     193.1267     386.4071      3.179     8.31     1359.896     68.11731     1460.098       107     2.412     2.340  46.08   0
        75    535.0880    833.9084 307.6889632  +6.6268925     728.9659     2120.599     3076.582     96.87039     193.8174     386.5992      3.223     8.87     1356.898     68.11731     122.8923        13     1.835     1.197  11.44   0
        76    649.5020    831.4980 307.6410763  +6.6317276     2233.879     4123.135     4845.619     96.87039     193.7408     386.2534      2.181     6.99     1354.897     68.11731     262.2698        19     1.886     0.726  60.44   3
        77    651.9910    828.4626 307.6401321  +6.6330713     2843.773      6902.49     8992.737     96.10096     193.0498      386.215      2.616     7.65     1354.691     68.11731     343.5496        45     2.339     1.542  50.74   3
