#   1 NUMBER                 Running object number                                     
#   2 X_IMAGE                Object position along x                                    [pixel]
#   3 Y_IMAGE                Object position along y                                    [pixel]
#   4 ALPHA_J2000            Right ascension of barycenter (J2000)                      [deg]
#   5 DELTA_J2000            Declination of barycenter (J2000)                          [deg]
#   6 FLUX_APER              Flux vector within fixed circular aperture(s)              [count]
#   9 FLUXERR_APER           RMS error vector for aperture flux(es)                     [count]
#  12 FLUX_RADIUS            Fraction-of-light radii                                    [pixel]
#  13 FWHM_IMAGE             FWHM assuming a gaussian core                              [pixel]
#  14 BACKGROUND             Background at centroid position                            [count]
#  15 THRESHOLD              Detection threshold above background                       [count]
#  16 FLUX_MAX               Peak flux above background                                 [count]
#  17 ISOAREA_IMAGE          Isophotal area above Analysis threshold                    [pixel**2]
#  18 A_IMAGE                Profile RMS along major axis                               [pixel]
#  19 B_IMAGE                Profile RMS along minor axis                               [pixel]
#  20 THETA_IMAGE            Position angle (CCW/x)                                     [deg]
#  21 FLAGS                  Extraction flags                                          
         1    718.0964     20.3480 307.6453045  +6.6898163     7062.056        11360     11856.31     79.39302     158.5969     317.4775      1.717     4.47     848.8401     55.91612     992.3266        36     1.627     0.978 -33.09   0
         2    638.2998     19.6284 307.6784695  +6.6874517     3468.178     5550.473     5806.218     79.51894     158.4075     317.1623      1.723     5.20     849.0518     55.91612     439.1079        27     1.582     0.894 -30.46   0
         3    438.5487     15.7331 307.7615592  +6.6823870     5820.218     9688.292     10080.84     79.39302     158.5338     317.2253      1.812     4.56     854.4597     55.91612     668.8594        33     1.595     1.073 -33.18   0
         4     39.4766     15.3224 307.9273034  +6.6691842     7982.601     13281.39     13687.68     79.77019      158.912     317.2884      1.805     4.66     866.5389     55.91612     966.0848        37     1.623     1.070 -35.85   0
         5    685.3610     14.6880 307.6590908  +6.6910611     1048.915     1307.106     1061.441     79.51894     158.5969     317.2569      1.442     5.34     848.8399     55.91612     134.9196        11     1.148     0.701 -31.24   0
         6    335.0836     10.7214 307.8046977  +6.6809940     12023.22     20133.38     21651.41     79.64467      158.975     317.3515      1.800     4.57     862.0919     55.91612     1441.697        46     1.740     1.085 -38.45  16
         7    514.4604     12.7794 307.7301324  +6.6861437     771.2791     1465.868     1498.836     79.14058     158.5969     317.1623      1.777     5.77     850.2949     55.91612     140.0847        11     1.590     0.589 -30.39   0
         8    429.8387     12.0707 307.7653003  +6.6836075     759.6219     1308.816     2159.601     79.39302       158.66     317.2884      2.065     5.31     855.0072     55.91612      106.653        10     1.047     0.903 -21.58   0
         9    108.6288     10.9024 307.8987359  +6.6733298     2470.604     4017.774     4007.125     79.64467     158.4075     317.2253      1.745     4.30     865.6975     55.91612     290.6735        23     1.491     0.915 -37.67   0
        10    100.1139      9.9846 307.9023031  +6.6734229      1437.86     2411.202     2325.001     79.14058     158.4075     317.1307      1.689     5.37     865.8958     55.91612     198.9783        17     1.404     0.922 -38.12   0
        11    803.7808      9.5639 307.6100811  +6.6971235     719.8848     1051.643     1268.314     79.01405     158.4707     317.0045      1.608     5.30     846.4642     55.91612     103.4941        10     1.308     0.605 -44.31   0
        12    401.1795      8.7066 307.7773161  +6.6840375     2216.224     3571.307     3455.746     79.39302     158.4707      317.036      1.676     4.62     857.1637     55.91612     260.9054        20     1.530     0.802 -39.46  16
        13    996.6017      5.1987 307.5301435  +6.7053422     721.2878     1221.888     1333.689     78.88733     158.2179     292.3424      1.784     6.27     838.5461     55.91612     105.0754         8     1.389     0.795 -28.17  16
        14    662.0979      4.2328 307.6691047  +6.6946008     10573.13     17188.33     18177.04     79.51894     157.7747     281.5331      1.737     4.65     848.4235     55.91612      1395.23        41     1.633     1.052 -32.69  24
        15    539.4897      4.0860 307.7200309  +6.6905683     1374.113     2182.726     2582.795      79.2669     157.4573     279.5359      1.714     5.61     848.7621     55.91612     175.4545        19     1.610     0.849 -40.11  16
        16    826.8890      3.5672 307.6006854  +6.7003686     1443.058     2541.325     2560.049     79.64466     153.1408     272.3201      1.861     4.56     846.0444     55.91612     215.1351        17     1.407     0.826 -45.63  24
        17    261.9037      1.8116 307.8353904  +6.6822211     4843.248     6941.559     7343.203     74.85246     133.1508     246.5996      1.522     4.82     863.8888     55.91612      708.901        26     1.651     0.782 -12.92  24
        18    896.9030      1.8293 307.5716650  +6.7034169     1521.163      2062.53     2225.055     75.25239      133.301      247.086      1.497     5.68     845.4741     55.91612     278.9744        14     1.359     0.723 -14.51  24
        19    652.6208      1.2771 307.6731403  +6.6955047     2956.526     3459.919     4096.546     68.13512     125.1722     237.6744      1.028     2.79     848.2531     55.91612     811.5405        10     1.074     0.485  -5.51  24
        20    422.5763      1.2468 307.7686820  +6.6878325     2888.148     3641.844     3547.809     67.98812     124.7719     237.1687      1.122     2.96     855.4337     55.91612     779.1537        12     1.297     0.468  -1.63  24
        21    682.4055      1.1519 307.6607743  +6.6965500     1028.784     1342.538     1666.832     65.74367     122.9138     235.4328      0.998     2.16     848.2846     55.91612     384.8159         7     1.041     0.359  -0.31  24
        22    233.4882    986.6794 307.8138851  +6.2747343     1459.067      2439.72     2793.851     79.26691      158.912     317.3515      1.863     5.31     886.3255     55.91612     206.4593        16     1.633     0.656 -34.04   0
        23    967.1478   1023.8448 307.5081778  +6.2838650     1027.205      1546.86     1579.585     66.65052     123.0765     235.6452      1.304     3.28     878.8925     55.91612      288.022         7     1.124     0.357  -3.10  24
        24    741.6082   1023.1169 307.6017988  +6.2766611     908.7538     1248.244     1462.819     75.11932     134.0495     247.4097      1.565     5.53     882.2185     55.91612      148.183        11     1.347     0.641 -23.25  24
        25    726.3146   1023.3989 307.6081359  +6.2760352     1831.255     2439.127     2421.537     72.12964     129.9566      243.003      1.377     4.05     882.7474     55.91612     305.4345        12     1.137     0.710  -4.10  24
        26    372.5577   1021.6869 307.7549938  +6.2649360     1818.565     3009.603     2583.489     79.51894     151.0357      268.956      1.766     4.99     886.5579     55.91612     227.6111        22     1.750     0.838 -34.93  24
        27    121.1228    985.7259 307.8605450  +6.2713641     572.9961     805.8185     543.6289     79.77019      158.912     317.2569      1.625     5.07     884.8631     55.91612     80.38696         6     1.082     0.671 -23.37   0
        28    632.4217    984.9807 307.6483928  +6.2887646      800.538     1307.307     804.4364      79.2669     158.5969     317.1623      1.718     5.62     884.4559     55.91612     109.6293        10     1.197     0.743 -37.25   0
        29    824.0341    982.2604 307.5689657  +6.2962712     2010.089     3384.951     3827.367     79.39302      158.723     317.1623      1.728     4.68     879.7772     55.91612     252.2444        23     1.511     0.982 -35.74   0
        30    772.4167    980.1353 307.5904584  +6.2954300     6179.068     10268.33     11472.94     79.01405     158.5338     317.0992      1.813     4.45     880.7707     55.91612     736.5981        39     1.732     1.119 -41.17   0
        31    558.6855    979.6846 307.6791710  +6.2884910     899.7853     1168.628     1140.114      79.2669      158.786     317.2884      1.554     5.59     884.9171     55.91612     123.7582        10     1.290     0.684 -47.76   0
        32    241.5509    979.2285 307.8107911  +6.2780798     1471.563     2083.522     2697.887     79.14058      158.723     317.1307      1.604     3.95     886.2392     55.91612     222.0095        16     1.361     0.747 -30.41   0
        33     66.5621    977.2442 307.8834724  +6.2730362     2503.963     4155.121      4433.55      79.2669       158.66     317.0992      1.767     4.50     884.3832     55.91612     315.9078        25     1.609     0.897 -31.65   0
        34    206.3787    978.1074 307.8254244  +6.2773650       749.17     1159.422     1482.691     79.39302     158.4707      317.036      1.782     5.55     886.0282     55.91612      105.675        10     1.305     0.667 -26.36   0
        35    960.4297    975.3023 307.5125943  +6.3036802     5819.466     10367.17      10582.9     79.64467     158.4075     317.2569      1.912     4.55     877.3682     55.91612     640.1627        37     1.718     1.137 -33.09   0
        36    216.4369    971.5046 307.8214737  +6.2804273     572.2021     1098.304     874.8326     79.64467     158.5338     317.3515      2.062     3.72     886.0745     55.91612     97.51453         6     1.049     0.378 -19.52   0
        37    643.5381    968.7987 307.6443242  +6.2958151     529.8371     800.8558     672.5676     78.88733     158.4707     316.9413      1.192     3.39     883.6586     55.91612     86.45697         5     0.759     0.438  67.46   0
        38    934.2730    966.9740 307.5237290  +6.3062486      1682.44     2954.702     3616.778     79.14058     158.5338     317.1307      1.932     6.26     877.7401     55.91612     188.7714        20     1.612     0.901 -22.44   0
        39    793.7337    963.5679 307.5821686  +6.3029788     1322.324     1997.472     2074.575     79.39302      158.723     317.1623      1.586     4.79     879.9346     55.91612     158.4121        16     1.319     0.923 -34.86   0
        40    654.8728    962.9160 307.6398183  +6.2986215     4248.021     6850.411     7129.441     79.64467      158.975     317.2569      1.712     4.84     883.2335     55.91612     562.7295        27     1.552     0.914 -34.56   0
        41    267.1211    962.9354 307.8007306  +6.2856612      4085.84      6890.48     7719.302     79.77019      158.723     317.1938      1.781     4.76     886.0452     55.91612     540.8774        29     1.633     0.956 -30.94   0
        42   1004.8486    962.4197 307.4945920  +6.3104743     603.4776     999.4879     1674.771     79.01405      158.723      317.036      1.880     3.40     875.7928     55.91612     88.07184         5     0.753     0.445 -20.55   0
        43    477.1630    961.3413 307.7136202  +6.2933414      1020.87     1554.163     2100.685     79.51894      158.723     317.2569      1.569     4.00     885.2815     55.91612     172.7622        12     1.272     0.753 -37.76   0
        44     35.7417    960.4425 307.8968304  +6.2789380     2025.151     3246.392     3587.519     79.39302       158.66     317.2884      1.735     4.52     884.3735     55.91612     263.6722        23     1.470     0.950 -30.63   0
        45    886.7785    959.3965 307.5436942  +6.3077972      901.848     1396.164      1223.74     79.14058     158.3444     317.0045      1.718     5.89     878.2406     55.91612     110.5049        10     1.166     0.836 -39.54   0
        46    302.7700    956.9111 307.7861405  +6.2893408     772.5487     1238.258     1755.504     79.64466     158.4075     317.1623      1.700     5.50     885.9757     55.91612     117.9984         8     1.456     0.586 -39.85   0
        47    958.7565    956.8250 307.5139086  +6.3112521     659.5494     1040.284      1249.61     79.14058       158.66     317.0992      1.676     5.25     876.7358     55.91612     106.3969         6     1.188     0.656 -86.32   0
        48    579.7697    955.1884 307.6712462  +6.2993065     1498.461      2376.31     1582.919     79.01405     158.4075     317.1307      1.652     5.02     884.1489     55.91612      213.552        17     1.528     0.725 -35.27   0
        49   1011.6281    954.5376 307.4920427  +6.3139534     722.8673     1287.373     1777.103     79.14058       158.66     317.1938      2.064     5.46     875.4417     55.91612     97.91113         9     1.090     0.772 -70.37   0
        50    618.8629    951.7141 307.6551395  +6.3020447     1181.022     1876.103     1659.665     79.64467      158.786     317.2253      1.625     4.68     883.5598     55.91612     157.2698        14     1.361     0.738 -35.56   0
        51     68.3193    952.1929 307.8835912  +6.2834357     741.3809     1273.921     989.9832     79.14058     158.2179     317.0676      1.623     5.98     884.3835     55.91612     116.4996        10     1.463     0.706 -36.67   0
        52    298.7626    949.2929 307.7880608  +6.2923514     1469.605      2552.85     3018.357     79.64467     158.5338     317.2884      1.816     5.60     885.8663     55.91612     194.7634        17     1.534     0.736 -28.32   0
        53    566.8544    947.4867 307.6768654  +6.3020548     506.8745     784.3601     1492.595     79.51894     158.5338      317.383      1.884     4.01     884.0818     55.91612     80.02252         6     1.421     0.324 -41.40   0
        54    903.2225    942.0850 307.5374509  +6.3154904      6401.73     10730.47     11143.08     79.39302     158.4075     317.1623      1.808     4.67     877.4307     55.91612      721.233        35     1.691     1.032 -42.17   0
        55    765.9341    945.2883 307.5943201  +6.3095989     933.6011      1515.37     1323.877     79.51894      158.849     317.1938      1.743     4.91     880.1306     55.91612      130.892         9     1.043     0.655 -28.04   0
        56    141.5157    943.7247 307.8535033  +6.2893848     536.5995     1045.885     889.3128     79.64467      158.975     317.2884      2.056     6.26     884.8546     55.91612     99.12616         7     1.215     0.907 -30.80   0
        57    439.0066    939.2046 307.7302013  +6.3012047     2047.528       3398.8     3600.602     78.88733     158.3444     317.0992      1.764     4.95     884.8106     55.91612     259.1256        22     1.554     0.899 -42.90   0
        58    607.5312    939.3372 307.6602589  +6.3067759     584.7305     777.1609     518.0044     79.51894       158.66     317.2884      1.581     5.57     883.3084     55.91612     83.19189         9     1.243     0.704 -33.83   0
        59    340.6818    937.5821 307.7710603  +6.2985877     9022.353      14716.6     15390.33     79.14058     158.3444     317.1623      1.765     4.43     885.7502     55.91612     1106.332        37     1.658     1.015 -36.57   0
        60    260.7370    936.5238 307.8042722  +6.2963498     6860.221     10851.57     11243.12     79.77019       158.66     317.1938      1.737     4.38     885.7599     55.91612     864.5037        35     1.629     1.028 -29.70   0
        61    589.1587    931.0428 307.6681629  +6.3095869      1138.81     1836.928     1779.308      79.2669       158.66     317.0992      1.564     5.49     883.3342     55.91612     183.0847        11     1.303     0.652 -24.40   0
        62    919.2194    927.1907 307.5313118  +6.3221708      896.748     1579.419      1849.14     79.14058     158.4075     317.0676      1.901     5.81     876.5007     55.91612     117.6052        10     1.377     0.691 -26.04   0
        63    875.6204    926.0757 307.5494439  +6.3211809     830.4688     1353.654     1558.878     79.14058     158.4707     317.1623      2.002     6.66     877.7462     55.91612      101.321        13     1.367     0.910 -24.59   0
        64    417.9774    925.1322 307.7394030  +6.3063109     713.4457     871.1697     892.2211     79.14058     158.5969     317.1938      1.442     6.22     884.6619     55.91612     111.1394        10     1.108     0.980 -16.16   0
        65    755.1047    920.4761 307.5996486  +6.3194807      1450.06     2407.347     2652.613      79.2669      158.786     317.2884      1.746     6.30     879.8465     55.91612     195.5076        16     1.549     0.719 -31.85   0
        66    579.0367    920.7090 307.6727117  +6.3135150     617.5477     824.6873     914.2015     79.64467     158.5969     317.2569      1.547     4.87     883.2468     55.91612     115.8076         5     0.924     0.726 -17.87   0
        67      5.6859    917.3699 307.9107612  +6.2957090      900.254     1566.922     1888.977     79.64467     158.4075     297.7679      1.868     4.92     884.0571     55.91612     152.3977        10     1.259     0.545 -41.83  16
        68    986.3043    916.1071 307.5038416  +6.3289762     1170.556     2105.512     2481.849     79.51894     159.2265     317.1938      1.716     7.03     874.3431     55.91612     126.0884        18     1.566     0.920 -33.89   0
        69    619.1971    916.7510 307.6561779  +6.3164885     859.0451      1363.04     1252.849     78.88733     158.4075     316.8151      1.669     5.37     882.5053     55.91612     148.5351        12     1.387     0.682 -27.38   0
        70    540.3334    916.0142 307.6889321  +6.3141613     1072.324     1576.049     1438.795     79.01405     158.5338     317.1623      1.629     5.92      883.686     55.91612     148.2146        15     1.604     0.794 -36.34   0
        71    630.4907    916.2853 307.6515066  +6.3170574     591.9404     897.0179     502.3458      79.2669     159.1008     317.3515      1.362     4.17     882.2801     55.91612     102.1437         6     1.107     0.449 -35.58   0
        72    673.8400    913.5533 307.6336078  +6.3196306     2485.786     3809.654     4381.172     79.39302       158.66      317.036      1.657     4.80     881.4201     55.91612     376.9976        19     1.535     0.767 -37.01   0
        73     70.4108    909.5776 307.8841657  +6.3010966     2740.173     4744.921     4908.703     79.14058     158.4075     317.0992      1.891     4.56     884.1289     55.91612     335.6183        30     1.733     1.026 -46.28   0
        74    834.1746    910.1761 307.5671790  +6.3263652     810.6196     1418.681     1867.438     79.01405     158.4707     317.1623      2.221     5.32     878.1201     55.91612     115.1441         9     1.182     0.799 -26.30   0
        75    951.9065    909.3495 307.5183445  +6.3306225     796.2358     1291.453     1056.308     79.39302     158.5338     317.4145      1.656     5.89     875.0704     55.91612     128.5416        11     1.305     0.773 -35.59   0
        76    214.1414    908.6569 307.8245505  +6.3062929     2119.744     3292.997     3381.691     79.64467       158.66     317.2569      1.708     4.31     885.4562     55.91612     303.0193        21     1.515     0.853 -38.08   0
        77     87.9317    908.9819 307.8769150  +6.3019299     1785.625     2852.788     2781.534     79.01405     158.5338     317.1623      1.712     5.10     884.1894     55.91612     261.3834        19     1.489     0.791 -39.21   0
