#   1 NUMBER                 Running object number                                     
#   2 X_IMAGE                Object position along x                                    [pixel]
#   3 Y_IMAGE                Object position along y                                    [pixel]
#   4 ALPHA_J2000            Right ascension of barycenter (J2000)                      [deg]
#   5 DELTA_J2000            Declination of barycenter (J2000)                          [deg]
#   6 FLUX_APER              Flux vector within fixed circular aperture(s)              [count]
#   9 FLUXERR_APER           RMS error vector for aperture flux(es)                     [count]
#  12 FLUX_RADIUS            Fraction-of-light radii                                    [pixel]
#  13 FWHM_IMAGE             FWHM assuming a gaussian core                              [pixel]
#  14 BACKGROUND             Background at centroid position                            [count]
#  15 THRESHOLD              Detection threshold above background                       [count]
#  16 FLUX_MAX               Peak flux above background                                 [count]
#  17 ISOAREA_IMAGE          Isophotal area above Analysis threshold                    [pixel**2]
#  18 A_IMAGE                Profile RMS along major axis                               [pixel]
#  19 B_IMAGE                Profile RMS along minor axis                               [pixel]
#  20 THETA_IMAGE            Position angle (CCW/x)                                     [deg]
#  21 FLAGS                  Extraction flags                                          
         1      2.1129     75.2567 307.9357189  +6.6320914     586416.2     909400.5     959603.9     76.48873     135.6822     248.1271      1.696     8.40     839.1944     55.20099     63444.25       249     2.060     1.391 -88.97  28
         2    621.0654     18.4099 307.6804462  +6.6761985     3330.749     5781.587     6357.111     78.00351     156.4439     313.0436      1.932     5.76     822.3757     55.20099     579.0854        32     2.165     0.859  74.72   0
         3    439.9748     19.5268 307.7556554  +6.6697129     26791.76     35791.57     36630.57     78.12841     156.5062     313.1059      1.441     3.15     826.8676     55.20099     4157.021        46     1.374     0.990  80.70   0
         4    260.5581     20.0452 307.8301871  +6.6635188     10722.05     14400.47     15065.27     78.37762     156.6308     313.0125      1.409     3.06     835.8999     55.20099     1599.547        30     1.280     0.928  75.41   0
         5    248.4670     16.6401 307.8353248  +6.6645212     3546.179      4513.61     4979.137     78.37763     156.5685     313.2616      1.414     3.42     835.8715     55.20099     492.3372        19     1.195     0.825  81.21   0
         6    301.4969     14.7487 307.8133539  +6.6670710     1065.894     1258.396     644.9345     78.37763     156.5685     313.3861      1.217     3.35     835.6118     55.20099     196.0083         7     0.945     0.485  81.49   0
         7     64.3872     12.0956 307.9119615  +6.6602495     527.2716     753.2106     303.4367     78.25312     156.3816     312.9813      1.496     3.76     835.5192     55.20099     83.18506         5     0.872     0.484  85.58   0
         8     94.8627     10.0817 307.8993666  +6.6620995      815.735     1007.794      1078.71     78.62605     156.6308     313.1682      1.400     5.06     833.7234     55.20099     111.4371        11     1.076     0.761  78.54   0
         9    938.8010      9.6244 307.5487090  +6.6903685     1056.855     1487.304     1882.422     78.12842     156.3192     312.9502      1.541     3.17     819.6735     55.20099     178.3521        10     1.035     0.667  80.98   0
        10    689.9937      8.9390 307.6521200  +6.6823988     2075.469      2746.58     2607.773      77.8784     156.4439     312.9502      1.379     3.22     821.8511     55.20099     330.3916        16     1.237     0.719  86.22   0
        11    200.6527      5.0411 307.8555797  +6.6677140     779.6653     1004.592     858.8434     78.50194      156.693     287.2489      1.496     4.24     835.1226     55.20099     124.1343         9     1.120     0.620  81.23  16
        12    255.4734      4.3237 307.8328254  +6.6698398     701.3912      805.209     1074.367     78.74997     156.3816     278.7032      1.285     3.70     835.9221     55.20099      118.888         7     0.951     0.489 -82.91  16
        13    178.0622      2.3664 307.8650556  +6.6680640     12298.64     15145.76     15092.35      77.8784     138.8083     251.8327      1.368     3.28      834.457     55.20099     1864.049        23     1.122     0.929  80.77  24
        14    522.3098      1.3960 307.7220484  +6.6799388     1632.889     1860.971     1993.302     68.69807     125.2953     236.4149      0.957     1.97     823.2473     55.20099     457.0968         8     0.806     0.548  -9.05  24
        15    923.6168      1.2248 307.5552976  +6.6933334     1401.927     1519.416     1620.403      66.8274     122.7797     233.7604      0.906     2.21     819.7885     55.20099     418.8477         6     0.834     0.416  -2.66  24
        16    439.6994    997.4091 307.7231642  +6.2659721     821.8224     1222.879     909.5137     78.25312     156.2568     312.9813      1.646     4.23      857.092     55.20099     124.0861         7     1.106     0.617  86.79   0
        17    758.1191   1021.4422 307.5901598  +6.2666276     793.9359     1529.314     1673.073     78.50194     151.3111     268.7648      1.951     6.75     853.0983     55.20099     101.4674        13     1.297     0.986 -85.64  24
        18    582.3732   1019.4069 307.6631955  +6.2616337     153443.1     243284.2     255278.7     78.00351     156.5062     292.9628      1.741     3.60     855.9224     55.20099     18168.93        95     1.611     1.323  70.61  19
        19    584.1831   1012.1816 307.6626844  +6.2646770     71357.41     114138.2     120867.2     78.25312     156.3816     313.1059      1.723     3.57     855.7274     55.20099     8398.596        80     1.611     1.308  69.47   3
        20    399.8735   1022.2833 307.7388703  +6.2543771     616.5508     815.6964     1004.788     78.62605     143.3016     257.1205      1.625     5.15     858.0086     55.20099      87.8869         5     0.993     0.755  76.94  24
        21    216.3055   1022.2343 307.8150840  +6.2482818     3715.418     5494.148     5589.062     78.62605     143.5056     257.7265      1.646     3.82      853.563     55.20099     422.3495        24     1.244     1.114  63.90  24
        22    732.2043    995.7639 307.6017724  +6.2763698      887.181     1477.915     1613.889     77.62759     156.3816     312.9813      1.713     5.99     853.4114     55.20099     132.8154        12     1.178     0.956  23.68   0
        23    362.9125    993.9042 307.7551618  +6.2648633     1849.216     2744.121     2985.552     78.50194     157.0039     313.1993      1.554     3.79     856.1334     55.20099     239.2765        19     1.322     0.917 -84.99   0
        24    749.9153    983.2305 307.5948350  +6.2821321     7651.582     12659.22      13158.2     78.50194     156.4439     313.0436      1.754     3.72     852.8361     55.20099     919.7674        37     1.524     1.169  77.42   0
        25    545.4456    983.9883 307.6797061  +6.2750298      4264.34     6556.354     7160.944     78.00351     156.4439     312.8878      1.670     3.58     856.6021     55.20099     531.6312        31     1.478     1.177  67.63   3
        26    542.6083    976.1871 307.6811437  +6.2781563     8459.753     12877.68     13658.57     78.12842     156.4439     313.0748      1.646     3.45     856.3287     55.20099      1046.88        33     1.384     1.110  75.85   2
        27    515.8251    985.4980 307.6919541  +6.2734218     1051.534     1557.464     1251.073     78.62605     156.3816     313.0436      1.718     4.01     856.6406     55.20099     166.0439        10     1.086     0.668  81.02   0
        28    295.6393    982.7750 307.7834637  +6.2672173     14981.04     23472.22     25962.13     78.12842     156.4439     312.9502      1.733     3.46     854.9622     55.20099     1944.927        61     1.678     1.389 -54.35   0
        29    811.1136    982.3622 307.5694539  +6.2845200     922.7633     1534.852     1184.395     78.50194     156.5685     313.1682      1.671     5.66     851.5109     55.20099     129.5632        11     1.326     0.682 -76.71   0
        30    420.0745    983.1052 307.7317888  +6.2712246     976.5368     1310.775      1056.42     78.25312     156.8174     313.1682      1.460     3.67     856.4158     55.20099     148.5983        10     0.936     0.750  56.67   0
        31    267.0749    980.5679 307.7953968  +6.2671766     969.8814     1572.528     1771.471     78.37762      156.693     313.1371      1.973     5.11     854.1266     55.20099       128.77        12     1.190     0.727  84.83   0
        32    911.2904    976.6956 307.5280473  +6.2901789     7500.554     13929.99     14237.07     78.50194      157.066     313.1682      1.981     4.16     850.1629     55.20099     819.8979        49     1.711     1.360  72.49   0
        33   1006.6051    972.3631 307.4886146  +6.2951229     3799.074     7545.058     7795.675     77.62759     156.3816     312.9813      2.031     4.61     847.0192     55.20099     424.4672        38     1.630     1.348  77.28   0
        34    884.8180    972.8528 307.5391664  +6.2908887     10825.57     19506.16     20945.67     78.00351      156.693     312.9502      1.910     4.08     850.5876     55.20099     1197.423        51     1.633     1.358  76.67   0
        35    597.7997    973.5445 307.6583161  +6.2810814     1361.442     2026.362     1703.872      77.7531     156.2568     312.8255      1.676     4.63     854.8461     55.20099     161.2397        16     1.326     0.830  79.26   0
        36    528.8933    972.0396 307.6869763  +6.2794127     4315.875     6430.365     6653.559     78.62605     156.5685     313.2616      1.575     3.50     856.1934     55.20099     587.6429        27     1.372     1.067  77.07   0
        37    638.5706    971.2778 307.6414633  +6.2833714     1529.261     2177.653     2490.265     78.37763      156.693     313.1993      1.580     3.93     854.0674     55.20099     180.2313        17     1.160     1.017  62.20   0
        38     63.3829    970.5901 307.8802986  +6.2645003     797.5033      1186.54     1331.027     78.25312     156.3816     313.0436      1.549     5.66     850.6107     55.20099     140.0047        10     1.387     0.650  19.03   0
        39    482.1921    968.5701 307.7064821  +6.2792923     2277.999     3444.479     3282.042     78.00351     156.4439     312.9502      1.630     3.55     856.0957     55.20099     295.7294        20     1.273     0.947  88.89   0
        40    793.6785    969.3455 307.5771252  +6.2893162     620.6326     869.0576     959.4197     78.62605     156.6308     313.1993      1.611     5.37     851.6893     55.20099     80.19177         7     1.246     0.653  11.67   0
        41    916.6210    960.3771 307.5263750  +6.2970930     38626.21     67999.72     72328.89     78.25312     156.4439     313.1371      1.892     4.07     849.8975     55.20099     4209.441        72     1.704     1.377  73.92   0
        42    223.8678    959.2025 307.8140490  +6.2745571     1675.668     2542.309      2912.31      77.8784     156.2568     312.9813      1.678     3.81     852.4147     55.20099     233.2487        21     1.345     0.976  80.33   0
        43    111.5716    958.3231 307.8607019  +6.2711737     595.4481     788.6274     781.8319     78.37763     156.6308     313.1682      1.443     3.86     850.7974     55.20099     84.22791         6     0.913     0.468  -0.18   0
        44    762.7240    952.2819 307.5905446  +6.2953347     6530.592     10724.82     11565.96     78.74997     156.8796     313.2927      1.802     3.84     852.1738     55.20099      767.309        41     1.661     1.211 -87.76   0
        45    622.7276    956.7582 307.6485243  +6.2888400     929.9521     1251.807      781.063     78.37763     156.6308     313.1993      1.475     5.14     854.2819     55.20099     128.6612        10     1.109     0.682  50.40   0
        46    814.6991    954.2354 307.5688988  +6.2962517      2294.39     3526.103     3666.453     78.50194     156.5062     313.3239      1.684     3.88     851.2756     55.20099     256.7564        21     1.247     1.065  86.70   0
        47    549.5508    951.6475 307.6790780  +6.2885187     947.5686     1158.247     835.5917     78.50194     156.5062     313.1993      1.621     4.70     855.4328     55.20099     135.8842         9     1.094     0.657  44.08   0
        48    232.2396    951.5189 307.8108297  +6.2780085     1423.159     2093.539     2045.586     78.50194      156.693     313.1059      1.632     3.95     852.4271     55.20099     188.2042        13     1.059     0.845 -87.20   0
        49    196.7228    951.1292 307.8255889  +6.2769850     886.9003     1385.975     1137.733     78.74997     156.8796     313.1682      1.571     3.98     851.9073     55.20099     139.6461         7     0.874     0.587  58.73   0
        50     57.1426    949.6992 307.8835881  +6.2729167     2870.811     4407.095     4119.509     78.25312     156.6308     313.3549      1.602     3.53     850.0358     55.20099     360.7037        22     1.235     1.002  73.93   0
        51    950.9363    947.0597 307.5125680  +6.3037277     5747.501      10602.4     10712.74     78.50194     156.5685     313.1993      1.929     4.21     848.9202     55.20099     626.8525        43     1.630     1.310  89.16   0
        52    632.6833    941.7964 307.6448881  +6.2953479     678.6528     993.6248     722.3412     78.00351     156.2568     312.8567      1.642     5.10     854.0071     55.20099     107.4311         8     1.101     0.669 -83.50   0
        53    207.6758    943.3351 307.8213016  +6.2805681     706.2411     928.4514     947.2291     78.62605     156.6308     313.1371      1.512     4.84     851.8875     55.20099     93.95209         6     0.977     0.680  17.27   0
        54    924.6552    938.6866 307.5237582  +6.3063145     1930.412     3166.191     2785.195     78.50194     156.5685     313.3239      1.778     4.47     849.6448     55.20099     209.3138        23     1.388     1.095 -75.43   0
        55    257.5288    935.3488 307.8008696  +6.2855275      4625.76     6563.727     6564.381     78.37763     156.6308     313.1993      1.587     3.47     852.3737     55.20099     596.5663        28     1.363     1.032  83.48   0
        56    645.3687    934.9094 307.6398499  +6.2986126     4702.693     7104.593     7386.483     78.62605     156.4439     313.1682      1.612     3.61     853.6772     55.20099     554.6871        27     1.372     1.042  82.78   0
        57    784.1375    935.1174 307.5822233  +6.3031317     1181.131     1767.953     2065.816     78.62605     156.6308     313.1371      1.608     4.19      851.683     55.20099     156.3402        10     0.938     0.778  71.92   0
        58    467.7469    933.4379 307.7136500  +6.2933167     1160.949     1528.754     1117.248     78.37763      156.693     313.1682      1.446     4.38      854.663     55.20099     172.3011        11     1.114     0.722  73.90   0
        59     26.3956    932.9249 307.8969148  +6.2788149     2126.689     3331.168     3446.775     78.12841      156.132     313.0748      1.691     4.18     849.5926     55.20099     256.3655        20     1.274     1.056 -83.05   0
        60    876.9230    930.8813 307.5438369  +6.3079561     1007.101     1468.538     1221.151     78.74997     156.8796     313.2927      1.559     4.36     849.8814     55.20099     123.1938        12     1.129     0.723  10.70   0
        61    293.5684    928.8688 307.7861223  +6.2894040     1045.847     1623.551      1215.11     78.37763     156.6308     313.1682      1.626     4.16     852.5684     55.20099      141.455        12     1.121     0.803  75.36   0
        62    570.0889    927.5172 307.6713533  +6.2991639     1744.945     2289.812     2222.279     78.25312     156.8174     313.1993      1.486     3.64     854.6174     55.20099     225.1848        17     1.102     1.013  66.45   0
        63   1001.6642    926.8535 307.4921739  +6.3137493     734.6031     1738.463     1787.917     78.50194     156.5685     313.1371      2.245     6.71     847.1899     55.20099     98.04688        11     1.170     1.081 -85.92   0
        64    949.4919    928.1178 307.5137957  +6.3115005     521.1424     886.2489     815.9089     78.25312     156.9418     313.2305      1.726     4.22     848.8965     55.20099      72.3396         6     1.059     0.480  32.49   0
        65     59.4307    924.8127 307.8834705  +6.2832676     748.6301     1180.514     1617.244     78.00351     156.4439     313.1059      2.111     4.95     849.4092     55.20099     109.6728         8     1.019     0.680 -48.26   0
        66    609.5089    923.7809 307.6551097  +6.3020162     1380.607     1933.189     1965.144     78.37763     156.3816     313.0436      1.598     4.12       854.35     55.20099     151.2705        14     0.998     0.968 -69.29   0
        67    289.2755    921.8126 307.7881402  +6.2921742     1579.774     2283.387     2571.399     78.12842     156.3192     312.9813      1.556     3.68     852.4155     55.20099     197.2147        15     1.135     0.875  71.35   0
        68    556.7540    919.8694 307.6771448  +6.3018782      624.477     915.6979     1047.349     78.50194     156.5685     313.1682      1.556     4.88     854.3453     55.20099     107.5063         8     1.161     0.580  47.70   0
        69    755.9594    917.5817 307.5945059  +6.3094371     989.5869     1308.171     1126.397     78.12841     156.4439      312.919      1.504     4.47      851.782     55.20099     125.0046        10     0.998     0.751  45.76   0
        70    131.9735    916.0248 307.8536452  +6.2893177     571.8585     931.1683     886.5574     78.00351     156.4439     313.0436      1.610     5.00      849.894     55.20099     73.92804         8     1.292     0.547  66.46   0
        71    893.6351    914.0341 307.5374563  +6.3154655     6469.392     10751.74     11311.19     78.25312     156.3816      312.919      1.776     3.80     849.5648     55.20099     745.9742        36     1.474     1.208  83.74   0
        72    429.4394    911.5318 307.7302856  +6.3010864     2286.872     3284.548     3549.483     78.37763     156.6308     313.2927      1.561     3.33      853.394     55.20099     326.2628        19     1.262     0.905  54.18   0
        73    331.1278    909.8830 307.7711608  +6.2984939     10215.18     14696.21     15742.76     78.74997     156.9418     313.1993      1.534     3.25     852.8297     55.20099     1349.849        32     1.387     1.003  86.13   0
        74    251.2135    908.9218 307.8043740  +6.2962276     7501.097      11214.4     11476.53     78.12841     156.3816     312.9813      1.573     3.38     851.8525     55.20099     990.0614        31     1.336     1.077  80.36   0
        75    169.7061    907.4000 307.8382669  +6.2941376     445.3595     416.8327     91.44127     78.00351     156.2568     312.8255      1.523     5.49     850.3051     55.20099     80.68695         6     1.124     0.756  78.49   0
        76    763.7933    902.9809 307.5917380  +6.3157252     766.4134     1266.791     977.9525     78.12842     156.3192     312.9813      1.541     5.05     851.3842     55.20099     107.5341         9     1.094     0.658  87.99   0
        77    579.3392    903.1880 307.6683220  +6.3095160     1374.299     1798.089     1953.846      77.8784     156.4439     312.8878      1.363     2.81     853.6648     55.20099     212.6383        10     0.841     0.783 -80.92   0
