#   1 NUMBER                 Running object number                                     
#   2 X_IMAGE                Object position along x                                    [pixel]
#   3 Y_IMAGE                Object position along y                                    [pixel]
#   4 ALPHA_J2000            Right ascension of barycenter (J2000)                      [deg]
#   5 DELTA_J2000            Declination of barycenter (J2000)                          [deg]
#   6 FLUX_APER              Flux vector within fixed circular aperture(s)              [count]
#   9 FLUXERR_APER           RMS error vector for aperture flux(es)                     [count]
#  12 FLUX_RADIUS            Fraction-of-light radii                                    [pixel]
#  13 FWHM_IMAGE             FWHM assuming a gaussian core                              [pixel]
#  14 BACKGROUND             Background at centroid position                            [count]
#  15 THRESHOLD              Detection threshold above background                       [count]
#  16 FLUX_MAX               Peak flux above background                                 [count]
#  17 ISOAREA_IMAGE          Isophotal area above Analysis threshold                    [pixel**2]
#  18 A_IMAGE                Profile RMS along major axis                               [pixel]
#  19 B_IMAGE                Profile RMS along minor axis                               [pixel]
#  20 THETA_IMAGE            Position angle (CCW/x)                                     [deg]
#  21 FLAGS                  Extraction flags                                          
         1    187.0146     20.1919 307.8651076  +6.6681515     10834.36     16608.01     17287.84     82.10252     164.3361     328.9343      1.609     3.35      949.779     58.00886     1411.916        39     1.435     1.160  70.19   0
         2    531.2013     18.4150 307.7221401  +6.6804494     3063.091     4322.858     4728.753     82.10252     164.2706     328.8688      1.587     3.41     929.9999     58.00886     406.4098        22     1.213     1.056  85.26   0
         3    469.4052     16.8557 307.7478729  +6.6790200     1897.414      2879.79     2390.108     81.83979     164.4017     328.8033      1.550     3.47     931.4299     58.00886     281.2884        17     1.199     0.910  58.08   0
         4    997.3328     14.1648 307.5285700  +6.6978001      2261.77     3380.462     3458.242     82.36441     164.6634     329.1634      1.652     3.64     914.4092     58.00886     345.1296        20     1.298     0.909  63.15   0
         5    716.7146     10.7496 307.6453048  +6.6898303      7977.72     11121.67     11752.73     82.49505     164.5326     329.1306      1.494     3.05     925.3007     58.00886     1164.206        31     1.307     1.018  60.67   0
         6    636.9227      9.9860 307.6784900  +6.6874735     3981.638     5835.616     5879.772     82.10252     164.2706     328.9015      1.519     3.10     927.4552     58.00886     574.8608        27     1.320     1.044  63.58   0
         7    339.0696      9.7854 307.8022737  +6.6775620      916.652     1298.225     1495.481     81.97126     164.5326     328.9997      1.437     3.25     943.2488     58.00886     147.3659         7     0.751     0.648   0.59   0
         8    437.1456      6.2842 307.7616357  +6.6823019     6422.504     9731.838     10154.68     82.49505      164.598     315.1584      1.634     3.28     934.7448     58.00886     824.5786        33     1.358     1.135  69.67  16
         9    393.0083      8.2863 307.7799098  +6.6799932      646.465     725.6492     568.3102     82.10252     164.2706     328.5084      1.268     2.61     938.5171     58.00886     109.1434         5     0.773     0.480 -58.54   0
        10     38.1724      5.8284 307.9274437  +6.6690680     8723.661     13034.97     12966.06     81.97126     164.4017     310.4076      1.567     3.21     950.7806     58.00886     1160.067        35     1.336     1.143  63.91  16
        11    683.8162      5.1395 307.6591656  +6.6910452     876.2767     1327.416     1069.645     81.97126     164.5326     302.7507      1.722     3.27     926.3543     58.00886     158.0255         7     0.886     0.654 -82.70  16
        12    512.4052      2.8746 307.7304756  +6.6862353     828.5004     1201.037     1006.745     82.10252     151.9434     272.3033      1.301     3.78     929.9844     58.00886     126.8644         6     1.024     0.400  72.45  24
        13    429.0137      2.2248 307.7651521  +6.6837049      823.803     1187.877     1747.198     81.04649     143.9368     262.3951      1.581     3.50     935.6417     58.00886     138.2975         9     0.998     0.610 -56.85  24
        14    333.8374      1.8776 307.8047153  +6.6806511     11065.93     14305.34     15128.92     78.20661     139.2986      256.921      1.343     3.16     943.9232     58.00886     1683.639        24     1.264     0.880  -2.47  24
        15    107.5445      1.8556 307.8987517  +6.6730461     2365.375     3049.858     2955.369     78.34418      138.989     256.5854      1.334     3.17     949.5231     58.00886     337.8595        15     1.175     0.767  -5.06  24
        16    400.7024      1.2667 307.7769496  +6.6831498      586.028     688.3156     329.2702     70.68517      129.691     246.5697      1.096     3.77     938.0514     58.00886     130.0679         6     1.036     0.395  12.01  24
        17     99.0391      1.3721 307.9023024  +6.6729591     817.6837     1089.503     1317.369     72.04317      131.177     248.1803      1.156     3.65     949.4432     58.00886     184.5985         6     0.959     0.481   3.30  24
        18    303.6165   1000.8600 307.7835151  +6.2671716        16970     23519.69     24725.64     81.97126     164.5326     328.8361      1.453     2.82     969.1843     58.00886      2550.38        40     1.267     1.102  66.63   2
        19    757.2490   1022.0386 307.5944384  +6.2736289     1523.023     2155.197     2030.302     82.49504     152.9323     273.8018      1.414     2.78     963.2603     58.00886     226.9602        12     0.943     0.780  83.25  24
        20    580.9989   1023.8267 307.6675637  +6.2669923     980.2642      1205.58     1357.246     68.83283     127.7671     244.5966      1.086     2.81     967.1608     58.00886     300.9475         7     1.063     0.371  -4.37  24
        21    307.8049    997.8504 307.7818776  +6.2685549     1251.687     1972.823     2566.369     81.83979     164.4017      328.705      1.864     4.29     969.1814     58.00886     162.5269        12     1.112     0.839  62.17   3
        22    819.2582   1000.9382 307.5693983  +6.2844141     1430.442     1936.222     2160.307     82.62547     164.5326     329.1306      1.485     3.59      960.078     58.00886     208.0929        12     1.088     0.758  42.04   0
        23    427.8938   1001.3305 307.7318959  +6.2711488     1051.771     1374.611     1471.938     82.36441     164.7288     329.0979      1.336     3.01      968.406     58.00886     165.0853         9     0.888     0.676  75.85   0
        24    274.8288    998.2070 307.7955580  +6.2673000     1114.361     1634.486     1780.142     81.97126     164.4017     328.9015      1.531     4.19     969.1016     58.00886     170.2749        13     1.133     0.909  65.69   0
        25    919.3226    994.9988 307.5280455  +6.2902087     9888.981     14022.56     14066.31     81.70811     164.0082     328.9015      1.471     3.01      957.639     58.00886     1383.438        34     1.339     1.022  61.94   0
        26    637.2823    996.4661 307.6451138  +6.2801741     626.6131     728.8209     828.9216     82.75569     164.8595     329.1634      1.795     4.24     964.5479     58.00886     90.15991         6     1.141     0.448  53.57   0
        27    550.7261    994.3015 307.6811285  +6.2781690     9767.508     13277.66     14166.77     82.10252     164.6634     329.0652      1.449     2.86     967.1778     58.00886     1400.461        30     1.297     0.973  51.81   0
        28    893.0034    991.1075 307.5391054  +6.2909367     14115.34     20167.87     21108.26     82.10252     164.2706     328.8688      1.484     3.01     958.2317     58.00886     2184.664        43     1.366     1.185  65.99   0
        29    605.7812    991.6508 307.6583565  +6.2811075     1451.032     2120.168     2117.984     81.97126     164.6634     328.8361      1.542     3.51     965.5935     58.00886     239.7931        15     1.171     0.864 -87.98   0
        30   1014.6955    990.6159 307.4885880  +6.2952009     5513.242      7682.86     7482.589     82.23357     164.4017     328.9343      1.481     2.97     954.2336     58.00886     774.5385        26     1.239     1.002  61.07   0
        31    537.0666    990.1609 307.6869399  +6.2794209     4722.187     6540.687     6784.573     82.36441     164.5326     329.1633      1.448     3.06     967.2982     58.00886     731.4016        22     1.202     0.907  60.25   0
        32    646.5504    989.4335 307.6415019  +6.2833881     1637.667     2282.736     2448.176     82.36441      164.598     329.0325      1.480     3.34     964.0602     58.00886     271.3306        16     1.133     0.947  81.56   0
        33    490.1945    986.6080 307.7065228  +6.2793168     2678.647     3436.688     3161.387     81.83979     164.4017     328.9343      1.430     3.19      967.526     58.00886     351.6395        17     1.148     0.905  71.68   0
        34     71.7225    988.7617 307.8802105  +6.2643697     886.6821     1113.562      1297.89     82.36441     164.6634     329.0979      1.375     4.88     970.1285     58.00886     127.3062         9     1.086     0.622  62.74   0
        35    802.0695    988.5900 307.5769508  +6.2889382     648.7724     929.1693     855.8996     81.97126     164.4017     328.9343      1.318     3.72     960.0979     58.00886     112.8735         6     0.809     0.492  -0.31   0
        36    924.7241    978.7228 307.5263488  +6.2971095     50389.87     70013.92     73118.39     82.75569     164.8595     329.1634      1.489     2.96     956.9239     58.00886     7423.268        61     1.403     1.134  58.14   0
        37    232.1061    977.0474 307.8140123  +6.2746009     1966.413     2601.378      2971.47     82.36441     164.5326     329.2288      1.396     3.28     968.8904     58.00886     320.6924        14     1.147     0.769  67.75   0
        38    631.0743    975.1459 307.6484092  +6.2887692     1112.271     1362.028     1469.098     82.36441      164.598     329.0979      1.325     3.08     964.3391     58.00886     169.8318        10     0.914     0.714  67.18   0
        39    120.1418    976.1857 307.8605316  +6.2711916     724.9281     963.4014     1312.831     81.83979     164.4671     328.8033      1.407     3.99     969.4312     58.00886      110.956         6     0.788     0.578  56.63   0
        40    822.6575    972.6653 307.5689365  +6.2962016     2817.184     3950.107     4150.819     82.62547     164.5326     329.1306      1.484     2.61     959.3387     58.00886     449.9423        17     1.030     0.880 -87.35   0
        41    770.9153    970.3728 307.5905000  +6.2954187     7667.048     10570.22     11333.38     82.62547     164.3361      328.967      1.475     2.96     960.7745     58.00886     1157.105        28     1.264     1.007  77.94   0
        42    738.5607    971.2003 307.6039077  +6.2939951     494.9977     521.6873     525.1128     81.44411     164.4017     328.8033      1.166     3.47     961.9989     58.00886     76.91315         5     0.764     0.454 -70.97   0
        43    204.9704    969.1291 307.8255474  +6.2769581     884.1536     1387.533     1583.943     82.36441      164.598     329.0979      1.701     5.73     968.8336     58.00886     120.1646        11     1.398     0.662  79.16   0
        44    557.3983    969.5332 307.6791921  +6.2886192     1166.745     1592.709     1858.393     81.83979     164.1395     328.8688      1.508     4.02     966.4154     58.00886     175.1995         9     1.017     0.608  76.90   0
        45    240.4175    969.4018 307.8108195  +6.2780370     1727.481     2319.751     2138.614     82.10252     164.1395     328.8033      1.423     2.96     968.9297     58.00886     239.7357        14     0.959     0.898  62.01   0
        46     65.2372    967.3770 307.8836270  +6.2729806      3069.34     4367.716     4328.122     82.10252     164.3361     328.8688      1.453     3.01     969.8773     58.00886     424.8252        22     1.189     0.978  74.98   0
        47    959.0453    965.4751 307.5125409  +6.3037250     7690.125     10641.35     11347.94     82.36441     164.6634     329.1306      1.495     3.06     955.4037     58.00886     1058.864        28     1.225     1.021  58.21   0
        48    215.0713    961.8700 307.8215985  +6.2802948     749.3795      1131.15     1221.599     82.49505     164.7288     329.0325      1.544     4.16     968.8416     58.00886     111.8015         7     0.861     0.662 -50.56   0
        49    641.3644    959.7036 307.6446560  +6.2954898     741.7695     1074.343     907.2355     82.49505     164.4671     329.2615      1.642     4.98     963.7839     58.00886     102.5515         8     1.078     0.651  53.48   0
        50    932.9136    957.0624 307.5236748  +6.3063265     2145.519     2941.465     2728.328     82.62547     164.7942     329.0979      1.395     3.06     955.9154     58.00886     330.2979        16     1.124     0.831  77.78   0
        51    653.5904    953.0410 307.6398032  +6.2986501     5186.121     7264.422     7532.272     81.83979     164.4017     328.8033      1.453     2.79     963.3896     58.00886     794.8925        26     1.289     0.933  71.31   0
        52    265.8081    953.3235 307.8008197  +6.2855287     5107.186     7012.582     6992.111     82.10252     164.0738     328.8688      1.436     2.70     969.0574     58.00886     831.7097        26     1.236     0.964  67.70   0
        53    792.4316    953.6157 307.5821283  +6.3030570     1559.101      1737.98      2090.38     82.10252     164.3361     328.9997      1.380     3.33     959.5756     58.00886     202.9346        12     0.939     0.816  80.97   0
        54     34.4972    950.7932 307.8969522  +6.2787927     2513.535     3530.838     3514.889     82.23357      164.205     328.8361      1.486     3.21     970.1708     58.00886     345.9121        18     1.230     0.869  69.54   0
        55   1002.7667    952.1991 307.4948300  +6.3106655     671.8826     802.6837      633.407     81.70811     164.4017     328.8361      1.307     4.29     953.7819     58.00886     113.8474         6     0.791     0.664  27.73   0
        56    476.1865    951.5663 307.7135207  +6.2933156      1301.05     1841.118      2120.93     81.97126     164.3361     328.9997      1.525     3.89     966.9891     58.00886     233.0833        14     1.090     1.011  71.00   0
        57    885.3642    949.6747 307.5436687  +6.3077893       1191.3     1367.855     1100.376     82.36441     164.6634     329.1306      1.459     3.53     957.3179     58.00886     167.0323        12     1.066     0.788  40.63   0
        58    977.7915    947.2546 307.5053674  +6.3118739     667.7827     1055.323     1644.607     81.83979     164.5326     328.8033      1.853     5.50     954.3492     58.00886     98.33514         9     1.259     0.677 -32.28   0
        59    956.7182    946.5801 307.5141412  +6.3114492     965.0652     1203.505     921.6227     82.10252     164.2706     329.0325      1.331     3.53     954.9194     58.00886     130.5538        10     0.914     0.767 -50.85   0
        60    578.4002    945.5872 307.6712776  +6.2992100     2060.832     3037.185     2757.765     82.10252     164.2706     328.9015      1.574     3.31     965.1392     58.00886     286.3293        17     1.146     0.928  62.14   0
        61    301.8459    946.7491 307.7860775  +6.2894538     1040.811     1486.257     2021.297     82.62547     164.4671     329.1634      1.483     3.40     969.1013     58.00886      144.927        10     0.928     0.752  69.30   0
        62   1009.9329    944.5918 307.4921091  +6.3140456     844.7762     1505.436     972.4475     81.97126     164.3361     328.9997      1.758     5.60     953.4382     58.00886     153.6612        10     1.468     0.602 -68.02   0
        63     67.2415    942.4010 307.8836401  +6.2833602     944.9843     1453.973     2008.669     81.83979     164.2706     328.7705      1.797     3.76     969.5423     58.00886     147.8738        10     0.977     0.793 -63.18   0
        64    617.2390    941.6885 307.6552806  +6.3021205     1665.251      2079.33     2446.388     82.49505     164.5326     329.1306      1.325     2.94     963.8814     58.00886     272.8853        15     1.090     0.826  42.12   0
        65    297.2300    939.6379 307.7882343  +6.2922349     1650.047     2339.768     2618.677     82.10252     164.3361      328.967      1.506     3.30     969.1214     58.00886     243.9562        14     1.094     0.810  75.92   0
        66    565.1240    937.3909 307.6770667  +6.3021494     731.4293     938.8827     747.0672     82.10252     164.1395     328.9015      1.244     1.93     965.3298     58.00886     151.0302         5     0.665     0.463  18.76   0
        67    764.3920    935.8915 307.5943680  +6.3094379     845.6436     1005.352     960.4539     82.10252     164.2706     328.8688      1.185     4.21     959.8226     58.00886     135.0718         7     0.852     0.595  67.41   0
        68    901.8394    932.4005 307.5374069  +6.3154720     8013.281     10947.81     10990.49     81.57622     164.3361     328.8033      1.432     2.97     956.1749     58.00886     1174.586        26     1.217     0.968  54.30   0
        69    139.8783    933.5720 307.8537779  +6.2894499       628.51     852.5202     1369.354     82.36441     164.5326     329.0979      1.518     4.18     968.7139     58.00886      83.5249         6     1.053     0.474  60.23   0
        70    111.2704    931.5898 307.8657239  +6.2893058      629.438     808.2578     1433.187     81.97126     164.2706     328.9343      1.626     4.04     968.7225     58.00886     100.0453         6     0.896     0.520  43.38   0
        71    606.5342    929.7443 307.6601281  +6.3066937     616.9786     461.9666    -165.3706     82.62547     164.4671     329.0979      1.162     3.42     963.7248     58.00886      90.1936         5     0.740     0.457  69.94   0
        72    437.8613    929.4230 307.7301820  +6.3011731     2523.542     3354.472     3382.051     82.10252     164.5326     328.9997      1.443     3.09     967.0508     58.00886     362.6184        18     1.101     0.996  44.83   0
        73    339.3704    927.9116 307.7711317  +6.2984918     11065.29     15044.36     15385.04     82.62547     164.3361      328.967      1.428     2.85     968.7939     58.00886     1572.127        32     1.238     1.029  71.19   0
        74    259.4502    926.7916 307.8043561  +6.2962697     7983.588     11284.05     11676.09     81.97126     164.4671     328.7705      1.509     2.83     969.0294     58.00886     1123.863        33     1.279     1.077  71.11   0
        75    587.6755    921.4132 307.6682400  +6.3095020     1387.166     1516.321     1173.121     81.97126     164.3361     328.9015      1.321     3.23     964.1703     58.00886     221.9131        13     1.094     0.749  56.52   0
        76    771.7896    921.1390 307.5917919  +6.3157765     843.3098       798.97     824.3873     81.83979     164.4671     328.8033      1.230     4.44      959.131     58.00886     130.2701         8     0.865     0.648  53.07   0
        77    917.6470    917.4720 307.5313435  +6.3221638     1221.592     1797.347     1641.351     82.49505     164.6634     329.0979      1.465     2.66     955.1642     58.00886     197.1503        11     0.902     0.771  80.28   0
