#   1 NUMBER                 Running object number                                     
#   2 X_IMAGE                Object position along x                                    [pixel]
#   3 Y_IMAGE                Object position along y                                    [pixel]
#   4 ALPHA_J2000            Right ascension of barycenter (J2000)                      [deg]
#   5 DELTA_J2000            Declination of barycenter (J2000)                          [deg]
#   6 FLUX_APER              Flux vector within fixed circular aperture(s)              [count]
#   9 FLUXERR_APER           RMS error vector for aperture flux(es)                     [count]
#  12 FLUX_RADIUS            Fraction-of-light radii                                    [pixel]
#  13 FWHM_IMAGE             FWHM assuming a gaussian core                              [pixel]
#  14 BACKGROUND             Background at centroid position                            [count]
#  15 THRESHOLD              Detection threshold above background                       [count]
#  16 FLUX_MAX               Peak flux above background                                 [count]
#  17 ISOAREA_IMAGE          Isophotal area above Analysis threshold                    [pixel**2]
#  18 A_IMAGE                Profile RMS along major axis                               [pixel]
#  19 B_IMAGE                Profile RMS along minor axis                               [pixel]
#  20 THETA_IMAGE            Position angle (CCW/x)                                     [deg]
#  21 FLAGS                  Extraction flags                                          
         1    177.7490     23.6862 307.8652775  +6.6682271     5703.781     13676.91     16848.64      87.9947     175.4316     351.1075      2.625     6.61     1087.768      61.8761     601.8674        67     2.415     1.502 -27.53   0
         2    522.1104     21.7076 307.7222516  +6.6805404     1671.424     3880.838     4015.089     87.99469     176.1286     351.0726      2.440     6.99      1066.93      61.8761     186.4147        29     1.984     1.157 -30.83   0
         3    923.1990     21.1701 307.5555953  +6.6941005     2481.825     5467.432     5606.222     87.29575     175.3617     350.8282      2.261     6.43     1056.658      61.8761     315.4456        35     1.974     1.130 -24.39   0
         4    986.7479     18.0348 307.5292934  +6.6975031     1244.619     2558.898     2633.506     87.85535     175.5712      350.933      2.117     5.21      1047.99      61.8761     141.4833        13     1.108     0.926 -89.95   2
         5    707.4345     13.9084 307.6455066  +6.6899302     3989.736     9380.298     11007.07     88.13381     175.4316     351.0726      2.476     6.82     1062.012      61.8761     440.9117        52     2.211     1.448 -22.85  16
         6    627.7863     13.1664 307.6786302  +6.6875863     1890.596     4460.005     5078.762     87.43599     175.2918      350.933      2.466     8.04     1064.348      61.8761     252.3413        32     1.973     1.194 -27.63   0
         7     28.9049      9.2984 307.9276193  +6.6691849     4490.126     10568.04     13067.21     87.99469     176.1981     350.8631      2.584     6.74     1092.491      61.8761     503.4414        57     2.323     1.421 -29.66  16
         8    428.0993      9.5010 307.7617354  +6.6824453     3460.706      7727.48     10012.56     87.99469     175.9894     350.8631      2.640     6.82     1071.663      61.8761     372.9601        51     2.357     1.377 -25.50  16
         9    324.5248      4.4880 307.8049466  +6.6810579     6877.747     16506.32      20512.4      87.9947     175.9198     314.7493      2.657     6.65     1081.335      61.8761     799.4844        70     2.462     1.531 -30.12  24
        10     98.1688      4.9451 307.8989886  +6.6733013     1374.245       3340.2     4039.055     87.85535      175.641     320.6496      2.530     8.10     1090.133      61.8761     175.2195        28     1.964     1.113 -25.42  16
        11     88.8037      4.2551 307.9029037  +6.6732727     758.2509     1766.452     2468.908     87.29575     174.5915     311.1476      2.592     7.29     1090.386      61.8761     113.5374         9     1.484     1.001 -14.90  16
        12    390.9143      2.6303 307.7774227  +6.6840411     1079.594     2370.663     2514.157     87.99469     159.0974     286.9344      2.286     7.56     1074.955      61.8761     136.3774        18     2.010     0.797 -27.25  24
        13    541.6701    997.5859 307.6807571  +6.2782999     5329.918     11292.86     13530.88     87.43599     175.4316      350.933      2.285     6.27     1116.158      61.8761     677.1447        49     2.275     1.135 -28.69   0
        14   1005.7284    993.7411 307.4881957  +6.2953009     3471.378     7212.286     7831.802     88.13382     175.5712     351.0377      2.169     6.78     1103.579      61.8761       468.54        36     2.135     0.986 -27.97   0
        15    884.0092    994.2244 307.5387221  +6.2910653     8391.435     17960.37     20590.29       87.576     175.3617      350.898      2.264     7.55     1107.152      61.8761     1203.687        52     2.265     1.084 -26.02   0
        16    597.0680    994.4565 307.6578615  +6.2814356     947.8714     2040.006     2116.417     88.13381     175.5014     350.9679      2.110     7.10     1116.023      61.8761      135.028        14     1.683     0.889 -11.71   0
        17    528.1925    993.4294 307.6864953  +6.2795672     2525.166     5587.897      6623.56       87.576     175.3617     350.7933      2.328     6.44      1115.71      61.8761     314.0389        33     1.964     1.119 -29.11   0
        18    637.6765    993.1244 307.6410452  +6.2833365     989.7103     1745.311     1686.129     88.27272     175.8501     351.1424      2.089     5.40     1114.411      61.8761     142.9424        11     1.348     0.610 -23.28   0
        19    480.9488    989.8467 307.7062344  +6.2794730     1288.281     2871.309     2706.416     88.13381     175.4316     351.1075      2.196     7.10     1114.979      61.8761     178.5021        22     1.934     1.028 -40.44   0
        20    915.6807    981.8195 307.5259931  +6.2972374     30234.94     62707.12     71414.36       87.576     175.2219     350.9679      2.211     7.48     1106.239      61.8761     4070.694        81     2.302     1.184 -27.45   0
        21    222.7220    980.5447 307.8137723  +6.2747006     1092.261      2384.76      2925.77     88.13382     175.5712     351.0726      2.390     7.67     1116.625      61.8761     142.7778        17     1.941     0.848 -34.76   0
        22    622.3299    978.0790 307.6479312  +6.2890376     659.5065     1238.243     621.5959     88.27272     175.8501     351.0028      1.611     6.28     1114.227      61.8761      123.506         9     1.587     0.699 -30.69   0
        23    813.5178    975.7101 307.5686236  +6.2963695     1656.151     3318.681     3581.446     87.71579     175.8501     351.1075      2.045     7.94     1108.322      61.8761     209.3237        24     1.945     0.906 -27.50   0
        24    761.9770    973.4544 307.5901024  +6.2955891     4307.913     9427.587     11354.88     87.43599     175.5712     350.8282      2.316     7.47     1109.594      61.8761     596.3696        44     2.300     1.081 -30.05   0
        25    231.5303    972.6595 307.8103853  +6.2782501     868.5081     1850.732     2447.756     88.13382     175.5712     351.0377      2.753     7.74     1116.547      61.8761       100.92        16     1.576     1.065 -30.89   0
        26    195.4625    971.8715 307.8253880  +6.2773708     636.8937     1461.492      1921.37     88.13381     175.5712     351.1075      2.737     5.61     1116.479      61.8761     100.2023         9     1.761     0.503 -31.66   0
        27     56.2751    970.7021 307.8832193  +6.2732009     1755.651     3859.195     4445.425       87.576     175.7804     351.0377      2.352     7.15     1116.633      61.8761     263.5869        27     2.000     0.915 -29.23   0
        28    950.0762    968.5825 307.5121609  +6.3038432     4824.189     10159.51     11205.91     87.43599     175.2918     350.9679      2.209     7.42     1104.908      61.8761     717.2966        41     2.142     1.028 -27.08   0
        29    923.7754    960.3846 307.5233614  +6.3063556     1450.554     2833.222     2833.516     87.71579     175.3617     350.9679      1.989     7.21     1105.086      61.8761     178.0652        20     2.019     0.721 -27.24   0
        30    644.6016    956.2314 307.6394290  +6.2987983     2901.829     6223.409     6693.661     87.29576     175.3617     350.7933      2.266     7.03     1111.974      61.8761     351.2538        39     2.259     1.061 -27.95   0
        31    256.8633    956.5006 307.8004203  +6.2857671     2693.187     6009.668      6888.88     87.71579      175.641     351.0726      2.325     7.17     1116.395      61.8761     357.1749        37     2.174     1.102 -29.84   0
        32    781.6118    957.2651 307.5825010  +6.3029252     773.3849     1376.517     2008.828     87.43599     175.3617      350.898      2.255     5.10     1108.578      61.8761     119.5939         8     1.028     0.716  68.69   2
        33    465.4716    955.6105 307.7138314  +6.2930919     801.3816     1544.853     1210.302     87.43599      175.152     350.8631      2.019     3.77     1114.432      61.8761      148.319         6     0.955     0.510 -33.67   0
        34     25.8472    954.1415 307.8964215  +6.2790198     1334.608     3027.365     3038.432     87.99469     175.5712     351.1773      2.261     8.60     1116.316      61.8761     213.6301        25     2.151     0.960 -25.02   0
        35    876.5632    952.6594 307.5432294  +6.3079789      587.895     1340.447     952.9687      87.9947      175.641     351.0377      2.227     6.64     1105.788      61.8761     108.5951         8     1.777     0.697 -48.09   0
        36    599.4919    951.8851 307.6583087  +6.2990921     3356.976     4746.992     4532.315     87.71579      176.059     351.1424      1.475     5.14     1112.982      61.8761     683.7729        11     1.493     0.500  89.83   0
        37    947.5481    950.1033 307.5138396  +6.3113887      625.054     1304.988     976.9513     87.85535     175.5712     351.3168      1.913     6.09     1104.258      61.8761     89.39404        10     1.735     0.601 -50.25   0
        38    568.9343    948.9099 307.6710991  +6.2993035     1184.094     2123.387     2395.091     87.85535     175.7107     351.0377      1.945     7.45     1113.281      61.8761     147.2655        19     1.739     0.893 -30.27   0
        39    607.3425    946.1057 307.6552462  +6.3017394     772.8877     1385.254     1803.818     87.85535     175.5712      351.247      2.189     5.43       1112.4      61.8761     132.0804         8     1.509     0.552  -3.97   0
        40    288.1027    943.1128 307.7879077  +6.2923369     962.0813     2050.742     2465.716     87.99469      176.059     351.0726      2.269     6.84     1116.297      61.8761     140.9799        14     1.520     0.863 -24.18   0
        41    755.3543    939.1238 307.5940229  +6.3095428      629.203     1450.102     1345.312     87.85535      175.641     351.0726      2.264     5.90     1108.576      61.8761     106.4907         9     2.224     0.441 -31.47   0
        42    892.7458    935.4973 307.5370939  +6.3156014     4712.396     9892.539     10895.03     87.85535     175.5712     351.2819      2.199     7.22      1104.73      61.8761     604.7748        43     2.208     1.033 -27.65   0
        43    428.3023    933.2513 307.7300301  +6.3010843      1266.45     2925.399     3630.735     87.85535     175.5712     351.2819      2.540     6.34     1114.705      61.8761     140.0071        17     1.417     1.130 -17.22   2
        44    330.4051    931.1213 307.7707532  +6.2986992     5723.055     13209.04     15950.72       87.576      175.012     350.7933      2.445     6.76     1115.652      61.8761     674.5562        53     2.259     1.245 -26.60   0
        45    250.5756    930.0919 307.8039360  +6.2964598     4305.988     9719.126     11700.66     88.13381     175.3617     350.8631      2.448     6.67     1116.182      61.8761     550.0793        49     2.343     1.223 -28.83   0
        46    580.2025    924.4058 307.6672570  +6.3097952     617.2375      1102.43     2188.683     87.29576     175.2219     350.8631      2.343     4.45     1111.659      61.8761     87.44495         5     1.187     0.475   6.65   0
        47    908.2585    920.5772 307.5311601  +6.3222759      727.673     1404.315     1867.396       87.576     175.5712     350.8631      2.783     6.77     1103.739      61.8761     95.95679        12     1.586     0.809 -32.50   0
        48    744.5952    913.7962 307.5993543  +6.3196421     1174.867     2286.321     2720.136     87.29576      175.082     350.8631      2.083     6.95     1107.963      61.8761     151.6046        17     1.804     0.750 -25.04   0
        49    567.7723    914.9824 307.6727405  +6.3132720     564.1039     952.4781     882.4614       87.576     175.3617      350.933      1.524     3.82     1111.728      61.8761     90.79431         5     1.258     0.333 -25.58   0
        50    975.7318    909.6116 307.5035138  +6.3290407     1112.078     2258.865     3053.334     87.43599     175.3617     350.8981      2.177     7.28      1102.49      61.8761     139.7324        16     1.960     0.757 -37.79   0
        51    528.4926    909.8461 307.6892269  +6.3140849     760.8743     1390.385     1548.629      87.9947     175.5014     351.1773      1.954     4.59     1112.498      61.8761     89.10168         6     1.009     0.593  23.55   0
        52    663.1071    907.2078 307.6334178  +6.3196535     1575.766      3568.04     4137.092       87.576     175.2219     350.8282      2.360     7.98     1109.284      61.8761     231.1172        25     2.208     0.806 -22.62   0
        53    203.6713    902.5498 307.8243560  +6.3062640     1259.484     2964.109      3203.31      87.9947     175.5712     351.0726      2.334     7.98     1115.917      61.8761     208.0685        19     1.969     0.905 -30.41   0
        54     59.7332    903.3102 307.8840969  +6.3011386     1982.164     4401.093     4777.451     88.13382     175.7107     351.0028      2.298     6.39      1114.94      61.8761     292.6262        31     1.944     1.134 -32.49   0
        55    940.3701    903.1605 307.5184180  +6.3305317     573.7445     853.7828     834.0054     87.43599     175.2219      350.898      1.877     5.21     1102.277      61.8761     95.61768         5     1.427     0.538 -50.73   0
        56     77.1800    902.4054 307.8768836  +6.3020956      1301.58     2595.605     2538.591       87.576     175.2219     350.8282      2.031     7.70     1115.103      61.8761     164.6317        22     1.814     0.915 -15.22   0
        57    658.0264    896.1807 307.6359039  +6.3240372     4390.922     9593.734     11555.16       87.576     175.3617      350.933      2.383     6.54     1108.962      61.8761     521.5818        43     2.161     1.123 -25.42   0
        58    794.4226    897.2185 307.5792280  +6.3281415     631.1889     1068.723     1362.347     87.71579     175.5014     350.9679      2.132     4.48      1105.92      61.8761     117.5151         7     1.523     0.375 -26.43   0
        59    895.8447    892.2424 307.5372799  +6.3335625     1785.832     3884.141     4601.797     87.85535     175.5712      350.898      2.338     8.50     1102.917      61.8761     241.3719        28     2.353     0.857 -32.72   0
        60     18.0698    894.7953 307.9016888  +6.3032598     671.7889     1607.892     1761.331     87.43599      175.152     350.8631      2.357     5.95     1114.165      61.8761     141.4713         9     1.613     0.618 -23.55   0
        61     31.2363    893.0613 307.8962813  +6.3044163     764.7953     1577.637     2092.546     87.99469     175.5712     351.0028      2.435     7.12     1114.272      61.8761     110.0667        12     1.789     0.794 -17.57   0
        62    341.1296    889.3909 307.7677287  +6.3162852     9666.092     21900.85     26560.78     87.43599      175.152     350.8631      2.420     6.80     1115.143      61.8761     1179.498        66     2.377     1.317 -29.41   0
        63     76.0019    890.3148 307.8777878  +6.3070477     778.9811     1566.097     1477.086     87.29575      175.152     350.7234      2.140     7.21     1114.865      61.8761      125.719        13     1.538     0.946 -11.39   0
        64    211.6347    889.0452 307.8215122  +6.3121053     888.9857     1598.714     1447.081       87.576     175.5014      350.933      1.962     4.84     1115.902      61.8761     138.1022         9     1.131     0.587 -27.43   0
        65    104.4723    880.2034 307.8663131  +6.3121742     1247.025     2552.101     3001.696     87.43599      175.082     350.8631      2.171     7.96     1115.105      61.8761     151.4292        22     1.731     1.023 -32.03   0
        66    418.3212    880.0074 307.7359961  +6.3227334     648.9879     1101.965     983.7709       87.576      175.012     350.7933      1.714     3.39     1113.164      61.8761     142.7826         5     0.818     0.407 -71.15   0
        67     87.8511    873.9615 307.8734289  +6.3141953     1671.945     3464.773     3926.942     87.71579     175.5014     350.9679      2.188     7.46     1114.821      61.8761     216.5074        25     1.864     1.030 -32.75   0
        68    886.1611    874.1730 307.5419167  +6.3407014     1432.421      2607.32     3024.896       87.576     175.3617     350.8631      2.031     7.12     1102.542      61.8761     206.9673        21     1.894     0.750 -30.33   0
        69    855.2247    874.5377 307.5547514  +6.3395242      1408.79     2032.354      2458.69       87.576     175.5014     350.9679      1.608     4.06     1103.522      61.8761     210.5166        12     1.185     0.784 -47.08   3
        70    858.3148    873.3339 307.5535092  +6.3401237     1023.516     1802.166     1907.868     88.13382     175.8501     351.1075      2.132     5.06     1103.386      61.8761     145.3628         9     1.153     0.939 -34.40   3
        71    819.9520    873.0512 307.5694501  +6.3389670     2007.284     4384.945     4995.682     88.13382     175.4316     351.0377      2.298     7.83     1104.142      61.8761     264.1304        28     2.020     0.953 -29.89   0
        72    556.1351    864.5463 307.6792960  +6.3337074     201353.7     444543.1     526193.9     87.99469     175.5014     351.0028      2.395     6.65     1110.759      61.8761     23512.34       192     2.509     1.521 -27.81   0
        73    343.6164    865.5985 307.7675107  +6.3261909     7364.812     16258.22     19517.87       87.576      175.082     350.7933      2.441     6.76     1114.886      61.8761     839.1324        62     2.447     1.270 -30.45   0
        74    400.4095    867.1245 307.7438748  +6.3274550     4660.596     10454.51     12147.28       87.576      175.082     350.8282      2.329     6.29     1113.239      61.8761     535.8447        49     2.244     1.212 -29.06   0
        75    661.8362    861.7797 307.6354960  +6.3383665     2230.635     5229.933     5884.718     87.43599     175.3617     350.7584      2.386     7.19      1107.52      61.8761     283.7008        35     2.176     1.094 -26.25   0
        76    894.2980    860.6350 307.5389986  +6.3465607     3731.102     7457.667      8207.24      87.9947     175.4316     351.2122      2.154     6.69     1101.697      61.8761     471.6404        36     2.037     0.997 -26.69   0
        77    824.4464    855.5058 307.5681815  +6.3463600     1011.451     1966.962      1980.35     87.85535     175.5014     351.1773      1.953     6.44     1103.409      61.8761     148.1517        14     1.439     1.091  -5.30   0
