#   1 NUMBER                 Running object number                                     
#   2 X_IMAGE                Object position along x                                    [pixel]
#   3 Y_IMAGE                Object position along y                                    [pixel]
#   4 ALPHA_J2000            Right ascension of barycenter (J2000)                      [deg]
#   5 DELTA_J2000            Declination of barycenter (J2000)                          [deg]
#   6 FLUX_APER              Flux vector within fixed circular aperture(s)              [count]
#   9 FLUXERR_APER           RMS error vector for aperture flux(es)                     [count]
#  12 FLUX_RADIUS            Fraction-of-light radii                                    [pixel]
#  13 FWHM_IMAGE             FWHM assuming a gaussian core                              [pixel]
#  14 BACKGROUND             Background at centroid position                            [count]
#  15 THRESHOLD              Detection threshold above background                       [count]
#  16 FLUX_MAX               Peak flux above background                                 [count]
#  17 ISOAREA_IMAGE          Isophotal area above Analysis threshold                    [pixel**2]
#  18 A_IMAGE                Profile RMS along major axis                               [pixel]
#  19 B_IMAGE                Profile RMS along minor axis                               [pixel]
#  20 THETA_IMAGE            Position angle (CCW/x)                                     [deg]
#  21 FLAGS                  Extraction flags                                          
         1    590.0557     25.5375 307.6802232  +6.6764054     2271.449     5179.299     6712.183     84.76347     168.8571     337.6136      2.682     6.56     986.3374     59.50988     307.4688        39     1.914     1.729 -43.04   0
         2    169.6003     12.2982 307.8553572  +6.6678251     654.6076     1309.146     1056.519     84.09233      168.454     337.2105      1.975     5.18     1011.594     59.50988     117.4184         7     1.583     0.478 -18.68   0
         3    147.1893      9.1541 307.8647735  +6.6683734     7962.932     15489.58     16945.78     84.09232     168.7228     337.2777      2.070     5.86     1011.725     59.50988     1017.419        47     2.094     1.062 -23.61  16
         4    490.9831      7.4206 307.7219905  +6.6805851     2198.219     4177.769     4185.546     84.36142     168.6557     332.5745      1.982     5.92     988.1492     59.50988     301.9594        28     2.005     0.869 -26.23  16
         5    892.7336      6.9085 307.5550785  +6.6941780     3151.145     5886.887     6437.191     84.62966     169.0583     328.7704      1.945     6.92     976.8481     59.50988     457.4396        25     1.948     0.747 -25.94  16
         6    429.5220      5.8221 307.7475804  +6.6791935     1415.573     2710.579     2874.301     84.22698     168.6557     318.5819      1.982     6.63     992.3237     59.50988     173.9658        18     1.803     0.683 -25.15  16
         7    693.3738      5.4651 307.6379622  +6.6881412     1535.871     2893.432     2829.167     84.22698       168.79     314.4285      1.894     6.71     982.7899     59.50988     205.8895        19     1.737     0.734 -23.79  16
         8    957.2793      2.9456 307.5283902  +6.6979599     1637.815     3146.499     3291.418     84.76347     156.9617     280.6848      2.022     6.89     973.9249     59.50988     231.1312        26     1.892     0.979 -24.25  24
         9    753.3857      2.6075 307.6131218  +6.6913200     374.9947     420.6395     371.3809     84.22698     152.5683     275.3038      1.241     4.94     980.9151     59.50988     69.97626         5     1.167     0.593 -31.65  16
        10    675.2714      1.2133 307.6456252  +6.6892948     2218.259     2606.514     2661.508     71.72854     132.1923     251.9173      1.173     3.73     983.1231     59.50988     576.9863         9     1.248     0.401  -3.95  24
        11    209.3293   1005.4711 307.8056984  +6.2588379     1197.195      1994.96     2406.212     84.62966     168.9913     337.5464      1.887     6.49     1035.032     59.50988     184.4641        16     1.819     0.650 -28.72   0
        12    761.7929   1023.0776 307.5757535  +6.2699905     5497.146     8636.734      8997.07     80.23027     142.7443     264.0844      1.605     6.66     1026.133     59.50988     895.9517        24     1.754     0.709 -18.23  24
        13    552.8388   1023.9462 307.6624747  +6.2626740     8553.229      10637.5     11455.42     69.80689     129.7697     249.1127      1.157     3.37     1031.511     59.50988     2951.332        14     1.704     0.320  -3.38  27
        14    552.3378   1019.3104 307.6628368  +6.2645726        61549     111801.3     122009.8     84.62966     168.9913     317.0844      1.961     7.35     1031.381     59.50988     9609.785        91     2.171     1.030 -25.83  18
        15    407.5080   1004.3621 307.7234613  +6.2659175     777.5722     1109.341     1188.804     84.76347       168.79     337.6807      1.841     5.59     1032.825     59.50988     148.8571         8     1.494     0.590 -21.64   0
        16    700.1130   1002.7554 307.6020354  +6.2763344     825.3898     1445.245     1650.672     84.62966     168.7228     337.6136      1.873     4.86     1026.423     59.50988       148.23         8     1.778     0.376 -24.21   0
        17    331.4316   1000.9368 307.7551589  +6.2647924     1685.623     3164.816     3170.441     84.36142     168.9242       337.58      1.952     6.41     1035.127     59.50988     266.9347        20     1.740     0.844 -26.74   0
        18    484.9959    991.8236 307.6917085  +6.2736833     925.0173     1396.326     910.4138     84.22698     168.5885     337.4457      1.442     4.20     1032.302     59.50988     169.5544        10     1.145     0.610 -31.26   2
        19    718.2538    990.4399 307.5949126  +6.2820262     6814.222        12122     12904.31     84.49565     168.8571     337.6136      1.910     6.54      1025.91     59.50988     1184.135        34     1.980     0.825 -25.80   0
        20    513.6234    991.0051 307.6798506  +6.2749762     3641.761     6553.911     7552.417     84.09232     168.5885     337.4457      1.898     7.23     1031.504     59.50988     538.1021        26     1.894     0.774 -26.77   0
        21    263.9501    989.7092 307.7835482  +6.2671760     12570.81     22857.59     25015.07     84.62966     168.6557     337.8149      1.967     6.42     1035.019     59.50988      1851.56        46     2.198     0.870 -26.31   0
        22    388.0371    990.5148 307.7320058  +6.2709885     853.2477     1482.633     1291.492     84.62966     168.8571     337.6136      1.819     5.67     1033.614     59.50988     151.5121        11     1.751     0.518 -30.13   0
        23    781.0015    989.0831 307.5689061  +6.2846743     813.5731     1339.603     1646.799     83.82236     168.3867     337.3113      1.892     3.50     1024.268     59.50988     157.7549         8     0.962     0.673 -21.97   2
        24    235.4376    987.3187 307.7954650  +6.2672104     726.0781     1368.336     1235.001     84.62966     168.9242     337.5464      1.931     5.97     1035.004     59.50988     115.2416        10     1.544     0.649 -25.96   0
        25    879.4854    983.9205 307.5281885  +6.2900810     7549.399     13739.95     14957.57     84.49565     169.1924     337.7142      1.929     7.15     1022.114     59.50988     1103.491        38     2.036     0.846 -25.47   0
        26    596.0269    986.6080 307.6457853  +6.2795395     412.7057     575.3926     642.8607     84.22698     168.6557     337.4457      1.765     4.29     1028.859     59.50988     82.18896         5     1.608     0.326 -26.92   0
        27    510.8813    983.2562 307.6812467  +6.2780862     7011.746     12617.16     13902.29     84.62966     168.8571     337.6471      1.878     6.29      1031.31     59.50988     1078.597        35     1.966     0.833 -23.52   0
        28    853.0951    980.0649 307.5392731  +6.2907970     10507.84     19417.59     21416.68     84.62966     168.9913     337.6471      1.957     7.04      1022.68     59.50988     1746.468        46     2.109     0.962 -23.32   0
        29    974.8278    979.4785 307.4887506  +6.2950825     4250.198     7892.979     8325.509     84.49565       168.79     337.6136      1.958     6.88     1016.709     59.50988      626.736        29     1.907     0.868 -25.24   0
        30    563.7285    981.2905 307.6593714  +6.2806602     863.4015     1326.527     1569.775     84.49565     169.1254     337.6136      1.345     3.03     1029.727     59.50988     207.6166         6     0.881     0.477 -32.83   3
        31    566.9890    980.2926 307.6580509  +6.2811811     1018.128     1409.705     1635.332     84.36142     168.5212     337.4121      1.497     4.55     1029.596     59.50988     178.0377         8     1.187     0.495 -48.81   3
        32    497.2468    979.0805 307.6870462  +6.2793567     3412.025     6379.122     7213.155     84.62966     168.8571     337.6136      1.957     5.84     1031.539     59.50988     502.8477        29     1.847     0.898 -19.78   0
        33    606.6490    978.5132 307.6416442  +6.2832377     1228.924     2025.068     2234.962     84.62966       168.79     337.6807      1.904     5.97     1028.255     59.50988     220.0923        15     1.857     0.540 -21.73   0
        34     31.6751    977.7938 307.8803745  +6.2643257     688.0699     1142.793     1557.095     84.22698     168.3194     337.4457      1.763     5.58     1037.536     59.50988     121.4103         9     1.626     0.539 -28.44   0
        35    450.3015    975.6187 307.7066516  +6.2792209     1776.697     3316.881     3804.755     84.62966     168.7228     337.3449      2.104     7.04     1032.139     59.50988     276.2557        20     1.915     0.725 -22.72   0
        36    884.8097    967.6299 307.5265176  +6.2969884     37887.55     68158.43     72723.87     84.09232     168.6557     337.4121      1.879     6.29     1020.991     59.50988     6359.823        60     2.035     0.924 -24.40   0
        37    192.5220    965.8077 307.8139991  +6.2746622     1483.021      2632.42      2879.41     84.22698     168.3194     337.3785      2.061     6.63     1034.992     59.50988     244.8645        17     1.779     0.694 -25.51   0
        38     79.1686    964.9466 307.8610869  +6.2712242     583.4386     914.3787     1286.269     84.49565     168.9242     337.5128      1.842     4.52     1036.312     59.50988     105.8119         6     1.401     0.414 -28.64   0
        39    590.2238    964.0751 307.6489433  +6.2886556     722.7297     1241.552     1514.625     84.22698     168.6557     337.5464      2.191     5.23     1028.349     59.50988      122.873         8     1.533     0.503 -34.51   0
        40    731.0518    959.2493 307.5906340  +6.2953386     5701.728     10495.58      11817.5     84.76347     168.7228       337.58      1.976     6.47     1024.584     59.50988     964.2172        36     1.958     0.954 -27.13   0
        41    782.8220    961.4225 307.5690676  +6.2961629     1966.566     3615.418     4002.936     84.36143     168.7228       337.58      1.899     6.03     1023.262     59.50988     368.0844        18     1.899     0.602 -18.38   0
        42    517.1437    958.1592 307.6794813  +6.2886638     725.1827     1427.816     1164.293     84.49565     168.9242     337.6471      1.980     7.55     1030.301     59.50988     149.1442        11     1.533     1.277  35.56   0
        43    200.4738    958.3776 307.8109457  +6.2779979     1405.303     2402.955      2735.74     84.22698     168.6557     337.5464      1.801     6.42     1034.978     59.50988     194.5752        17     1.652     0.701 -24.89   0
        44    164.9140    958.1246 307.8257171  +6.2769128     656.7821     1055.333     1259.467     84.76347     169.1924     337.6807      1.815     5.12     1035.012     59.50988      95.6012         7     1.489     0.497 -18.73   0
        45     25.5736    956.3591 307.8836237  +6.2729767     2474.201     4300.882     4426.254     84.22698     168.6557     337.4457      1.783     6.22     1037.712     59.50988     336.6672        22     1.807     0.725 -24.61   0
        46    919.2579    954.3830 307.5126537  +6.3036058     5930.249     10629.08     11316.72     84.09233       168.79     337.3449      1.897     6.21     1018.705     59.50988     1046.813        33     2.083     0.765 -22.51   0
        47    893.0072    946.0151 307.5238301  +6.3061911     1752.194     2959.264     2888.333     84.22698     168.5885     337.4457      1.752     6.14     1019.451     59.50988     287.3212        18     1.860     0.643 -24.99   0
        48    226.0421    942.2490 307.8008687  +6.2855164     3677.185     6773.101      7309.59     84.62966       168.79       337.58      1.966     7.02      1034.92     59.50988     546.9523        31     2.060     0.831 -26.69   0
        49    752.1597    942.6661 307.5824204  +6.3028923     1157.551     1917.579     1844.461     84.62966       168.79     337.7142      1.865     5.75     1023.419     59.50988     192.1274        12     1.539     0.606 -25.68   0
        50    613.7267    941.8989 307.6399221  +6.2986008     3752.933      6830.69     7204.151     84.22698     168.9913       337.58      1.925     6.24     1026.985     59.50988     581.4092        27     1.902     0.790 -24.13   0
        51    435.7155    940.3330 307.7138816  +6.2933123     1020.657     1842.513     1760.203     84.76347     169.1254     337.6471      1.966     6.68     1031.897     59.50988     163.1958        12     1.900     0.659 -19.08   0
        52    846.6017    938.2701 307.5433542  +6.3078490     753.4656     1142.709     874.7721     84.09233     168.3867     337.4121      1.322     4.63     1020.793     59.50988      155.566         8     1.640     0.371 -58.53   0
        53    260.1799    936.0587 307.7869021  +6.2892152     506.3474     1158.041     1784.962     84.22698     168.7228     337.4121      2.923     4.67     1034.726     59.50988     91.49951         5     1.160     0.533 -57.36   2
        54    916.6585    935.8716 307.5143461  +6.3111676     638.7242     1073.711     1560.788     84.76347     168.8571     337.6136      2.017     4.88      1017.82     59.50988     101.1962         9     1.612     0.419 -22.29   0
        55    969.8777    934.1723 307.4923056  +6.3136368     813.0938     1649.372     2235.373     84.49565       168.79     337.6136      2.597     7.55     1014.856     59.50988     127.2099        12     1.596     1.000 -30.62   0
        56    538.0474    934.4954 307.6715892  +6.2991374      1407.28     2638.111     3326.987     84.49565     168.7228     337.7813      2.020     6.26      1028.95     59.50988     209.3781        18     1.821     0.663 -20.18   0
        57     27.1282    931.7186 307.8838018  +6.2832086     564.4948     824.7218     1561.754     84.89706     169.1924     337.6471      1.729     4.50     1037.721     59.50988     92.59521         6     1.493     0.385 -32.53   0
        58    575.5627    931.5487 307.6561113  +6.3016053     735.9145     972.7712     1119.256     84.36143     168.8571       337.58      1.315     3.03     1027.781     59.50988     132.7142         5     0.746     0.441 -24.14   3
        59    578.6295    930.6522 307.6548678  +6.3020779     810.0691     976.5298      1226.14     84.36143     168.9913     337.5128      1.324     2.45      1027.66     59.50988      152.209         6     0.718     0.581 -38.97   3
        60    257.6094    928.6534 307.7882162  +6.2921888     1197.951     2455.764     2675.704     83.95746       168.79     337.3113      2.136     5.81       1034.7     59.50988     177.5916        14     1.724     0.552 -25.65   0
        61    526.2949    926.4476 307.6767364  +6.3020706     541.1285     868.7704     308.1547     84.49565     168.7228     337.7478      1.464     3.46     1028.997     59.50988      100.771         5     1.027     0.337 -22.14   0
        62    724.3356    924.8820 307.5945630  +6.3093141      735.182     1271.471     1330.536     84.76347     168.9913     337.6136      1.804     6.45     1023.536     59.50988     131.3901        10     1.790     0.653 -19.62   0
        63    861.9270    921.3384 307.5375523  +6.3153537     6031.193     10800.21     11503.31     84.76347     168.8571     337.6471      1.873     6.44      1019.57     59.50988     1086.272        30     2.013     0.759 -25.59   0
        64    397.7422    918.4736 307.7303751  +6.3010760     1708.558     2910.507     2984.752     84.62966     168.8571       337.58      1.863     6.60     1032.741     59.50988     250.6423        20     1.729     0.817 -24.81   0
        65    299.5102    916.8230 307.7712143  +6.2984769     7962.811     14297.45     15525.56     84.62966     168.6557     337.4793      1.921     6.28      1034.48     59.50988      1088.66        38     2.011     0.882 -24.82   0
        66    219.5623    915.7592 307.8044424  +6.2962437     6003.392     10947.46     11599.69     84.36143     168.8571     337.4793      1.920     6.09     1034.913     59.50988     833.5698        38     1.989     0.890 -23.80   0
        67    547.4796    910.3207 307.6684768  +6.3094396     1041.676     1490.435     1899.447     84.89706     169.1254     337.7813      1.859     6.09     1027.976     59.50988     171.2802        13     1.720     0.606 -22.05   0
        68    732.1866    909.7126 307.5918067  +6.3158426      685.244     1049.434     1015.663     84.22698     168.6557     337.5128      1.565     4.49     1022.696     59.50988       136.96         7     1.389     0.413 -26.48   0
        69    877.7835    906.1379 307.5314723  +6.3221608     908.4673     1730.985     1356.192     84.09232       168.79     337.4121      1.987     7.04     1018.353     59.50988     171.3136        13     1.957     0.771 -30.09   0
        70    832.2822    906.2537 307.5503610  +6.3206008      569.291     1367.218     1637.297     84.62966     168.8571     337.6807      2.398     4.18      1019.85     59.50988     142.2604         6     1.269     0.455 -37.03   2
        71    180.7097    905.8911 307.8209023  +6.2990210     556.4443     910.6843     752.3638     84.62966     169.3932     337.7142      1.796     6.09     1035.021     59.50988     92.39758         8     1.180     0.884 -14.59   0
        72    376.8197    904.6270 307.7395229  +6.3060981     574.1079     704.9401     17.54084     84.22698     168.6557     337.5128      1.159     2.33     1033.299     59.50988     115.0337         5     0.704     0.453  18.23   0
        73    713.9799    899.5041 307.5997050  +6.3194544     1310.639     2605.757     3182.808     84.49565     168.6557     337.4121      2.079     6.06     1022.959     59.50988     227.5831        15     1.966     0.525 -23.07   0
        74    945.5557    895.0014 307.5037012  +6.3290131      1303.96      2164.03     3178.523     83.95745      168.454     337.1769      1.688     5.25     1015.192     59.50988     273.0771        16     1.711     0.651 -25.87   0
        75    577.4813    896.2543 307.6564877  +6.3162512     662.2378     1041.029     1434.081     84.62966     168.8571     337.6807      1.973     5.04     1026.512     59.50988     95.89185         8     1.244     0.577 -15.05   0
        76    499.2910    895.2141 307.6889869  +6.3140741     766.6168     1489.933     1619.242     84.36142     168.6557     337.4121      2.316     5.98      1028.78     59.50988     137.9723        11     1.910     0.526 -28.69   0
        77    632.2935    893.0718 307.6338352  +6.3193922     1530.581     3154.097     3740.852     84.49565     168.9242     337.6807      2.268     7.39     1024.865     59.50988     325.5236        19     1.971     0.776 -23.84   0
