#   1 NUMBER                 Running object number                                     
#   2 X_IMAGE                Object position along x                                    [pixel]
#   3 Y_IMAGE                Object position along y                                    [pixel]
#   4 ALPHA_J2000            Right ascension of barycenter (J2000)                      [deg]
#   5 DELTA_J2000            Declination of barycenter (J2000)                          [deg]
#   6 FLUX_APER              Flux vector within fixed circular aperture(s)              [count]
#   9 FLUXERR_APER           RMS error vector for aperture flux(es)                     [count]
#  12 FLUX_RADIUS            Fraction-of-light radii                                    [pixel]
#  13 FWHM_IMAGE             FWHM assuming a gaussian core                              [pixel]
#  14 BACKGROUND             Background at centroid position                            [count]
#  15 THRESHOLD              Detection threshold above background                       [count]
#  16 FLUX_MAX               Peak flux above background                                 [count]
#  17 ISOAREA_IMAGE          Isophotal area above Analysis threshold                    [pixel**2]
#  18 A_IMAGE                Profile RMS along major axis                               [pixel]
#  19 B_IMAGE                Profile RMS along minor axis                               [pixel]
#  20 THETA_IMAGE            Position angle (CCW/x)                                     [deg]
#  21 FLAGS                  Extraction flags                                          
         1    172.4670     20.8817 307.8649313  +6.6682317     9809.731     16220.88     16826.83     78.50647      156.641     312.7541      1.802     4.27     828.5707     55.11703     1097.973        41     1.652     1.089 -35.99   0
         2    918.0806     18.7627 307.5552077  +6.6941113     3612.262      6086.96     6226.277     78.25842     156.4547     312.6608      1.778     4.62     821.2613     55.11703     440.2496        28     1.574     0.994 -36.24   0
         3    719.0237     17.2463 307.6379679  +6.6880808      1740.15     3087.839     3015.798     78.00959     156.3926     312.5675      1.899     5.57     822.4066     55.11703     215.1318        19     1.476     0.923 -31.18   0
         4    454.6215     17.4733 307.7478177  +6.6791238     1576.018     2937.861     2779.759     78.00959      156.206     312.6297      1.936     5.27     823.0614     55.11703     187.0708        21     1.461     1.062 -35.68   0
         5    982.9095     14.7996 307.5284039  +6.6979124     1687.787     3089.843     3225.531     77.63484     155.8945     312.4431      1.923     5.19     816.7859     55.11703     215.1021        27     1.688     1.086 -42.39   0
         6    702.2529     11.4179 307.6451326  +6.6899254     6663.798     10834.53     11407.88     77.88487     156.4547     312.4431      1.747     4.51     822.4203     55.11703     799.5737        36     1.612     1.040 -29.88   0
         7    622.4836     10.7047 307.6783007  +6.6875480     3484.752      5866.31     6041.529     78.25842     156.7651     312.7852      1.783     4.30     822.4012     55.11703     398.2968        27     1.558     1.019 -31.03   0
         8    324.4021     10.1755 307.8021686  +6.6777624        822.8     1427.081     1769.646     78.00959     156.0815     312.5053      1.667     5.36     830.2724     55.11703     143.2703        10     1.425     0.569 -20.58   0
         9    422.6592      6.8708 307.7614559  +6.6824277      5708.56     9765.578     10771.52     78.50647     156.3926      304.278      1.845     4.40     823.1403     55.11703     671.6137        35     1.629     1.068 -35.70  16
        10     23.5308      6.4546 307.9272982  +6.6691695     7815.624     13008.63     13688.83     78.38255     156.2682     300.8077      1.828     4.37     826.6359     55.11703     903.5804        40     1.693     1.094 -32.10  16
        11    378.7846      8.3378 307.7796357  +6.6803485     611.2269     984.5677     833.6309     77.88487     156.3304     312.1941      1.856     5.32     827.4108     55.11703     79.00037         7     1.135     0.704 -34.64   0
        12    669.6708      5.6054 307.6588664  +6.6912339     769.6216     1328.829     1586.919     77.88487     156.0192      292.783      1.970     6.21     822.6314     55.11703     113.5157        13     1.603     0.677 -39.31  16
        13    319.0523      2.2342 307.8046599  +6.6808609     11238.53     17084.21     18176.33     77.25827     137.1163     249.5091      1.652     4.70     830.2724     55.11703     1352.439        36     1.650     1.001 -20.45  24
        14    498.6674      3.6986 307.7299823  +6.6862886     872.9333     1472.668     1222.927     78.38255     152.3625     270.3051      1.725     5.51     822.5087     55.11703     105.4623        12     1.200     0.712 -39.57  16
        15    413.9854      3.0261 307.7651897  +6.6837236     680.9442     1261.014     2466.206      78.1341     145.9759     261.0849      2.313     5.46     823.4368     55.11703     96.18427        11     1.450     0.580 -47.18  24
        16     92.7529      2.2598 307.8986811  +6.6732343     2325.557     3638.374      4028.55     77.50952     137.3288     250.0929      1.712     4.45     827.7604     55.11703      283.384        23     1.492     0.943 -23.32  24
        17     83.8542      1.6259 307.9023997  +6.6731962      1024.93      1630.21     1835.577     71.50784     128.9314     239.9358      1.659     5.10     827.5596     55.11703     193.4502        11     1.457     0.712   0.81  25
        18    787.1502      1.2354 307.6102003  +6.6969703      502.267     662.4091     456.1267     66.87129     122.9097      233.613      1.413     3.58     821.2267     55.11703     109.7434         5     1.111     0.332 -14.40  24
        19    384.6993      1.1010 307.7774229  +6.6835347     729.9886     1010.683     968.6055     65.10345     120.9163      231.313      1.247     3.49     826.6609     55.11703     184.1643         6     1.194     0.295  -3.03  24
        20    591.3542    992.6674 307.6581312  +6.2811144     1173.574     2123.195     2546.971     78.38255     156.3304      312.723      2.019     5.15     852.7954     55.11703     150.5995        17     1.482     0.806 -40.03   0
        21    742.7185   1023.1121 307.5942650  +6.2736119     1220.259     1908.864     2285.385      74.3079     132.4278     244.3519      1.722     5.03     851.5641     55.11703     153.7306        14     1.341     0.722 -15.40  24
        22    522.6470    991.1298 307.6867080  +6.2794469     3701.753     6513.825     7448.922     78.38255     156.3304     312.6919      1.967     4.52     854.2126     55.11703     443.4785        34     1.734     1.139 -22.15   0
        23    632.0438    990.3582 307.6413159  +6.2834304     1173.168     2138.022     2495.025      78.1341     156.3926     312.5364      1.883     6.82     852.2336     55.11703     151.2218        17     1.565     0.833 -25.50   0
        24     57.3669    989.5328 307.8799242  +6.2644751     731.7542     1582.562     1782.993     78.25842     156.4547     312.6919      2.373     6.57     849.8906     55.11703     106.8451        12     1.457     0.830 -44.97   0
        25    475.7040    987.5403 307.7063181  +6.2793549     1904.573     2995.055      3013.57     78.25842     156.3926     312.7852      1.755     4.45     854.2177     55.11703     263.9024        19     1.447     0.841 -37.86   0
        26    910.1907    979.6191 307.5261962  +6.2971645     36995.17     67236.87     73383.96      78.1341     156.0815     312.5364      1.948     4.38     850.2941     55.11703     3973.262        85     1.863     1.389 -36.38   0
        27    217.7572    977.9128 307.8137321  +6.2746685     1494.349     2466.402     2995.978     78.38255     156.2682      312.723      1.983     4.10     852.1508     55.11703     191.2701        18     1.272     0.917 -39.55   0
        28    616.3162    975.9073 307.6483322  +6.2888696     835.6179     1163.192     1146.958      78.1341     156.7651     312.8162      1.631     6.62     852.2282     55.11703     127.1823        12     1.412     0.871 -32.89   0
        29    808.1723    973.4560 307.5687598  +6.2963006     2068.167     3672.903     4099.591     78.00959     156.4547     312.5675      1.952     4.71     850.7575     55.11703     250.1008        24     1.419     1.117 -39.92   0
        30    756.2812    971.4241 307.5903725  +6.2954045     5908.903     10416.76     11954.27      78.1341     156.1437     312.5986      1.967     4.63     851.3234     55.11703     668.6388        48     1.882     1.285 -49.57   0
        31    542.7579    970.4810 307.6790546  +6.2886455     966.1935     1690.581     2322.874     78.38255     156.3926     312.6608      2.170     5.62     853.9687     55.11703     135.3359        13     1.365     0.801 -48.67   0
        32    225.4837    970.3076 307.8107815  +6.2780679      1218.27     1906.135     2097.392      78.1341     156.7651     312.8162      1.826     4.40      852.195     55.11703     210.5984        15     1.389     0.840 -31.74   0
        33    189.9337    969.6194 307.8255636  +6.2771567     710.3657      1360.97     1334.464     78.00959     156.3926     312.5986      1.974     4.31     851.8437     55.11703     108.0331         7     0.882     0.601 -30.86   0
        34     50.4750    968.4620 307.8834989  +6.2729416     2521.218     4452.859     4704.569      78.6302     156.3926     312.6919      1.876     4.83     849.7339     55.11703     275.8255        28     1.692     0.986 -37.95   0
        35    944.5361    966.4008 307.5123802  +6.3037683     5709.817     10232.74     10563.58     77.63484     156.1437     312.4431      1.906     4.30     848.7867     55.11703     658.1533        40     1.686     1.221 -41.61   0
        36    917.9635    957.8408 307.5237003  +6.3064151     1757.835      3242.18     1969.892      78.1341     156.3926     312.5675      1.919     4.73     849.4444     55.11703     216.4342        26     1.416     1.244 -45.39   0
        37    777.6392    954.8234 307.5820632  +6.3029722     1055.392      1723.57     1439.987     78.00959     156.1437     312.4742      1.642     5.74     851.0457     55.11703     127.7034        13     1.342     0.693 -46.04   0
        38    638.8912    953.9238 307.6396998  +6.2987012     4234.826      7141.97     7539.349     78.25842      156.641     312.6919      1.775     4.24     852.1162     55.11703      516.302        33     1.638     1.033 -37.69   0
        39    251.2020    954.0460 307.8006541  +6.2856456     3874.009     6546.574     6909.714     77.75996     156.0815     312.3186      1.797     4.41     852.6823     55.11703     480.5962        31     1.613     1.059 -35.58   0
        40    460.8916    952.4022 307.7136529  +6.2933644     856.7656     1593.825     1902.934     77.88487     156.0815      312.412      1.799     5.74     853.7748     55.11703     119.6879        12     1.592     0.583 -33.60   0
        41     19.8217    951.4543 307.8968006  +6.2789303     2030.512     3594.009     3399.092     77.88487     156.3926     312.5053      1.838     4.58     849.5388     55.11703     252.2214        26     1.585     1.025 -39.03   0
        42    870.7469    950.4594 307.5435523  +6.3078855     644.1206     1068.555     939.2717     78.38255     156.3304     312.6919      1.787     5.67     850.5148     55.11703     105.1244         6     1.242     0.730 -36.42   0
        43    287.0518    947.8779 307.7859790  +6.2893966     743.8617     1267.796     1238.137     78.38255     156.4547     312.6919      1.759     6.37       853.33     55.11703      116.838        12     1.383     1.044 -52.78   0
        44    995.2513    946.5840 307.4919885  +6.3136420     713.8578      1359.13     1666.059     77.88487     156.4547      312.412      2.185     6.24     846.3627     55.11703     94.24158        11     1.261     0.867 -54.22   0
        45    942.7272    947.2579 307.5137739  +6.3116109     644.2607     902.9022     1255.423     78.50647     156.3926     312.6608      1.634     2.92     848.2209     55.11703     96.57648         5     0.815     0.630 -39.38   0
        46    563.6888    946.4912 307.6711729  +6.2992508     1534.697     2462.659     2686.527     78.38255     156.8891     312.7852      1.813     4.92     853.2749     55.11703      218.083        17     1.316     0.886 -32.53   0
        47    602.6010    943.1149 307.6551310  +6.3019483     1153.605      1983.96     2388.049     77.63484     155.9568      312.412      1.839     5.94     852.3758     55.11703     145.8251        14     1.235     0.803 -43.63   0
        48     52.9695    943.4645 307.8833099  +6.2833451     674.9601     1142.023     1894.203      78.1341     156.4547     312.6297      2.322     5.19     849.6618     55.11703     92.52075         9     1.308     0.583 -29.52   0
        49    282.8276    940.4879 307.7879824  +6.2923055     1299.065     2245.924     2253.263     78.50647     156.1437     312.5986      1.892     4.76     853.1477     55.11703     168.6763        14     1.282     0.786 -33.27   0
        50    550.5264    938.5038 307.6769069  +6.3021072     643.7812     955.3284     300.6971     78.13411     156.5168     312.6919      1.641     5.59      853.506     55.11703      94.7077         8     1.271     0.694 -36.46   0
        51    749.8138    936.6149 307.5942284  +6.3095589     822.1937      1434.85     1497.676      78.1341     156.0815     312.6297      1.798     4.96     851.3553     55.11703     123.0906         8     1.257     0.554 -24.56   0
        52    887.2065    933.2783 307.5372955  +6.3155285     5923.595     10496.35     11220.87     78.00959     155.8945     312.4742      1.901     4.36     849.7927     55.11703     669.5137        42     1.715     1.186 -36.37   0
        53     95.7719    932.1680 307.8659227  +6.2894496     419.4332     682.2502     444.6288     77.88487     156.1437     312.5053      1.573     3.83     849.6631     55.11703     74.93225         5     0.834     0.637 -41.37   0
        54    423.0315    930.3205 307.7301166  +6.3012104     1986.653     3113.678     3041.039     78.25842     156.3926     312.6608      1.680     4.21      853.436     55.11703     285.5966        20     1.449     0.833 -36.88   0
        55    324.8133    928.6423 307.7709513  +6.2986061      8555.27     14293.81     15570.21     77.75996      156.206     312.4431      1.778     4.39     853.2582     55.11703     1061.701        42     1.675     1.115 -39.24   0
        56    244.9014    927.6794 307.8041611  +6.2963187     6329.217     10673.12     11298.09     78.25842     156.7651      312.723      1.806     4.41     852.3938     55.11703     758.7321        38     1.612     1.107 -34.97   0
        57    572.7154    922.1849 307.6682442  +6.3095878     1218.855     1890.432     2057.793     78.00959     156.1437     312.5986      1.634     5.70     852.8782     55.11703     173.2438        15     1.398     0.783 -22.32   0
        58    757.2401    921.6313 307.5916490  +6.3159931     675.6655     1127.939     1221.294     78.00959      156.206     312.5364      1.680     5.23      851.136     55.11703     104.4004         8     1.146     0.674  15.76   0
        59    902.8551    918.4975 307.5312945  +6.3221533     1039.622     1961.882     2418.709     78.25842     156.3926     312.8784      2.152     7.07     848.7749     55.11703     118.0748        17     1.548     0.906 -36.04   0
        60    206.6044    917.8521 307.8203932  +6.2990882     531.7635     796.8384     1206.036     77.75996      156.206     312.3186      1.642     5.16     851.6495     55.11703     81.86676         6     1.430     0.527 -42.73   0
        61    858.7471    916.6670 307.5496699  +6.3214357     686.4899     813.7737     418.1771     78.38255     156.3304     312.5986      1.336     4.18      850.172     55.11703     98.24792         6     0.964     0.517 -43.51   0
        62    970.5486    913.8039 307.5033452  +6.3263509     621.8322     1191.202     1617.836     77.75996     156.1437     312.2563      2.669     4.11     846.4439     55.11703     112.9983         5     1.142     0.423 -75.71   1
        63    739.2630    911.4839 307.5994544  +6.3195811     1653.161     2599.709      3247.55     78.50647     156.4547     312.6608      1.733     4.59     851.2543     55.11703     197.1467        21     1.401     0.976 -26.58   0
        64    970.1609    907.1605 307.5037292  +6.3290807     1214.801     2084.618     2854.592      78.1341     156.4547     312.5675      1.726     5.03       846.28     55.11703     179.5624        14     1.368     0.791 -50.26   0
        65    603.2302    907.8721 307.6560569  +6.3165189     751.5081     1191.345     988.5045     78.25842     156.3926     312.6608      1.597     4.47     852.1117     55.11703     107.7037         8     1.109     0.513 -33.23   0
        66    524.2226    907.4079 307.6888761  +6.3140632     1050.817     1706.281     1945.517     78.00959      156.206     312.5053      1.840     5.90     853.2402     55.11703     136.4479        13     1.392     0.703 -22.22   0
        67    657.9457    904.6957 307.6334460  +6.3196625     2173.627     3787.595     3552.405     78.25842     156.3304     312.9094      1.843     4.68     851.7493     55.11703     263.8721        23     1.480     0.981 -34.72   0
        68    818.4937    901.3666 307.5668976  +6.3264072     732.4183     1284.719     1532.198     78.50647     156.2682     312.7852      1.850     5.18      849.687     55.11703     98.23352         9     1.448     0.523 -42.79   0
        69     54.4383    900.8298 307.8841440  +6.3009952     2631.678     4468.324     4639.934     78.00959     156.1437     312.5675      1.815     4.50     849.0203     55.11703     336.8879        26     1.552     1.050 -27.11   0
        70    935.2950    900.4769 307.5184303  +6.3306762     729.6467     1016.313     1062.626      78.1341     156.5168     312.7541      1.481     4.96     847.3264     55.11703     105.6577         9     1.367     0.509 -54.49   0
        71    198.0914    899.7496 307.8245398  +6.3062752     1984.662     3321.512     3292.963     78.25842      156.206     312.8784      1.837     5.62     851.1749     55.11703     257.3611        21     1.648     0.816 -32.13   0
        72     71.9656    900.1027 307.8768919  +6.3018855     1842.754     2951.745     2777.823     78.38255     156.2682     312.8473      1.630     4.81     849.0945     55.11703     227.5291        18     1.412     0.914 -38.84   0
        73    652.5393    893.7979 307.6360577  +6.3239805       6275.5      10695.2     10822.96     77.75996     156.0815      312.412      1.813     4.41     851.6927     55.11703     750.1426        38     1.694     1.097 -35.54   0
        74    336.9796    895.9698 307.7670036  +6.3125030     880.1373     1403.262     1978.229     77.88487      156.206     312.5986      1.819     5.62     852.7759     55.11703      121.697        11     1.400     0.636 -47.78   0
        75    232.0216    896.2059 307.8105725  +6.3088790      732.423     1063.966     1162.691     78.00959     156.1437     312.5053      1.680     4.49     851.7705     55.11703     116.0179         6     1.518     0.377 -55.29   0
        76     12.3204    892.2241 307.9019215  +6.3031292     1110.677     1824.723     1556.846     78.00959     156.1437     312.6919      1.772     6.71     848.5529     55.11703     128.7766        14     1.336     0.945 -21.77   0
        77    890.2882    890.1566 307.5374643  +6.3334340     2455.319      4247.36     4334.115     78.38255     156.2682      312.723      1.829     4.36     848.3857     55.11703     284.4608        26     1.496     1.042 -34.71   0
