#   1 NUMBER                 Running object number                                     
#   2 X_IMAGE                Object position along x                                    [pixel]
#   3 Y_IMAGE                Object position along y                                    [pixel]
#   4 ALPHA_J2000            Right ascension of barycenter (J2000)                      [deg]
#   5 DELTA_J2000            Declination of barycenter (J2000)                          [deg]
#   6 FLUX_APER              Flux vector within fixed circular aperture(s)              [count]
#   9 FLUXERR_APER           RMS error vector for aperture flux(es)                     [count]
#  12 FLUX_RADIUS            Fraction-of-light radii                                    [pixel]
#  13 FWHM_IMAGE             FWHM assuming a gaussian core                              [pixel]
#  14 BACKGROUND             Background at centroid position                            [count]
#  15 THRESHOLD              Detection threshold above background                       [count]
#  16 FLUX_MAX               Peak flux above background                                 [count]
#  17 ISOAREA_IMAGE          Isophotal area above Analysis threshold                    [pixel**2]
#  18 A_IMAGE                Profile RMS along major axis                               [pixel]
#  19 B_IMAGE                Profile RMS along minor axis                               [pixel]
#  20 THETA_IMAGE            Position angle (CCW/x)                                     [deg]
#  21 FLAGS                  Extraction flags                                          
         1    561.0818     29.7981 307.7221961  +6.6803182     2222.308     4088.484     4173.817     86.20827       172.97     346.3888      1.963     5.08     1044.384     61.10528     256.6736        26     1.524     1.157  52.73   0
         2    746.6491     21.9703 307.6453198  +6.6897589     6183.363     10566.55     11564.87     86.48502     173.4529     346.5612      1.850     4.01     1040.925     61.10528     708.1794        39     1.589     1.213  43.94   0
         3    467.1529     17.6366 307.7616515  +6.6821915     4623.536     9090.015     9624.817     86.62307      173.384     346.5957      2.052     4.51     1048.174     61.10528     464.9171        39     1.588     1.388  77.43   0
         4     68.1436     17.3035 307.9275213  +6.6689245     6736.845      12727.1     13800.06     86.76089     173.3151     346.9058      1.972     4.16     1065.676     61.10528     824.9666        45     1.609     1.408  45.09   0
         5     14.1828     17.7829 307.9499343  +6.6669095     1028.513     2159.973     1882.918     86.62307     173.0391     346.5957      2.049     6.46     1064.711     61.10528     128.8085        14     1.421     1.177  53.18   0
         6    137.4078     13.0381 307.8988751  +6.6730162     1891.405     3654.017     4374.685     86.06956     173.1081     346.3543      2.138     6.02     1065.093     61.10528     212.4476        28     1.634     1.361  57.90   0
         7    363.6763     12.5797 307.8048361  +6.6808082     9758.456     19294.55     20893.51     86.48502     173.1081     346.5957      2.067     4.57     1056.916     61.10528     932.4297        52     1.722     1.447  50.89   0
         8    128.9028     12.0208 307.9024447  +6.6731501      1135.44      2246.37     2537.427     86.76089     173.1772     346.4578      2.166     5.68     1065.319     61.10528     146.5181        14     1.336     1.099 -80.75   0
         9    429.8229     10.4666 307.7774112  +6.6838998     1747.435      3386.97     3141.579     86.48502      173.384     346.5957      2.011     6.60     1051.238     61.10528     175.2944        26     1.669     1.144  69.94  16
        10    831.9106     11.1021 307.6102415  +6.6970947     652.7715     1119.744     993.4401      86.8985     173.8657     346.6646      1.634     4.68     1036.117     61.10528     102.9454         6     1.111     0.559  23.25   0
        11    690.5517      5.9535 307.6691789  +6.6944957     9037.118     16085.41     17380.78      86.8985     173.2461     328.3623      1.909     4.19     1041.952     61.10528      968.874        49     1.700     1.314  53.50  16
        12    855.1797      5.2555 307.6007648  +6.7002856     1563.677     2574.865     3195.201     86.34676      173.384     320.2943      1.845     3.84     1035.928     61.10528     212.7959        15     1.234     0.821  84.12  16
        13    568.5991      6.2491 307.7198650  +6.6902920     997.0578     1820.127     2399.775     86.20827       172.97     331.1162      1.982     6.01     1043.393     61.10528     127.7902        11     1.164     0.874  44.30  16
        14    290.9700      3.1047 307.8353791  +6.6822789     4850.148     9474.277      10120.8     87.03589     162.6457     290.6865      2.095     4.57     1062.855     61.10528     478.3507        41     1.663     1.434 -10.93  24
        15      1.5195      4.8343 307.9556367  +6.6718285     890.9354      1284.59     1501.206     78.06184     140.9189      239.383      1.539     4.03     1062.905     61.10528     173.3848         8     1.096     0.499  88.14  24
        16    925.4959      3.0670 307.5716067  +6.7035361     1387.957     1964.013      2084.75      86.8985     162.4987     290.2751      1.541     4.83     1035.011     61.10528     218.0111        12     1.035     0.906   9.05  16
        17    682.3527      2.0773 307.6727178  +6.6958217     6719.974      9774.08     10080.88     84.24554     149.6368     274.0134      1.570     3.93     1041.977     61.10528     834.5222        27     1.440     0.984   6.73  25
        18    452.1980      2.2926 307.7683860  +6.6880247     5668.733     9031.837     9367.281     85.23256     152.4059     277.3507      1.703     4.73     1049.533     61.10528     631.0995        31     1.492     1.131   4.52  24
        19    712.5015      1.6100 307.6602005  +6.6970230     4729.411     6613.008     7337.297     79.42747      142.185      265.869      1.584     5.76     1041.437     61.10528      776.859        21     1.713     0.781  -2.56  24
        20    768.1110      1.6053 307.6370832  +6.6988840     1029.604      1243.32     797.5032     79.12603      142.185     265.7342      1.234     3.05     1038.327     61.10528     204.7053         9     0.882     0.714  11.31  24
        21    262.3843    988.3112 307.8139755  +6.2745794     1699.808     2703.489     2620.582     86.62307     173.1081     346.4922      1.767     4.72     1089.984     61.10528     218.8922        16     1.434     0.746  57.36   0
        22    401.2644   1022.9088 307.7551241  +6.2649537     1878.061     2475.184     2897.593     84.52872     149.8762     274.2749      1.447     3.44      1090.32     61.10528     290.4897        16     1.168     0.858  24.54  24
        23    660.7725    986.3864 307.6485631  +6.2887192     850.4002     916.5217      753.394     86.48502     173.1772     346.5612      1.451     5.41     1086.304     61.10528     119.3214         9     0.990     0.835 -44.89   0
        24    150.0444    987.1285 307.8606758  +6.2712952     661.7021     951.1725     770.7703     86.76089      173.384     346.6991      1.823     4.83     1090.079     61.10528     131.1681         7     1.186     0.558  27.28   0
        25    801.0455    981.5925 307.5904572  +6.2953849     7256.252     10733.79     11533.18     86.34676     173.1772     346.2853      1.572     3.08      1083.92     61.10528     1155.813        33     1.453     1.111  67.18   0
        26    852.8669    983.7198 307.5688598  +6.2962363     2689.985     3838.187     3812.956     87.03589     173.5906     346.6646      1.531     3.19     1082.432     61.10528     408.3502        17     1.160     0.860  58.47   0
        27    587.7721    981.3009 307.6790569  +6.2883773      992.359     1877.024     1902.722      86.8985     173.1081     346.6302      2.018     5.48     1087.975     61.10528      153.979         9     1.028     0.824  58.34   0
        28    270.4782    980.8158 307.8108666  +6.2779455     1393.791     2207.047      2096.87     86.48502     173.1081     346.4922      1.651     3.58     1089.974     61.10528     193.3564        13     1.042     0.842  57.67   0
        29    234.4648    980.0948 307.8258494  +6.2770343     853.0034     1376.752     1610.463     86.76089     173.5218     346.6991      1.769     3.95     1090.014     61.10528     136.8934         7     0.880     0.618  15.89   0
        30     95.4801    978.8118 307.8836200  +6.2728948     2786.746     4110.033     4703.159     86.48502     173.0391     346.4922      1.577     3.41     1090.283     61.10528     397.2266        18     1.223     0.843  53.22   0
        31    989.1582    976.5345 307.5124864  +6.3037479     7801.165     10804.01     11283.19      86.8985     173.3151      346.768      1.461     3.16      1079.56     61.10528     1223.956        28     1.307     0.937  53.61   0
        32      5.7254    975.3201 307.9210170  +6.2713177     772.4999      1154.82      997.883     87.17307     173.6594     325.9518      1.652     4.44     1090.266     61.10528     132.8729         6     1.276     0.440  86.47  16
        33    671.3104    971.2964 307.6446933  +6.2953016     716.1756      984.762     560.1475      86.8985     173.8657     346.6646      1.636     5.35     1085.931     61.10528     102.4192         8     1.250     0.646  87.22   0
        34    963.0278    968.5480 307.5236086  +6.3061743     2116.669     2829.003     2784.513     86.48502     173.5218     346.5612      1.447     3.78     1079.717     61.10528     336.4033        16     1.331     0.744  48.24   0
        35    296.1030    964.6137 307.8007700  +6.2854945     4364.972     6854.263     7142.013     86.76089     173.1081     346.4233      1.640     3.31     1090.006     61.10528     660.8846        29     1.518     0.991  52.29   0
        36     20.7247    966.5125 307.9150853  +6.2754585     1021.215     1644.599     1779.843      86.8985     173.7282      346.768      1.693     5.10     1090.228     61.10528      146.233        11     1.252     0.646  71.14   0
        37    683.7720    964.3582 307.6397502  +6.2985827     4654.273     6811.378     6785.042     86.48502     173.3151     346.5267      1.568     3.13      1085.67     61.10528     707.3041        26     1.318     0.980  47.76   0
        38    822.4102    964.6478 307.5821515  +6.3030941     1507.869     2101.649     1940.278     86.34676     173.2461     346.3198      1.412     4.06     1082.657     61.10528     207.3466        13     1.165     0.797  25.06   0
        39    505.9678    962.7247 307.7136619  +6.2933087     1085.495     1465.304     1572.479     86.76089     173.4529     346.6302      1.435     2.95     1088.194     61.10528     166.2413         9     0.851     0.710 -74.15   0
        40     64.7264    961.9433 307.8969639  +6.2788249      2175.48     3437.593      3039.72     86.76089     173.3151     346.6302      1.612     3.47     1090.201     61.10528     356.1317        21     1.366     0.938  42.07   0
        41    915.3746    960.9718 307.5436578  +6.3077135     932.4257     1356.714     1222.454     86.34676     173.1772     346.5267      1.457     3.90     1080.073     61.10528     139.9919         7     0.767     0.642  80.84   0
        42    986.8235    957.8481 307.5140826  +6.3113851     831.5173     964.1946     985.5856     86.48502      173.384     346.5612      1.376     3.78     1078.791     61.10528     134.5487         6     0.731     0.601  40.52   0
        43    608.4336    956.9140 307.6712951  +6.2991369     1703.792     2570.137     1918.431      86.8985     173.2461     346.6646      1.564     3.61     1087.167     61.10528      239.767        17     1.263     0.864  46.02   0
        44    331.9429    957.9946 307.7861067  +6.2894295     890.0264      1086.54     1007.234     86.34676     173.2461     346.3543      1.422     3.13     1090.194     61.10528     132.0146         7     0.861     0.533  42.95   0
        45    647.6562    953.2631 307.6551254  +6.3019560     1229.335     1615.549      1219.11     87.03589     173.3151     346.6646      1.380     3.71     1086.311     61.10528     175.7972        13     1.128     0.785  37.39   0
        46     97.6181    954.0492 307.8835693  +6.2831898      661.355      991.253     867.9045     86.34676     173.4529     346.4578      1.547     3.52     1090.157     61.10528     120.6788         7     0.948     0.564  33.50   0
        47    327.7140    950.9386 307.7881013  +6.2922007     1306.227     1783.185      1886.75      86.8985     173.5218     346.6646      1.468     4.52     1090.125     61.10528      176.735        12     1.098     0.808  74.59   0
        48    794.1625    946.6979 307.5944882  +6.3095619     1041.362     1481.489     2133.459      86.8985     173.2461     346.8714      1.700     4.63     1083.172     61.10528     162.9463        11     1.185     0.748 -86.91   0
        49    169.8425    944.5384 307.8538919  +6.2895435      718.774     984.1731     1132.095      86.8985      173.384      346.768      1.432     4.31     1089.972     61.10528     151.2546         7     1.109     0.476  71.70   0
        50    467.6764    940.7275 307.7303084  +6.3011080     2024.009     2928.204     2942.212     87.17307     173.6594     346.6646      1.521     3.07     1088.342     61.10528     295.4448        17     1.120     0.907  78.49   0
        51    369.4592    939.2069 307.7711571  +6.2984442     9277.585      14649.5     15417.94     86.20827     173.2461     346.3543      1.678     3.52     1089.898     61.10528     1205.992        36     1.481     1.115  53.33   0
        52    289.6198    938.0650 307.8043590  +6.2962376     6918.743     11071.48     11844.42     86.48502      173.384     346.4922      1.714     3.46     1089.972     61.10528     933.6324        38     1.530     1.137  59.99   0
        53    617.9810    932.4371 307.6681527  +6.3095618     1195.693     1800.348     2151.238     86.48502     173.1772     346.4233      1.539     3.58     1086.334     61.10528     173.7327        12     1.021     0.793  83.69   0
        54    931.8664    943.5111 307.5373927  +6.3154724     8040.852     11165.96     10992.93      86.8985     173.5906     346.6302      1.470     3.01     1078.886     61.10528     1189.178        26     1.314     0.922  57.50   0
        55    947.7806    928.6740 307.5312794  +6.3221288     1166.936     1543.214     1410.913     86.48502     173.3151     346.5957      1.351     4.30     1077.894     61.10528     181.5007         9     1.240     0.524  66.47   0
        56    903.9987    927.4721 307.5495072  +6.3211650     809.1051     1002.515     1363.582     86.34676      172.901     346.4922      1.312     4.55     1078.274     61.10528     107.2396         8     0.823     0.716  85.33   0
        57   1015.1366    924.8092 307.5034285  +6.3259693     859.8782     1280.582     721.8356     86.34676     173.1772     346.4578      1.529     5.32     1076.943     61.10528     122.8646        10     1.350     0.592  53.06  16
        58    446.7515    926.6201 307.7394757  +6.3062313     655.0547     910.1947     1010.606     86.34676     173.4529     346.4578      1.478     3.48     1088.543     61.10528     92.27136         5     0.764     0.459  15.02   0
        59    784.0006    921.6146 307.5995520  +6.3195786     1918.279     2597.089     2545.981     86.48502     173.0391     346.4233      1.414     3.53     1082.389     61.10528     305.5385        16     1.179     0.867  47.95   0
        60    876.9509    921.9125 307.5609297  +6.3225581     659.0166     864.1346     306.5028      86.8985     173.2461     346.7336      1.462     4.56     1078.469     61.10528     107.9221         6     1.029     0.573  77.63   0
        61    608.4052    921.5734 307.6724960  +6.3137267     649.4453     1072.632     1121.176     86.34676     173.1772     346.4922      1.392     3.42     1086.127     61.10528     126.2814         5     1.041     0.325  68.19   0
        62     34.8378    918.7515 307.9108396  +6.2956510     909.2039     1310.411     1622.372      86.8985      173.384     346.5267      1.708     6.63     1089.713     61.10528     132.3281        13     1.444     0.855  43.74   0
        63   1015.2582    917.2250 307.5036321  +6.3291047     1504.466     2020.813     2536.909     86.48502      173.384     346.4922      1.524     3.26     1076.216     61.10528     258.2561        13     1.080     0.775  72.97   0
        64    648.2797    918.2318 307.6560446  +6.3164400     714.0464     772.1703     435.9915     86.76089      173.384     346.6302      1.240     3.92     1085.474     61.10528     120.0209         6     0.794     0.553  38.19   0
        65    569.2315    917.5242 307.6889049  +6.3140878     1208.886     1896.286     2334.664     86.76089     173.4529     346.6302      1.805     4.45     1086.473     61.10528     156.4315        13     1.153     0.871  23.79   0
        66    702.4904    915.0065 307.6336338  +6.3195838     2555.353     3662.115     3904.141     86.48502     173.0391     346.4233      1.496     3.13     1083.864     61.10528      383.594        20     1.172     0.999  53.54   0
        67     99.1759    911.4312 307.8843635  +6.3008368      2842.75     4476.961     4936.021     86.34676     173.2461     346.4578      1.745     3.74     1089.785     61.10528      362.973        22     1.322     0.975  48.84   0
        68    863.3301    911.5714 307.5669349  +6.3263732     945.8863     1087.272     831.2015     86.62307      173.384     346.5957      1.326     4.46     1078.534     61.10528     130.9351         7     0.882     0.648  72.49   0
        69    242.9008    910.3226 307.8247015  +6.3061230     2057.804     3228.961      3341.66     86.48502     173.5906     346.6991      1.664     4.21     1089.999     61.10528      298.168        20     1.339     1.056  57.41   0
        70    116.8326    910.5772 307.8770583  +6.3017829      1854.37     2833.107     3059.615     86.34676     173.1772     346.4233      1.608     3.63     1089.798     61.10528     259.0798        18     1.155     1.036  54.99   0
        71    980.8394    910.4090 307.5181588  +6.3307718     1006.999     1395.184     1141.984     86.20827     173.1772     346.3888      1.488     5.39     1076.346     61.10528     121.9907        11     1.096     0.747  50.14   0
        72    834.5841    905.2363 307.5790891  +6.3280294     808.5375     1126.995     1428.493     86.48502     173.1772     346.4233      1.466     4.06     1079.641     61.10528     122.3425         7     0.999     0.472  80.62   0
        73    697.1987    904.2121 307.6361949  +6.3238636     7098.823     10632.07     11086.52     86.48502     173.0391     346.4578      1.595     3.30     1083.414     61.10528     968.7952        31     1.323     1.116  55.67   0
        74    276.4438    906.1981 307.8109077  +6.3089517     724.3464     1064.752     1356.447     86.20827      172.901     346.2853      1.518     3.42     1090.057     61.10528      127.511         5     0.831     0.407  66.89   0
        75     57.5872    902.6868 307.9019339  +6.3030484     971.8954     1584.449     1891.622     86.48502     173.1772     346.5612      1.755     4.28     1089.365     61.10528     149.2667         8     0.954     0.622  73.97   0
        76    934.7875    900.2651 307.5376297  +6.3334247     3139.317     4511.643     4195.692     86.34676     173.1772     346.5612      1.495     3.16     1077.055     61.10528     451.9589        18     1.135     0.871  62.68   0
        77    380.1880    897.4405 307.7681092  +6.3160473     15387.62     24347.39     26386.53     86.20827     173.1772     346.3888      1.712     3.46     1089.118     61.10528      1947.31        46     1.561     1.165  55.94   0
