#   1 NUMBER                 Running object number                                     
#   2 X_IMAGE                Object position along x                                    [pixel]
#   3 Y_IMAGE                Object position along y                                    [pixel]
#   4 ALPHA_J2000            Right ascension of barycenter (J2000)                      [deg]
#   5 DELTA_J2000            Declination of barycenter (J2000)                          [deg]
#   6 FLUX_APER              Flux vector within fixed circular aperture(s)              [count]
#   9 FLUXERR_APER           RMS error vector for aperture flux(es)                     [count]
#  12 FLUX_RADIUS            Fraction-of-light radii                                    [pixel]
#  13 FWHM_IMAGE             FWHM assuming a gaussian core                              [pixel]
#  14 BACKGROUND             Background at centroid position                            [count]
#  15 THRESHOLD              Detection threshold above background                       [count]
#  16 FLUX_MAX               Peak flux above background                                 [count]
#  17 ISOAREA_IMAGE          Isophotal area above Analysis threshold                    [pixel**2]
#  18 A_IMAGE                Profile RMS along major axis                               [pixel]
#  19 B_IMAGE                Profile RMS along minor axis                               [pixel]
#  20 THETA_IMAGE            Position angle (CCW/x)                                     [deg]
#  21 FLAGS                  Extraction flags                                          
         1    745.4870     23.5292 307.6456056  +6.6898837      2282.39     8083.054     10710.48     94.10925     187.7727     374.8379      3.080     9.45     1231.102     66.07127     283.1616        63     2.305     1.960 -48.49   0
         2    666.0340     22.8094 307.6787272  +6.6875965     1180.831     3831.551     4869.903     93.36411     187.2512     374.6515      2.910    11.93     1233.293     66.07127      140.231        38     2.230     1.871 -62.06   0
         3    465.9618     19.4699 307.7621819  +6.6824587     1580.967     5887.863     9463.603      93.8119     187.4748     374.9124      3.521    11.88     1243.998     66.07127     216.1962        64     2.480     2.003 -50.29   0
         4     67.0076     19.3544 307.9283653  +6.6694657     2428.157      9158.03      12448.9     93.36411     187.3257     374.4277      3.142     9.04     1265.571     66.07127     336.4043        72     2.470     2.093 -33.03   0
         5    363.4688     15.9640 307.8049942  +6.6805638     4056.635     9543.562     14193.59      93.8119     187.5493     374.9497      2.771     9.16     1255.035     66.07127     448.5964        50     2.695     1.283 -38.94  19
         6    361.6125     12.1794 307.8058960  +6.6820684     2824.322     6430.411     8580.365     93.66288     187.1019     374.7261      2.443     8.31     1255.418     66.07127     315.3256        35     2.313     1.044 -36.27  19
         7    137.1481     16.3630 307.8992519  +6.6729996     905.9144     2464.779     4517.181      93.8119     187.4748     374.8379      3.138     7.60     1263.564     66.07127     128.5725        15     2.040     0.793 -32.98   0
         8    430.4635     13.8014 307.7771611  +6.6836451     712.3489     1680.661     2705.199     93.21437     187.1765     374.5769      3.065     6.84     1247.341     66.07127     110.5111        11     1.782     0.737 -32.81   2
         9    429.0125     10.0000 307.7778946  +6.6851700     674.4966     1645.315     2463.105     93.36411     187.0272     374.5769      2.990     3.74     1247.739     66.07127     104.9656         5     0.817     0.504  26.69   2
        10    689.4520      7.5497 307.6694889  +6.6946700      3263.85     11646.36     16682.96     94.10925     187.3257     370.2256      3.197    10.01     1232.502     66.07127     387.6754        79     2.714     2.086 -65.44  19
        11    681.1796      3.5424 307.6730707  +6.6960582     2835.696     9136.096     12075.41     93.51361     180.7215     321.5167      2.974     9.34     1232.715     66.07127     381.1394        64     2.632     1.746 -10.86  27
        12    853.9594      8.9930 307.6009109  +6.6994214     614.6516     1657.382     2536.344     93.21437     187.1019      374.465      2.693     6.49     1228.423     66.07127     103.0569         8     1.937     0.611  -9.65  16
        13    289.8330      4.9029 307.8360428  +6.6827331     1862.319     6305.545     9037.605     94.10925     187.3257     341.9404      3.244     9.79     1265.389     66.07127      258.571        62     2.391     1.987 -32.95  24
        14    924.8553      6.3508 307.5714666  +6.7028161     652.1666     1316.673     2440.806     93.96069     187.4748     359.4666      1.959     4.09     1227.335     66.07127     115.0895         6     1.194     0.401 -30.49  16
        15    450.9332      3.7426 307.7689759  +6.6884732     2116.139     7540.933      9537.49     94.10925     182.7967     324.6299      2.935    11.00     1246.371     66.07127     299.9962        57     2.425     1.807 -14.86  24
        16    712.1349      2.5050 307.6602108  +6.6974945     5501.893     11581.83     14544.31     93.96069     168.3145     304.0542      2.484    10.69      1231.63     66.07127     644.5554        49     2.609     1.220 -15.13  24
        17    852.5897    984.3699 307.5685289  +6.2959491     1381.838     2842.085     3054.512     93.36411     187.2512     374.6515      2.335     7.60     1289.928     66.07127     145.2281        17     1.637     0.987 -30.34   0
        18    401.0635   1023.4799 307.7551452  +6.2650824     762.7659     1362.593     1891.023     84.90094     152.5546     285.7703      1.967     4.25     1291.997     66.07127     135.3997         6     1.030     0.499   1.55  24
        19    800.4431    982.7100 307.5902909  +6.2949425     3766.532     8861.557     11273.28     93.96069     187.4003     374.9124      2.577     6.13     1289.969     66.07127     420.4612        49     2.088     1.447 -41.44   0
        20     95.6631    980.2471 307.8837240  +6.2729892     1340.077     3309.524     3671.985      93.8119     187.3257     374.9124      2.637     8.95     1289.305     66.07127     151.9507        25     1.657     1.351 -53.11   0
        21    988.6376    977.6051 307.5121268  +6.3031604     4823.201     9515.442     9634.531     92.91416     187.1765     374.5396      2.026     4.85     1287.819     66.07127     570.2229        40     1.820     1.237 -39.10   0
        22    271.5636    980.4609 307.8105047  +6.2786495     624.4943     1279.051      2092.92     93.96069     187.4748     374.8006      3.359     4.84     1292.601     66.07127     89.66687         5     1.129     0.588 -31.93   0
        23    962.0344    969.7659 307.5234648  +6.3055403     1222.249     2693.855     2437.458     93.66287     187.1765     374.5396      1.966     6.05     1287.326     66.07127     193.6255        20     1.666     1.092 -58.61   0
        24    683.0918    965.5007 307.6397197  +6.2982468     2454.448     5871.349     7090.921     93.96069     187.9957     374.8006      2.514     6.45     1290.774     66.07127     313.4631        42     1.926     1.544 -23.54   0
        25    295.7975    965.9564 307.8009104  +6.2854398     1848.658     5137.196      5689.15     93.21437     186.9525     374.4277      2.591     8.28     1292.669     66.07127     222.0154        43     1.870     1.775 -27.27   0
        26    822.4580    965.0354 307.5817241  +6.3029679     792.7123     1324.271     1018.749      93.8119     187.4748     374.8379      1.708     2.69     1288.755     66.07127     129.9979         6     0.767     0.498  88.21   0
        27     64.5935    963.3983 307.8972286  +6.2789413     998.7554     2129.949     2529.564     93.21437     187.1019     374.6142      2.415     5.81     1288.738     66.07127     138.8527        11     1.473     0.645   0.12   0
        28    607.6101    956.9779 307.6714270  +6.2993165     878.7493     2066.739     2090.989     93.51361     187.1765     374.6515      2.143     5.89     1290.589     66.07127     147.5596        11     1.707     0.572 -13.32   2
        29    647.6841    953.1409 307.6548761  +6.3022074     666.2518     1260.142      1272.94     93.96069     187.5493     374.9124      2.057     5.18     1290.276     66.07127     81.42419         7     1.110     0.684 -82.33   0
        30    327.3489    950.8419 307.7882908  +6.2927210     633.5966     1260.163     1622.362     93.96069     187.4748     374.8379      1.851     6.56     1292.327     66.07127     137.6891         7     2.060     0.587  -2.13   0
        31    931.2253    944.5281 307.5371407  +6.3149800     4443.265     10169.06     11751.82     93.51361     187.3257     374.7633      2.363     5.80     1285.419     66.07127     550.8787        48     2.002     1.381 -33.86   0
        32    368.8665    940.7144 307.7713534  +6.2982644     4212.288     11369.92     13973.26     94.10925     187.7727     374.9124      2.707     6.66     1291.909     66.07127     446.3081        62     2.140     1.800 -20.91   0
        33    468.2786    941.6127 307.7299435  +6.3011342     903.2011     2248.079     3258.885     93.51361     187.1019     374.6142      3.082     8.36     1290.758     66.07127     141.5103        14     1.687     1.349   2.61   0
        34    289.2191    939.6594 307.8045413  +6.2961014     3045.589      8744.62      10963.9     93.51361     187.3257     374.6142      2.798     7.43     1291.983     66.07127     319.3354        58     2.214     1.739 -35.55   0
        35    783.0067    921.4949 307.5996167  +6.3196956      784.841     1934.147     2902.944     93.66288     187.1019     374.6142      3.241     7.37     1287.002     66.07127     105.4982         8     1.424     1.068  58.11   2
        36   1014.3151    918.3426 307.5034358  +6.3285048     1039.858      2051.72     2933.875     93.96069     187.4748     374.9869      2.487     7.07     1282.363     66.07127     195.8564        14     1.822     0.769 -39.38  16
        37    702.6995    915.2606 307.6332566  +6.3196643      1196.85     2765.509     3008.005     93.66288     187.4003     374.9869      2.398     6.28     1288.124     66.07127     141.7172        17     1.317     1.111 -33.81   2
        38     98.9235    913.2248 307.8846465  +6.3008159     1362.295     3819.136     4928.231     93.51361     187.4003     374.8006      2.766     9.73     1288.056     66.07127     184.2742        36     1.997     1.722 -58.67   0
        39    243.0878    910.7317 307.8247251  +6.3065594     914.6845      2135.06     2944.698     94.10925     187.7727     374.8752      2.565     5.49     1290.367     66.07127     124.4858         8     1.391     0.610  11.18   2
        40    116.8186    913.0882 307.8772027  +6.3014577      751.095     1748.423     2264.363     93.66287     187.1765     374.7261      2.488     5.42     1288.407     66.07127     104.9965         5     1.178     0.704 -79.02   0
        41    696.5601    905.3813 307.6361463  +6.3235509     3272.975     8453.741     10174.41     93.51362     187.2512     374.5396      2.617     7.10     1287.604     66.07127      380.351        47     2.102     1.480 -36.24   0
        42    379.7297    898.8671 307.7682511  +6.3159269     6468.007     19035.38     24423.34     93.96069     187.5493     374.8379      2.876     7.18     1290.597     66.07127     621.9452        78     2.291     1.954 -36.66   0
        43     58.0903    904.0073 307.9019561  +6.3032922     624.2446     1505.641      1636.85     93.51361     187.1019     374.5769      2.444     4.82     1287.126     66.07127     88.62598         7     1.281     0.514  -5.68   0
        44    934.4426    901.6064 307.5372494  +6.3328375      1615.64     3863.109     4169.942     93.36411     187.1019     374.5023      2.292     6.96     1283.278     66.07127     184.1434        29     1.638     1.320 -33.37   0
        45    116.4292    898.5373 307.8778596  +6.3074631     561.4695     1057.906     1078.181     93.66288     187.4748     374.7633      1.809     3.95     1288.015     66.07127     117.7959         5     1.109     0.402  16.56   0
        46    924.2559    883.4332 307.5421030  +6.3400238     1015.369     2486.181     2888.339      93.8119     187.4748     374.8379      2.515     7.86     1282.954     66.07127     133.2511        17     1.616     1.193 -46.63   0
        47    858.5602    882.1729 307.5694937  +6.3384133     1591.701     4080.308     5107.461     93.51361     187.2512     374.6888      2.768     9.00      1283.57     66.07127     194.7372        34     2.017     1.454 -33.45   0
        48    127.5410    882.9459 307.8737647  +6.3142750     913.6656     2504.115      2661.96     94.10925     187.4003     374.8379      2.444     9.08     1287.911     66.07127     124.2206        18     1.764     1.306  29.83   0
        49    895.1807    882.7190 307.5542307  +6.3393759     1125.456      2569.54     2619.767     93.51361     187.1019     374.7633      2.096     6.66      1283.25     66.07127     179.0189        18     1.617     1.038  -2.08   0
        50    594.5697    873.8871 307.6796675  +6.3332592     138868.7     394854.6     503570.8     94.10925     187.2512     374.7261      2.847     7.14     1288.388     66.07127     14586.18       210     2.587     2.097 -22.69   0
        51    438.9997    876.6887 307.7443316  +6.3270328     3002.122     9034.515     11203.89     93.06438     186.8778     374.4277      2.805     7.75      1288.88     66.07127     337.1886        63     2.307     1.829 -44.80   0
        52    382.1516    875.1747 307.7680466  +6.3258052     4760.449     14654.69      19847.1     93.51361     187.5493     374.7261      3.027     7.56     1289.748     66.07127     469.6029        77     2.403     1.927 -41.75   0
        53    700.3616    870.8864 307.6357303  +6.3379420     1557.984     4409.851     5072.589     93.96069     187.4003     374.8379      2.715     8.87      1285.45     66.07127     192.8972        40     2.051     1.603 -37.66   0
        54    932.9459    869.6125 307.5389518  +6.3460222     2835.203      6727.48     7353.356     93.21437     187.4003     374.5023      2.371     6.23     1282.505     66.07127     348.0256        41     2.017     1.331 -35.73   0
        55    675.3251    864.9005 307.6463549  +6.3396036     1565.182     4150.693     5528.964     93.36411     187.6238     374.7261      2.723     9.62     1286.393     66.07127     178.0315        37     2.077     1.519 -45.95   0
        56    667.6957    860.7183 307.6496724  +6.3410853     873.2277      2892.42     4341.991     93.66288      187.847     374.9497      3.187     9.03     1286.323     66.07127     129.4683        19     2.433     0.936 -80.81   0
        57    863.3257    863.2599 307.5681484  +6.3463906     942.0743     1862.063     1581.936     94.25757     187.4748     374.8006      1.878     5.22     1282.734     66.07127      132.243         9     1.326     0.581 -10.31   0
        58    951.6183    857.4774 307.5315879  +6.3516471     1782.461     4000.028      4392.48     93.36411     187.1765     374.8006      2.324     6.47      1281.51     66.07127     235.1743        28     1.728     1.230 -32.67   0
        59    410.4734    853.4614 307.7569937  +6.3357096     1078.335     2809.762     3854.899     94.10925     187.4748     374.8752      2.998     8.52     1288.052     66.07127     131.9049        19     1.636     1.240  63.77   0
        60    546.3051    842.8005 307.7008115  +6.3445456      1347.51     3357.575     4868.215     93.36411     187.0272     374.3531      3.002     9.06     1286.209     66.07127     176.4001        26     1.884     1.215 -10.84   2
        61    890.2104    841.9868 307.5576746  +6.3560621       504.87     1011.738     2086.649     93.66288     187.1765     374.7633      2.797     4.67     1280.992     66.07127     105.8143         5     1.244     0.498 -15.96   0
        62    594.6956    838.9331 307.6807983  +6.3477206     2179.676     5812.678     8337.707     93.96069     187.6982     374.8379      3.133     8.96     1285.624     66.07127      261.652        30     2.316     1.340 -61.81   3
        63    592.3480    838.3146 307.6817965  +6.3479000     2099.224     4726.733     6620.239     93.96069     187.4003     374.9869      3.288    13.56     1285.538     66.07127     233.1169        35     3.030     1.761 -18.28   2
        64    928.1898    837.5542 307.5420133  +6.3591278     734.9771     1732.166     1710.695     93.36411     187.3257      374.465      2.433     4.63     1280.547     66.07127     111.0189         7     1.431     0.425 -70.13   0
        65    563.8123    833.6786 307.6938325  +6.3488886      7377.12     22585.96      28788.1     93.51361     187.1019     374.6515      2.878     7.30     1285.288     66.07127     757.2471        80     2.342     1.924 -32.29   0
        66    977.2261    831.4260 307.5218061  +6.3632529     2085.442     4710.482     4479.614     93.36411     187.2512     374.6888      2.215     6.68     1279.866     66.07127     224.7982        34     1.850     1.328 -42.88   0
        67     75.3705    825.1365 307.8974470  +6.3364779     622.4745     1438.285     1591.481     93.66288     187.4748     374.7633      2.660     7.13     1285.161     66.07127     112.6024         8     1.569     0.907  31.98   0
        68    357.0009    822.0094 307.7803198  +6.3469739     1154.847     3661.869     5045.399     93.21437     187.1019     374.5769      3.009    10.22     1287.285     66.07127     152.1423        24     1.883     1.545  41.61   2
        69    821.8147    817.9120 307.5869607  +6.3637995     25076.16     67195.47     82260.62     93.66287     187.2512     374.6515      2.655     6.60     1280.384     66.07127     2664.145       103     2.344     1.824 -34.23   0
        70     57.5066    820.3771 307.9050449  +6.3378618     1072.846     2248.156     2488.607     93.96069     187.2512     374.6515      2.378     7.21     1284.946     66.07127      118.571        16     1.315     1.106 -76.46   0
        71    280.7737    817.5078 307.8122041  +6.3463476     1542.613      3544.39     5707.277     94.10925     187.1765     374.6515      3.351     7.65       1288.8     66.07127     194.6711        20     2.038     0.804 -63.57   3
        72    278.2001    814.7618 307.8133687  +6.3473992     1983.656      4557.34     8155.589     92.76369     187.1765     374.5769      3.987     8.87     1288.687     66.07127     200.9767        36     2.328     1.318 -66.10   3
        73    744.9244    809.7558 307.6192459  +6.3646750     32009.15     100714.4     155641.2      93.8119     187.5493     374.8752      3.445     9.35     1281.715     66.07127     3954.058       193     3.513     2.310  21.08   0
        74    946.9537    813.0062 307.5350300  +6.3698899     4227.763      10312.4     12726.09     93.36411     187.2512     374.4277      2.483     6.44      1278.86     66.07127     457.6359        52     2.158     1.475 -35.01   0
        75    388.7772    810.4337 307.7674847  +6.3527983     7273.263     23585.36     31475.09     93.36411     187.2512     374.5769      3.036     8.02     1286.341     66.07127      806.646        88     2.457     2.024 -34.57   0
        76      2.1517    811.9764 307.9283727  +6.3395240     1271.283     2662.279      2899.43     91.39833     162.7447     297.5057      2.087     8.14     1284.615     66.07127     157.7173        21     1.757     1.055  89.42  24
        77    450.6633    808.1891 307.7417985  +6.3557448     7696.473     24733.61     32803.31     93.36411     187.2512     374.6888      3.014     7.88     1286.152     66.07127     829.7971        89     2.428     2.027 -42.33   0
