#   1 NUMBER                 Running object number                                     
#   2 X_IMAGE                Object position along x                                    [pixel]
#   3 Y_IMAGE                Object position along y                                    [pixel]
#   4 ALPHA_J2000            Right ascension of barycenter (J2000)                      [deg]
#   5 DELTA_J2000            Declination of barycenter (J2000)                          [deg]
#   6 FLUX_APER              Flux vector within fixed circular aperture(s)              [count]
#   9 FLUXERR_APER           RMS error vector for aperture flux(es)                     [count]
#  12 FLUX_RADIUS            Fraction-of-light radii                                    [pixel]
#  13 FWHM_IMAGE             FWHM assuming a gaussian core                              [pixel]
#  14 BACKGROUND             Background at centroid position                            [count]
#  15 THRESHOLD              Detection threshold above background                       [count]
#  16 FLUX_MAX               Peak flux above background                                 [count]
#  17 ISOAREA_IMAGE          Isophotal area above Analysis threshold                    [pixel**2]
#  18 A_IMAGE                Profile RMS along major axis                               [pixel]
#  19 B_IMAGE                Profile RMS along minor axis                               [pixel]
#  20 THETA_IMAGE            Position angle (CCW/x)                                     [deg]
#  21 FLAGS                  Extraction flags                                          
         1    307.1357     43.9480 307.8302829  +6.6634236     6560.722     13438.89     15134.18      84.9081     169.3453     338.6907      2.198     5.15     1004.352     59.70567     668.2076        52     2.001     1.320  50.69   0
         2    568.9443     24.2877 307.7221396  +6.6803579     2083.692     4126.021     4396.144      84.9081      169.278     338.8927      2.139     5.81     988.3298     59.70567     210.8547        29     1.723     1.126  53.61   0
         3    970.2006     23.5432 307.5553929  +6.6941326     3753.372     6344.078     7745.231     84.09815     169.0757     338.3874      1.881     4.50     976.9156     59.70567     474.2496        27     1.671     0.897  54.24   0
         4    754.5462     16.4868 307.6452630  +6.6898150     5851.409     10318.75     11469.38      84.9081      169.278     338.8927      1.932     4.59     984.8267     59.70567     706.4913        38     1.795     1.081  54.01   0
         5    674.6291     15.6971 307.6785051  +6.6874572     2824.785     5128.427     5594.339     85.04235     169.1431     338.7243      1.936     4.69     985.7964     59.70567     369.1141        27     1.643     1.017  54.22   0
         6    474.8302     12.1040 307.7616662  +6.6822212     4601.934     9237.357     10236.29     85.04234     169.1431      338.758      2.152     4.83     991.9231     59.70567      538.482        41     1.834     1.256  56.21   0
         7     21.4125     11.3480 307.9501303  +6.6672328     774.9546     1541.371     1440.057     84.23369     169.3453     338.4211      2.114     4.91      1007.22     59.70567     132.5085         7     1.227     0.755  67.59   0
         8    371.3690      6.8904 307.8048420  +6.6808887     9177.243      18558.3     21337.93     85.04234     169.2106     329.6445      2.190     5.05     998.1169     59.70567     958.8406        59     2.045     1.332  53.32  16
         9    145.0199      7.1999 307.8989018  +6.6731236     1860.848     3589.572     3869.216      84.5041     168.9407     331.9206      2.046     5.56     1006.976     59.70567     212.7729        27     1.672     1.151  57.46  16
        10    550.9848      9.2998 307.7301101  +6.6859418     705.7084     999.1202     615.7706      84.9081     169.1431     338.4211      1.371     3.95      988.166     59.70567     119.3428         6     1.063     0.421  10.68   0
        11     75.8193     11.5969 307.9275115  +6.6689698     6377.473      12414.3     14127.53      84.5041     168.9407     338.5222      2.104     5.08     1006.875     59.70567     689.2341        45     1.901     1.255  53.45  16
        12    136.3674      6.3116 307.9025278  +6.6731980     1100.116     2264.961     2995.096     85.04235     169.2106     324.4826      2.267     7.73     1006.896     59.70567     140.4144        16     1.748     0.957  54.57  16
        13    437.5633      4.9369 307.7773971  +6.6839254     1698.808     3309.936     3550.951      84.9081       169.48     309.3284      2.069     5.13     992.4564     59.70567     218.7864        23     1.567     1.084  49.80  16
        14    839.2738      4.7015 307.6104447  +6.6975238     756.6215     1268.783     1916.664      84.5041       169.48      306.364      1.936     5.21     979.6693     59.70567     100.1085         7     1.166     0.659  -2.35  16
        15    699.0064      1.8044 307.6688419  +6.6940120      5912.69     7701.435     7941.995     79.20853     141.8534      262.922      1.364     3.32     985.1775     59.70567     969.8934        20     1.225     0.876   8.62  24
        16    576.0809      1.6339 307.7199385  +6.6899509     589.2248     863.0406     636.0346     77.75504     139.6653     260.4372      1.502     4.25     987.4349     59.70567     95.48352         5     0.824     0.626 -79.54  24
        17    930.7144    996.8445 307.5390775  +6.2909462     11633.35     19334.54     21180.03      84.9081      169.278     338.6907      1.797     4.88     1017.213     59.70567     1538.622        51     1.804     1.168  40.69   0
        18   1002.5931   1022.0039 307.5083809  +6.2829643     6135.445      9452.84     9827.519     84.23368     157.6953     282.2557      1.638     4.56     1016.284     59.70567     862.3936        27     1.575     0.883  44.69  24
        19    757.4303   1023.0685 307.6101605  +6.2743110     888.2505     1497.604      2004.44     80.91827     143.9291     265.2115      1.964     5.19     1019.948     59.70567     126.5792        10     1.216     0.625  24.66  24
        20    287.4077   1022.3936 307.8053735  +6.2587875     1331.056     1908.723     1986.932     84.23369     153.2192     276.2096      1.646     5.42     1024.916     59.70567      170.193        11     1.142     0.725  51.44  24
        21    643.3928    997.0912 307.6583942  +6.2812092     1275.377     2252.278     2288.585      84.5041     169.0757     338.5222      1.882     6.80     1023.394     59.70567     191.1462        16     1.635     0.794  57.48   0
        22      5.1250    997.2205 307.9234460  +6.2596556     2192.709     3531.788     2836.166      84.5041     169.2106     311.5332      1.705     4.26     1029.274     59.70567     325.2692        21     1.510     0.843  55.69  16
        23    575.0860    995.8366 307.6868038  +6.2794327      3648.14     6392.794     7644.743      84.9081     169.3453     338.7243      2.004     4.52      1025.12     59.70567     459.4697        34     1.676     1.120  42.61   0
        24    684.5933    995.3559 307.6413423  +6.2833090     1228.164     2250.426     2658.527       84.369     169.1431     338.3874      2.175     4.96      1021.75     59.70567     189.3365        14     1.486     0.715  51.93   0
        25    109.7077    994.4070 307.8801127  +6.2643492     841.5123      1331.36     1227.986      84.5041     169.0757     338.5222      1.858     5.04     1024.993     59.70567      111.428        10     1.257     0.572  53.40   0
        26    840.4736    993.5826 307.5766647  +6.2892698     542.2844     999.7222     1384.507       84.369      169.278     338.6233      1.949     4.86     1018.587     59.70567     102.0731         7     1.308     0.512  36.56   0
        27    528.2467    992.5085 307.7063679  +6.2792324     1998.147      3538.18     3364.163      84.9081     169.3453      338.859      1.945     4.79     1025.445     59.70567     244.2831        24     1.551     1.023  53.07   0
        28    962.4645    984.3998 307.5263094  +6.2971476     41453.39     67367.79     71841.25     84.09815     169.0082     338.4211      1.776     4.68     1015.741     59.70567      5986.78        66     1.851     1.076  45.92   0
        29     35.3994    984.4342 307.9113079  +6.2659574     2730.579     4564.867     4927.473      83.9624     169.2106     338.4885      1.803     4.52      1027.59     59.70567     355.7242        24     1.602     0.935  60.41   0
        30    270.0262    983.0577 307.8139216  +6.2744424     1577.366     2667.792     2604.318      84.5041     169.4127     338.5559      1.682     4.65     1025.463     59.70567     236.4607        19     1.452     0.946  52.00   0
        31    157.5883    981.3426 307.8606720  +6.2713589     455.2325     924.5522     659.5276     84.23369     169.3453     338.4211      1.988     5.97     1025.029     59.70567     99.13074         7     1.652     0.608  67.05   0
        32    668.9412    980.7296 307.6483352  +6.2888226     816.8522     1101.247     910.9827     85.04235     169.4127     338.7243      1.368     4.39     1021.994     59.70567     121.1879         8     1.061     0.518  51.99   0
        33    860.4781    978.1305 307.5688763  +6.2963202     2340.294      3687.39     4229.135     85.17638     169.6818     338.6907      1.801     4.51     1017.911     59.70567     295.0847        19     1.475     0.816  53.16   0
        34     14.6793    978.2077 307.9201232  +6.2678281     543.4702     1119.677     1613.069      84.5041     168.9407     338.5222      2.995     6.85     1028.198     59.70567     101.0215         9     1.957     0.672  50.69   0
        35    808.7282    976.0177 307.5904396  +6.2954579     6120.377     10208.16     11522.82       84.369     169.3453      338.657      1.814     5.05     1018.648     59.70567     779.3469        32     1.642     0.939  52.82   0
        36    596.2425    976.2842 307.6786768  +6.2882163     683.0048     1112.965     810.6129      84.9081     169.3453      338.657      1.720     4.66     1024.108     59.70567     120.5742         6     0.942     0.653  82.18   0
        37    278.4687    975.2295 307.8106804  +6.2779590      1258.23     2381.302      2254.65     84.63898     169.4127      338.657      1.968     6.17      1025.59     59.70567     156.4487        17     1.525     0.937  57.26   0
        38    242.7150    974.8269 307.8255418  +6.2769200     737.6223     1578.455     2010.645     85.04235     169.1431     338.5896      2.166     5.90     1025.425     59.70567     119.6781         8     1.795     0.546  69.57   0
        39    103.2779    973.2340 307.8835000  +6.2728737     2378.989     3948.719     3820.694     84.77365     169.4127     338.6907      1.754     4.82     1025.221     59.70567     317.4491        23     1.585     0.870  53.05   0
        40    996.9407    971.2112 307.5124338  +6.3037470     6511.043     10750.33      11611.2     84.23368      169.278     338.4211      1.759     4.91     1014.338     59.70567     848.7545        32     1.732     0.885  51.72   0
        41    679.4814    965.4783 307.6444716  +6.2954734     717.2282     943.1596     875.3463     85.17638     169.6818     338.8927      1.623     5.01     1021.294     59.70567     94.06396         8     0.866     0.820 -21.98   0
        42    970.6301    962.7691 307.5236447  +6.3063520     1975.228     3166.809      2799.66       84.369     169.1431     338.4548      1.699     5.82     1014.534     59.70567     270.6388        19     1.575     0.764  52.86   0
        43     28.7960    961.2772 307.9148350  +6.2752950     1031.539     1521.877     1616.305      84.5041     168.8732     338.5559      1.577     5.05     1027.267     59.70567     153.0186        12     1.305     0.620  56.45   0
        44    303.6159    958.9521 307.8007876  +6.2855269     4042.701       6746.1     6956.404       84.369     169.4127     338.4885      1.794     4.43     1025.936     59.70567      513.459        32     1.740     1.000  53.37   0
        45    830.2530    959.2370 307.5820645  +6.3031081     1306.189      2061.79     1911.961     84.77365     169.4127      338.758      1.720     5.82     1017.979     59.70567      159.546        14     1.289     0.836  60.87   0
        46    691.3510    958.7892 307.6397674  +6.2986337      4199.63     6799.283     6802.992       84.369      169.278     338.3874      1.741     4.72     1020.796     59.70567     581.6858        27     1.586     0.905  49.78   0
        47     72.4348    956.5162 307.8968746  +6.2787345     1883.198     3210.813     3295.098      84.9081     169.4127     338.6907      1.849     5.44     1026.069     59.70567     230.6202        20     1.575     0.863  57.48   0
        48    513.6454    956.9005 307.7136330  +6.2934433     981.0223     1431.557     1316.939      84.9081     169.3453       338.96      1.527     5.49     1024.484     59.70567     156.0182        11     1.265     0.672  47.60   0
        49    923.1459    955.3401 307.5436154  +6.3078295     957.7136     1435.536     1488.704     85.04235     169.3453     338.6907      1.536     5.54     1015.152     59.70567     138.7454        10     1.206     0.848  64.90   0
        50    995.3376    952.8958 307.5137146  +6.3112556     601.5513     883.1409       720.33     84.63898       169.48     338.7917      1.290     4.59      1013.62     59.70567     101.7767         7     1.090     0.549  65.46   0
        51    616.0457    951.2251 307.6712972  +6.2992281     1640.328     2843.083     3302.026       84.369       169.48     338.5896      1.873     5.90      1022.77     59.70567     214.1844        14     1.402     0.720  43.23   0
        52    335.4453    945.3728 307.7880282  +6.2922057     1164.754     2042.454     2575.459       84.369       169.48     338.6233      2.063     5.59     1026.183     59.70567     166.2811        15     1.511     0.724  43.11   0
        53    655.4287    947.6547 307.6550613  +6.3020249     979.4211     1637.845     1232.082     84.63898       169.48      338.657      1.648     5.33     1021.583     59.70567     182.9713        13     1.579     0.727  48.45   0
        54    802.1718    941.4932 307.5943241  +6.3094928     863.3419     1486.085     1066.911     85.04235     169.1431     338.6233      1.564     4.81     1018.412     59.70567     141.2604         9     1.396     0.470  40.45   0
        55    939.5483    937.9932 307.5373860  +6.3155411     6486.123      10702.1      11103.1       84.369     169.2106       338.32      1.761     5.44     1013.843     59.70567     942.8083        34     1.701     0.921  50.22   0
        56    475.6897    935.4604 307.7301196  +6.3010190     1688.421     2656.519     2628.253     84.77365     169.5473      338.758      1.631     5.45     1024.377     59.70567     228.8348        16     1.510     0.717  49.72   0
        57    377.1495    933.6443 307.7711050  +6.2984526     8389.261     14281.99     15130.89     85.04235      169.278      338.758      1.830     4.55     1025.986     59.70567     1067.857        40     1.745     1.046  52.81   0
        58    297.2715    932.6006 307.8043133  +6.2961929      6202.16     10628.36     11357.48     84.23369     168.8732     338.5559      1.830     4.42     1026.305     59.70567     796.9182        37     1.689     1.052  53.94   0
        59    625.4622    927.0094 307.6682026  +6.3095427     1055.525     1609.612     1782.505     84.23368     169.2106     338.5222      1.588     3.28     1021.701     59.70567     194.3766         9     1.001     0.600  39.83   0
        60    911.3487    921.4471 307.5496541  +6.3214285     766.0756     1281.185     1875.871     85.04235      169.278     338.7917      2.161     5.85     1014.099     59.70567     110.6645         9     1.429     0.674  21.11   0
        61   1022.6556    918.6637 307.5035180  +6.3263039     742.8826     1026.702     1065.209       84.369     149.8315     272.0064      1.550     5.24     1011.778     59.70567     104.8785         8     1.260     0.616  48.60  24
        62    791.7906    916.3831 307.5994805  +6.3195124     1698.004     2929.857     3411.312     84.63898     169.1431     338.5896      1.976     6.20     1017.997     59.70567     215.8683        18     1.692     0.733  51.69   0
        63    955.4587    922.7252 307.5312908  +6.3223779     1015.974     1695.931     2657.468     85.04235     169.4127     338.6907      1.868     5.09     1013.025     59.70567      148.494        12     1.466     0.748  67.46   0
        64     42.7470    913.8959 307.9106477  +6.2953283     690.4128     1231.231     1095.842     84.77365     169.4127     338.9937      1.735     5.51     1026.225     59.70567     109.4152         8     1.545     0.555  46.34   0
        65   1022.7224    911.8199 307.5037201  +6.3291318     1086.304     1630.034     1840.647     83.55383     148.9917     270.9559      1.733     6.32      1011.47     59.70567     175.0777        14     1.567     0.762  57.28  24
        66    655.8596    913.2488 307.6560416  +6.3162451     771.1254     1048.661     934.6135      84.9081     169.4127     338.7917      1.509     4.36     1020.377     59.70567     109.7618         7     1.049     0.515  64.49   0
        67    576.9734    911.9344 307.6888490  +6.3141377     1054.268     1924.127     1933.842      84.5041     169.3453     338.6233      1.967     5.95     1022.405     59.70567     138.9655        13     1.438     0.693  54.61   0
        68    710.2247    909.7161 307.6335815  +6.3195287     2271.365     3930.281     4641.488     84.77365     169.1431      338.657      1.887     4.74     1018.957     59.70567     327.0698        23     1.588     0.936  59.23   0
        69    250.5806    904.9776 307.8246382  +6.3060240     1832.125      2839.48     3030.006     84.63898     169.3453      338.657      1.701     5.23     1026.022     59.70567     208.0857        19     1.406     0.867  62.29   0
        70    124.3681    904.9501 307.8770546  +6.3017778     1585.063     3083.895     3645.198     84.77365     169.4127      338.657      2.127     5.92     1025.436     59.70567     228.5344        23     1.733     0.944  57.24   0
        71    106.9178    905.6723 307.8842771  +6.3008905     2738.918     4800.462     4901.468     85.17638      169.749      338.758      1.858     4.84     1025.567     59.70567     317.1576        24     1.555     0.924  50.73   0
        72    988.3010    904.8373 307.5182511  +6.3308630     814.6912     1175.586      1316.56      84.9081      169.278       338.96      1.609     5.53     1011.915     59.70567     110.3752        10     1.454     0.592  63.59   0
        73    870.7183    905.6600 307.5670600  +6.3265856     759.0228     1097.672     558.1005     85.04235     169.4127      338.758      1.648     4.25     1014.992     59.70567     110.7921         7     1.119     0.460  59.56   0
        74     32.4077    905.3495 307.9152311  +6.2985074     12940.83     15093.26      15048.7       84.369     169.2106     338.3874      0.899     0.48     1026.265     59.70567     6888.429        15     0.965     0.845 -13.56   0
        75    704.8640    898.6895 307.6361793  +6.3239016     6022.193     10340.29     10959.77     84.77365     169.6146      338.758      1.788     4.78     1018.624     59.70567     714.0153        35     1.724     0.986  53.43   0
        76    389.0277    900.6703 307.7672859  +6.3124667     895.8385     1519.382     1241.667     84.63898     169.3453      338.657      1.880     5.38     1025.519     59.70567     122.6643         8     1.020     0.802  59.51   0
        77    842.2859    899.2122 307.5790858  +6.3282950     696.2084     1324.113     1158.422      84.5041     169.1431     338.5559      1.710     4.32      1015.75     59.70567     104.5545         7     1.321     0.403  64.77   0
