#   1 NUMBER                 Running object number                                     
#   2 X_IMAGE                Object position along x                                    [pixel]
#   3 Y_IMAGE                Object position along y                                    [pixel]
#   4 ALPHA_J2000            Right ascension of barycenter (J2000)                      [deg]
#   5 DELTA_J2000            Declination of barycenter (J2000)                          [deg]
#   6 FLUX_APER              Flux vector within fixed circular aperture(s)              [count]
#   9 FLUXERR_APER           RMS error vector for aperture flux(es)                     [count]
#  12 FLUX_RADIUS            Fraction-of-light radii                                    [pixel]
#  13 FWHM_IMAGE             FWHM assuming a gaussian core                              [pixel]
#  14 BACKGROUND             Background at centroid position                            [count]
#  15 THRESHOLD              Detection threshold above background                       [count]
#  16 FLUX_MAX               Peak flux above background                                 [count]
#  17 ISOAREA_IMAGE          Isophotal area above Analysis threshold                    [pixel**2]
#  18 A_IMAGE                Profile RMS along major axis                               [pixel]
#  19 B_IMAGE                Profile RMS along minor axis                               [pixel]
#  20 THETA_IMAGE            Position angle (CCW/x)                                     [deg]
#  21 FLAGS                  Extraction flags                                          
         1     12.4678     80.1745 307.9363114  +6.6321272     746497.5      1964308      2256831     85.71635     171.7063      343.481      2.506     6.39     1054.376     60.56218      60894.5       445     2.431     1.915 -39.68  28
         2    271.9796     25.1330 307.8303009  +6.6635658     6313.226      12897.2     14246.21     85.71635      171.843      343.481      2.155     5.08     1045.917     60.56218     770.5902        51     1.911     1.394 -35.15   2
         3    451.3456     24.7120 307.7557491  +6.6697460     15849.99     32156.53     35600.29     86.12616     171.7063     343.7543      2.176     4.87     1032.134     60.56218      1821.55        68     2.044     1.427 -31.63   0
         4    260.2470     21.6414 307.8352967  +6.6646143     2265.126     4445.949     5429.161     85.98978      171.843     343.4469      2.203     4.60     1045.955     60.56218     269.3185        32     1.569     1.267 -50.27   0
         5    701.1682     14.3656 307.6522386  +6.6823656     1323.288     2563.353     2735.274     85.71635     171.5696     343.3102      2.147     5.36     1024.021     60.56218      191.611        19     1.567     0.905 -40.41   0
         6    949.8062     14.4970 307.5488629  +6.6905973     881.7155     1376.252     810.7914     85.85317     171.5012     343.3443      1.629     5.37     1016.701     60.56218     140.6375         8     0.975     0.835   3.91   0
         7    213.0204     10.4920 307.8553075  +6.6676349     557.1033     876.4787     228.0873     85.98977      171.638     343.4127      1.736     3.79      1045.87     60.56218     90.47742         6     1.447     0.285 -16.84   0
         8    189.5047      7.2564 307.8651930  +6.6681823     7523.396     15354.58     16937.11     85.98978      171.843     337.5178      2.177     4.97     1045.774     60.56218     878.6897        52     1.899     1.387 -35.09  16
         9    533.5258      5.4979 307.7222339  +6.6804287     2049.909     4155.345     4995.502     85.71635     171.9113     320.4283      2.322     5.74     1027.513     60.56218     245.3655        30     1.733     1.204 -31.19  16
        10      2.9334      7.8538 307.9427317  +6.6616707     725.7718     1153.924     641.7131     86.12616     159.4431     282.7573      1.588     6.62     1051.327     60.56218     95.51062        11     1.357     0.906  -3.73  24
        11    934.9797      4.7684 307.5553546  +6.6941214     3313.734     5733.884     5563.376     85.57932      171.638     311.5511      1.796     4.87     1017.731     60.56218     434.8117        26     1.630     0.934 -32.08  16
        12    735.8076      3.3329 307.6382096  +6.6880774     1505.115     2956.933     3446.489     85.57932     163.4416     291.5451      2.117     5.53     1022.199     60.56218     172.7468        22     1.580     1.071 -29.20  24
        13    471.6602      3.6855 307.7480149  +6.6791085     1038.489     2547.435     2580.271     86.26233     167.1341     296.9697      2.298     7.35     1030.458     60.56218     132.2546        21     1.672     1.316  55.67  24
        14    999.0884      1.7276 307.5288031  +6.6975104      1432.91     2023.185     1830.929     79.90537     143.2344     265.5471      1.426     5.19     1010.983     60.56218     212.5174        11     1.125     0.676 -20.91  24
        15    984.5584    996.5951 307.5013932  +6.2861723     684.0252     739.5165     1150.209     85.44206     171.5012     343.2759      1.638     3.53     1060.732     60.56218     100.6252         5     1.082     0.332 -20.58   0
        16    976.3646   1023.0664 307.5039078  +6.2749678     532.4852     752.4238     1252.461     82.07908     146.0742     269.1033      1.052     3.43     1062.575     60.56218     113.4878         5     0.778     0.436  71.63  24
        17    803.9301   1021.2418 307.5756013  +6.2699824     6414.771     10261.54     10266.96     85.98977     167.6949     297.8773      1.692     4.54      1066.97     60.56218     857.6511        33     1.621     0.953 -33.75  24
        18    593.5617   1023.4626 307.6629152  +6.2620506     104421.2     133120.8     136298.1      77.5196     139.8344     262.1216      1.292     3.76     1069.873     60.56218     18826.08        41     1.554     0.735  -7.78  27
        19    594.8115   1017.2203 307.6626066  +6.2646702      67173.3     112193.2     120998.5     85.71635     171.5012     340.7364      1.804     4.39     1069.655     60.56218     8874.867        83     1.881     1.207 -33.65  19
        20    556.1542    988.9130 307.6796200  +6.2750696     3811.544     6344.116     7217.492     86.12615     171.7063     343.5835      1.764     4.23     1069.208     60.56218     489.3162        30     1.562     1.076 -39.70   0
        21    526.5018    990.0107 307.6919009  +6.2736260     1084.877      1539.31     1686.975     85.85317     171.4327     343.3785      1.524     4.86     1069.475     60.56218     136.8059        11     1.084     0.788 -31.24   0
        22    306.5106    987.7025 307.7833641  +6.2672232     13236.97     23164.92     25935.04     86.12616     172.3204     343.5835      1.949     5.03     1070.902     60.56218     1606.383        57     2.082     1.193 -29.41   0
        23    760.6352    988.3201 307.5946951  +6.2821357      7737.17     12315.04     12777.55     85.98978     171.9113     343.6177      1.729     4.35     1065.253     60.56218      984.877        34     1.656     0.958 -27.36   0
        24    821.7147    987.8740 307.5693362  +6.2843547     1103.917     1791.172     2142.041     86.26232     172.1842     343.6177      1.789     4.83     1064.428     60.56218     163.6909        15     1.549     0.711 -33.29   0
        25    430.9576    987.9476 307.7316604  +6.2712851     855.4814     1214.914       372.33     86.12616     171.9113     343.6177      1.675     5.57     1070.589     60.56218      148.939         9     1.143     0.764 -30.60   0
        26    277.1459    985.7582 307.7956279  +6.2670430     760.2494     1595.873     1383.591     85.98978     171.9113     343.6177      1.745     6.40     1070.737     60.56218     106.8492        12     1.750     0.656 -38.26   0
        27    921.9977    981.7393 307.5278821  +6.2902265      8695.77     13747.53      14677.5     85.44206     171.5012     343.2759      1.659     4.13     1062.429     60.56218     1180.303        35     1.611     0.959 -30.31   0
        28    553.3525    981.0886 307.6810479  +6.2782073     7569.505     12410.44     13383.07     86.12616     171.7063     343.7202      1.713     4.19     1068.951     60.56218     1028.286        37     1.590     1.079 -29.67   0
        29    895.5615    977.9230 307.5389929  +6.2909228     12485.35     19645.17     20413.11     85.98977     171.9113     343.5835      1.706     4.16     1062.471     60.56218     1643.232        46     1.685     1.050 -29.81   0
        30   1017.2642    977.3619 307.4884522  +6.2952025     4860.383     7656.538     7801.578     86.12616     171.7747     340.5986      1.702     4.38     1058.356     60.56218     735.6027        28     1.585     0.911 -31.23  16
        31    608.3759    978.0190 307.6582938  +6.2813118     1237.977     2068.104     2277.855     85.85317      171.638     343.5152      1.961     6.15     1068.179     60.56218     166.4723        13     1.216     0.873 -28.31   0
        32    539.8868    976.9092 307.6867828  +6.2794835     3713.145     6262.464     6645.753     85.85317     172.3204     343.7201      1.880     4.10     1068.934     60.56218     465.2294        31     1.616     1.116 -15.21   0
        33    649.3360    976.4260 307.6413319  +6.2833365     1319.553     2008.605     2212.535     85.71635      171.843     343.5152      1.686     4.89     1067.161     60.56218     196.9481        16     1.509     0.749 -37.80   0
        34     74.6268    975.7373 307.8800918  +6.2643935      927.478     1449.094     1551.542     85.71635     171.7747     343.5152      1.867     6.41     1068.416     60.56218     129.8695        12     1.458     0.791 -16.09   0
        35    804.2720    974.8118 307.5770219  +6.2891681     564.1543     722.1053     588.2905     85.57932     171.4327     343.3785      1.501     4.49     1064.094     60.56218     104.0112         5     1.197     0.479 -28.68   0
        36    492.8347    973.6038 307.7064405  +6.2792767     1990.374     3486.628     3324.163     85.30459     171.7063     343.3443      1.793     5.52     1069.186     60.56218      226.792        21     1.590     0.898 -31.60   0
        37    927.3394    965.4606 307.5262103  +6.2971270     43869.04     68513.14     71950.78     86.12616      171.843     343.6177      1.711     4.42     1061.244     60.56218     6277.677        64     1.709     1.082 -29.86   0
        38      1.5923    964.8897 307.9107971  +6.2664218     1848.578     2276.136     2265.232     78.12287     140.6712     262.8817      1.201     2.88     1068.416     60.56218     345.4326        11     1.014     0.666 -77.02  24
        39    234.7312    963.7368 307.8139921  +6.2747164     1521.526     2289.482     2436.613     86.12616      171.843     343.6519      1.582     4.65     1070.223     60.56218     218.7537        16     1.360     0.870 -43.26   0
        40    633.4178    961.6976 307.6484412  +6.2888878     655.9379     1150.779     1196.263     85.98978      171.638     343.3102      2.085     6.90     1067.033     60.56218     103.7933         9     1.419     0.941 -29.66   0
        41    773.4121    957.2577 307.5904331  +6.2953894     6243.158     10313.49     11441.92     85.44206     171.7747     343.2759      1.787     4.45     1063.602     60.56218     801.1852        37     1.841     1.066 -50.05   0
        42    825.3660    959.1558 307.5687857  +6.2963362     2246.383     3351.389     3435.147     85.71635      171.843     343.4469      1.687     4.79     1062.704     60.56218     342.3813        20     1.577     0.750 -22.95   0
        43    242.8234    956.5095 307.8108752  +6.2779720     1351.202      2325.15     2398.651     86.12616      171.638     343.4127      1.987     4.54     1070.242     60.56218     173.6602        14     1.262     0.755 -27.61   0
        44    207.9160    955.5637 307.8254078  +6.2771932     765.4816     1492.453     1254.213     86.12615      171.843     343.5494      1.905     6.63     1069.936     60.56218     96.27026         9     1.559     0.791 -50.38   0
        45    560.3460    956.3420 307.6789776  +6.2886603     940.2396     1420.341      1585.63     86.26233      171.843     343.5835      1.608     3.94     1067.953     60.56218     167.0063         7     1.002     0.443 -10.86   0
        46     68.0610    954.4583 307.8835406  +6.2729604     2349.518     4188.679     4441.945     86.26232     171.7747     343.6177      1.863     4.76     1068.416     60.56218     294.7186        26     1.667     0.919 -30.47   0
        47    961.6554    952.2254 307.5123988  +6.3037343     6910.926      10959.7     11309.35     85.71635      171.843     343.3785      1.678     4.39     1059.186     60.56218     924.1388        31     1.577     0.943 -34.52   0
        48    218.4669    948.3896 307.8212678  +6.2805093      643.114     812.0583     488.4184     85.57932      171.638     343.4127      1.573     4.77     1070.019     60.56218     89.79749         7     1.395     0.462 -46.38   0
        49    935.6146    943.9126 307.5234968  +6.3063011     2022.023     3070.418     3286.622     85.71635      171.638     343.4127      1.652     3.92     1059.569     60.56218     256.4144        19     1.332     0.874 -29.48   0
        50    268.5642    940.2106 307.8007339  +6.2855649     3717.292     6496.674     7496.943     85.57932      171.638     343.3443      1.885     4.56     1070.236     60.56218     418.2871        28     1.583     1.024 -37.15   0
        51    794.8834    940.5864 307.5820743  +6.3029895     1225.898     2065.495      2403.09     85.71635     171.5696     343.4127      1.704     5.16     1062.176     60.56218     204.7175        15     1.462     0.714 -27.34   0
        52    656.2874    939.8809 307.6396760  +6.2986604     4308.626     7091.456     7280.087     85.85317      172.116     343.7202      1.731     4.03     1065.589     60.56218     593.9778        25     1.525     0.919 -27.25   0
        53    478.3618    938.2261 307.7136473  +6.2934028     1085.153     1719.083     1531.138     85.71635      171.638     343.4127      1.759     4.52     1068.409     60.56218     148.7208        11     1.161     0.637 -36.87   0
        54     37.2641    937.6328 307.8969040  +6.2788750     1844.531     3243.613     3466.982     85.98978     171.9113     343.5494      1.899     4.45     1068.416     60.56218     237.6096        23     1.431     1.103 -43.22   0
        55    887.9869    935.9609 307.5435508  +6.3080001     821.1388     1262.768     897.6957     85.57932      171.638     343.3443      1.499     5.11      1060.32     60.56218     127.9208        10     1.580     0.467 -48.62   0
        56    581.1088    932.3478 307.6711617  +6.2992624     1338.088     2656.559     2403.288     85.98978      171.638     343.7884      2.063     5.67     1066.898     60.56218     201.9673        20     1.628     1.007 -45.31   0
        57    959.3283    933.3124 307.5140012  +6.3114676     750.2961     1387.547     1365.834     86.26233      172.116     343.5835      1.870     6.24     1058.166     60.56218     118.7394        10     1.483     0.739 -47.30   0
        58    304.6012    933.4072 307.7859938  +6.2895810     769.5551     1332.015     1713.163     85.44206     171.5012     343.3785      1.899     4.71     1070.226     60.56218     121.4586         8     1.355     0.464 -41.91   0
        59   1012.3391    932.2734 307.4920128  +6.3136593     983.7454     1570.205      1291.07     86.26233      171.843     343.6177      1.707     5.02     1056.545     60.56218     142.0947         9     1.129     0.632 -23.39   0
        60     70.5399    930.4449 307.8833250  +6.2829599     641.7257       1000.6     846.9781     85.98978     171.7747      343.686      1.823     4.94     1068.416     60.56218     91.88147         6     0.954     0.723 -14.99   0
        61    620.2990    928.8568 307.6549985  +6.3020122     1033.526     1476.989     1126.894     85.85317      171.843     343.7884      1.587     4.32     1066.232     60.56218     139.9442         9     1.137     0.579 -14.88   0
        62    300.2223    926.2921 307.7880536  +6.2923727     1224.122     2062.938     2633.841     86.12616      171.638     343.4127      1.934     6.18     1070.151     60.56218     157.2655        15     1.475     0.727 -27.38   0
        63    766.8301    922.6595 307.5943324  +6.3094581     921.3192     1175.293     653.5803     85.85317      171.843     343.5494      1.401     5.12     1062.197     60.56218     156.5094        10     1.118     0.663 -48.63   0
        64    904.3690    919.1229 307.5373112  +6.3154990     6803.339     10853.94     11493.52     85.98978     171.9113     343.5494      1.700     4.21     1059.118     60.56218     884.2308        33     1.631     0.962 -35.48   0
        65    440.3682    916.3015 307.7301714  +6.3011870     1934.307     3412.684     3571.243     86.12616     171.7063     343.7202      1.863     5.18     1068.811     60.56218     236.8779        25     1.595     1.006 -37.75   0
        66    342.0191    914.7278 307.7710814  +6.2985472      7981.44     14344.82     15264.27     85.71635     171.7747     343.5152      1.899     4.28     1069.901     60.56218     941.8809        46     1.760     1.239 -38.30   0
        67    262.0897    913.7486 307.8043189  +6.2962758     6098.678     10611.28     11334.23     86.12616      171.638     343.7202      1.849     4.46     1069.969     60.56218     723.7766        35     1.616     1.109 -34.10   0
        68    589.9703    908.4032 307.6682880  +6.3094466     1017.186     1549.161     1494.558     85.57932      171.638     343.3785      1.542     4.21     1065.942     60.56218     146.8888        10     1.032     0.665 -56.55   0
        69    920.1478    904.1759 307.5312584  +6.3221968      968.002     1764.734      1728.64     85.57932      171.843      343.481      2.130     5.50     1058.021     60.56218     151.7593        12     1.331     0.642 -33.04   0
        70    987.0231    900.0399 307.5036134  +6.3261294     845.1912     1392.828      1842.12     85.71635      171.638     343.3443      1.917     4.88     1055.357     60.56218     105.5344         9     0.869     0.776 -42.83   0
        71    756.2108    897.5282 307.5995905  +6.3194828     1552.976     2484.905     2763.626     85.57932     171.4327     343.4127      1.816     5.08     1061.729     60.56218     212.6233        16     1.428     0.733 -39.62   0
        72    580.7573    896.8746 307.6725044  +6.3139000     645.9739     853.8815     873.1147     85.98977     171.9113     343.6177      1.539     4.26     1065.658     60.56218     97.64368         6     0.915     0.601 -25.62   0
        73      6.9155    894.3788 307.9109780  +6.2957180     927.3085      1549.68     2041.575     85.85317     171.5012     334.4788      1.977     5.03      1067.75     60.56218       131.39        12     1.309     0.811 -39.90  16
        74    620.4013    893.7357 307.6561404  +6.3165195     758.8512     1091.455     1189.917     85.44206     171.5696     343.3443      1.686     5.65     1064.888     60.56218     126.0161         9     1.301     0.691 -30.87   0
        75    541.7196    892.9996 307.6888531  +6.3141966     1029.884     1595.453     1135.464     85.30458     171.1586     343.2759      1.623     5.61     1066.085     60.56218     140.6565        11     1.362     0.651 -36.94   0
        76    987.7870    892.9391 307.5035346  +6.3290872      1193.12     1723.498     2279.649     85.57932      171.638     343.2418      1.486     4.95      1054.89     60.56218     183.0148        10     1.272     0.544 -24.22   0
        77    675.0002    890.6254 307.6335622  +6.3196257     2310.621     3652.448     4041.421     85.71635     171.5012     343.3785      1.719     4.36     1063.456     60.56218      316.434        21     1.416     0.938 -24.16   0
