#   1 NUMBER                 Running object number                                     
#   2 X_IMAGE                Object position along x                                    [pixel]
#   3 Y_IMAGE                Object position along y                                    [pixel]
#   4 ALPHA_J2000            Right ascension of barycenter (J2000)                      [deg]
#   5 DELTA_J2000            Declination of barycenter (J2000)                          [deg]
#   6 FLUX_APER              Flux vector within fixed circular aperture(s)              [count]
#   9 FLUXERR_APER           RMS error vector for aperture flux(es)                     [count]
#  12 FLUX_RADIUS            Fraction-of-light radii                                    [pixel]
#  13 FWHM_IMAGE             FWHM assuming a gaussian core                              [pixel]
#  14 BACKGROUND             Background at centroid position                            [count]
#  15 THRESHOLD              Detection threshold above background                       [count]
#  16 FLUX_MAX               Peak flux above background                                 [count]
#  17 ISOAREA_IMAGE          Isophotal area above Analysis threshold                    [pixel**2]
#  18 A_IMAGE                Profile RMS along major axis                               [pixel]
#  19 B_IMAGE                Profile RMS along minor axis                               [pixel]
#  20 THETA_IMAGE            Position angle (CCW/x)                                     [deg]
#  21 FLAGS                  Extraction flags                                          
         1    318.1624     18.9260 307.8049635  +6.6809525     12385.07      20177.4     21166.77     77.79816     155.5346     310.9147      1.720     5.04     829.6195     54.79287     2004.155        39     1.702     0.937 -34.37   0
         2     91.7541     19.3700 307.8989724  +6.6732594     2443.214     4050.162      3901.88     77.42681     155.5346     310.7292      1.700     4.79     829.4538     54.79287     360.7829        21     1.608     0.791 -36.30   0
         3    384.4111     16.8678 307.7775199  +6.6839961     2310.036     3656.307     3475.001     77.42681     155.2873     310.6983      1.704     5.12      827.673     54.79287     366.9275        22     1.669     0.748 -36.10   0
         4    645.1760     12.2477 307.6693778  +6.6945245     10428.67     16898.16     17319.52     77.55079     155.4728     310.7292      1.698     5.55     819.9796     54.79287     1754.556        35     1.679     0.876 -33.68   0
         5    522.8597     11.8346 307.7201910  +6.6906540     1446.556     2164.734     2160.562     77.79816     155.4728      310.822      1.594     5.42     820.5128     54.79287      209.318        17     1.576     0.711 -33.67   0
         6    809.6968     11.4503 307.6010759  +6.7002809     1632.758     2537.554     2512.214     77.79816      155.411     311.0074      1.668     5.43     818.5303     54.79287     222.4903        17     1.505     0.717 -32.66   0
         7    880.0852      9.7873 307.5718975  +6.7032864     1303.453     2284.661     2453.729     77.55079     155.3492     310.6983      1.972     5.84     818.3656     54.79287     203.9651        15     1.634     0.666 -34.13  16
         8    636.7704      7.7094 307.6730210  +6.6961203     8897.521     14158.67     15265.26     78.04475     155.2254     307.9028      1.716     5.46      819.906     54.79287     1455.729        34     1.651     0.943 -38.84  16
         9    245.4777      9.2212 307.8354756  +6.6825493     6487.925     10559.85      11849.4     77.55079     155.2254      310.822      1.796     5.45     829.0631     54.79287     1022.633        39     1.983     0.909 -28.64  16
        10    406.6033      7.8838 307.7686056  +6.6884390     7830.407     12608.11     13218.71     77.30263     155.1016     308.5573      1.705     5.44     826.0101     54.79287     1131.307        33     1.668     0.887 -36.35  16
        11    668.7516      5.2522 307.6598211  +6.6981904     13202.17      27215.9     32793.01     78.04475     155.3492     287.4073      2.357     9.27     819.9128     54.79287     2085.492        56     2.629     0.913 -36.53  24
        12    722.3163      6.3544 307.6375377  +6.6995030     1950.652     3033.071     3168.673     77.92155     155.4728     298.1054      1.667     5.56     819.7664     54.79287     310.4301        18     1.522     0.772 -34.72  16
        13    149.1842      6.7680 307.8755478  +6.6803676     455.0806       701.82     665.2656     77.55079     155.2254     301.5341      1.492     4.52     829.0185     54.79287     78.41925         5     0.780     0.746  15.19  16
        14    646.1872      3.5989 307.6692480  +6.6981279     2921.224     4883.661     5485.141     77.55079     150.3842     267.2814      1.752     5.22     819.8585     54.79287     455.3446        24     1.691     0.856 -39.63  25
        15    185.7205      4.6007 307.8604478  +6.6824745     1119.487     1979.924     2110.521     77.17825     154.8536     279.9567      1.860     7.38     828.9864     54.79287     169.2701        19     1.926     0.792 -22.35  16
        16     52.6139      1.6588 307.9158240  +6.6792697     2477.763     3175.846     3309.092     71.35707      128.323     238.8466      1.398     5.03     829.5067     54.79287     428.6637        14     1.326     0.626 -15.36  24
        17    909.9670    996.5052 307.5264972  +6.2969663     32812.04     66449.68     72812.98     78.04475     155.3492     310.9456      2.137     5.13      848.072     54.79287     3715.266        77     1.997     1.408 -31.97   0
        18    508.7045   1021.7006 307.6921722  +6.2733362     791.3999     1577.045     1344.277     77.92155     148.3906     263.3708      1.953     7.00     854.2646     54.79287     114.7017        14     1.910     0.719 -40.15  24
        19    217.2836    995.3392 307.8139879  +6.2745763     1529.562     2612.378     3353.582     78.04475     155.5346     310.9147      2.151     5.62     850.8151     54.79287     181.2903        17     1.553     0.753 -39.98   0
        20    105.4367    994.1757 307.8604389  +6.2713488      601.964     1133.726     1045.957     77.55079     155.2873     310.6055      1.792     4.78     848.1008     54.79287     79.93726         6     0.980     0.661 -10.25   0
        21    616.4576    992.7084 307.6484288  +6.2888615     783.0984      1424.63     1006.782     77.79816      155.411     310.9456      1.771     4.33     853.0989     54.79287      123.032         9     1.196     0.745  -3.47   0
        22    807.9836    990.3420 307.5690262  +6.2961529      1913.89      3588.55     3452.571     77.30263      155.411     310.6055      1.975     5.42     849.2616     54.79287     214.7037        25     1.559     1.102 -44.84   0
        23    756.0596    988.3430 307.5906413  +6.2952673     5230.892     10265.36        11675     78.04475     155.4728     310.8838      2.110     5.23     850.0679     54.79287     592.5811        48     1.936     1.321 -39.36   0
        24    225.3825    987.5665 307.8108885  +6.2780530     1312.968     2427.407     3016.813     77.55079     155.2873     310.6983      2.155     6.33     850.8357     54.79287     180.5042        18     1.739     0.835 -50.60   0
        25    542.2991    987.6914 307.6793716  +6.2884842     816.0349     1434.124     1338.786     77.92155     155.9047      310.822      1.796     6.69     853.3166     54.79287     115.1698        14     1.741     0.721 -33.20   0
        26    189.0861    987.4352 307.8259547  +6.2769045     651.3065      1114.61     1073.814     77.92155     155.3492     310.8528      1.960     5.86     849.8931     54.79287     86.08722        10     1.504     0.642 -19.61   0
        27     50.3675    985.6489 307.8835773  +6.2730414     2250.614     3906.418     4125.886     77.67458     155.4728      310.791      1.892     5.75     847.6732     54.79287      275.294        25     1.826     0.843 -28.28   0
        28    944.2765    983.2366 307.5127020  +6.3035721     4690.943     9813.849     10769.65     77.79816     155.5346     310.8838      2.165     5.51     847.3589     54.79287     537.9592        47     1.874     1.374 -30.44   0
        29    202.0291    979.3938 307.8208544  +6.2806526     402.8185     729.5414     551.8035      77.4268     155.2873     310.6674      1.711     3.92     849.9904     54.79287     78.79675         5     1.277     0.344 -47.71   0
        30    917.9640    974.9239 307.5238994  +6.3061380     1566.356       3211.2     3534.082     77.79816     155.5346     310.8838      2.230     6.00     847.5836     54.79287     198.7206        24     1.621     1.200 -27.00   0
        31    626.6296    976.6241 307.6447463  +6.2958365     686.1141      1333.03     1457.715     77.42681     155.3492     310.6674      2.058     4.84     852.4032     54.79287     90.60211         7     1.128     0.589 -44.75   0
        32    638.7614    970.9977 307.6399002  +6.2985593     3766.561     6928.652     7000.833     77.05367     155.2254     310.6055      1.903     5.07     851.9965     54.79287     455.1567        34     1.706     1.097 -27.07   0
        33    250.8927    971.3738 307.8008472  +6.2855819     3744.034     6546.195     6761.535     78.04475     155.2254     310.6983      1.847     5.33     850.7686     54.79287     451.0331        28     1.705     0.923 -31.45   0
        34    777.4521    971.3384 307.5823323  +6.3029915     982.3174     1885.618     2082.378     77.92155      155.411      310.822      1.997     7.68      849.451     54.79287     122.4096        17     1.529     1.080 -33.22   0
        35     19.3577    968.9096 307.8970091  +6.2789215     1739.468     2981.275     3190.042     77.92155     155.4728     310.9147      1.907     6.13     847.1733     54.79287     225.2101        22     1.772     0.893 -32.41   0
        36    460.9803    969.5582 307.7137261  +6.2932825     986.8179     1494.078     2168.057     77.42681     155.2873     310.6674      1.751     5.72     852.4183     54.79287     125.7614        13     1.420     0.650 -34.21   0
        37    988.8293    969.5494 307.4946692  +6.3106873      602.583     1215.976     2047.712     77.55079     155.5963     310.7601      2.073     3.74     845.9854     54.79287     90.74481         6     1.382     0.291 -17.39   0
        38    869.5080    967.4332 307.5442593  +6.3076353     560.7757     923.3345      1008.75     78.04475     155.3492     310.8838      1.973     4.19     848.0229     54.79287     98.41425         6     1.118     0.449 -11.86   0
        39    563.2806    963.5640 307.6714735  +6.2991364     1439.192     2626.563     2489.043     77.79816     155.5346     310.8528      1.844     7.04      852.572     54.79287     189.9404        21     1.711     0.871 -30.02   0
        40    287.3184    964.8763 307.7859499  +6.2894701     827.1252     1213.293     1218.411     78.16776     155.7198     310.9765      1.529     5.35     851.0421     54.79287     119.5396        12     1.197     0.784 -29.96   0
        41     52.6835    960.5126 307.8834632  +6.2834936     806.8447      1222.18     1680.888     77.67458     155.6581     310.8838      1.844     5.82     846.9381     54.79287     127.0546         9     1.425     0.670 -30.76   0
        42    602.8541    959.5523 307.6551851  +6.3020988     1195.581     1826.386     1508.065     77.92155     155.4728     310.8838      1.709     4.74     852.3679     54.79287     155.3293        16     1.234     0.873 -30.43   0
        43    282.2784    957.9326 307.7882748  +6.2921694     1317.416     2357.678     2592.026     78.04475     155.5346      310.822      1.831     5.91     850.7498     54.79287     179.5493        17     1.825     0.648 -27.20   0
        44    551.2445    955.8131 307.6767282  +6.3019384     510.0174     838.7935     821.5345     77.30263     155.2873     310.6055      1.455     3.53     852.3614     54.79287     98.56439         5     1.119     0.321  11.93   0
        45    750.2892    953.5673 307.5941996  +6.3094321     771.0143     1358.403     1601.588     78.04475     155.2873     310.8528      1.882     6.20     849.6182     54.79287     98.20825        11     1.454     0.742 -23.25   0
        46    124.7350    952.2480 307.8538426  +6.2892953     598.2677     988.8949     1201.973     77.79816     155.3492     310.9147      1.898     5.33     847.1813     54.79287     98.76709         7     1.541     0.520 -26.98   0
        47    887.0300    950.1334 307.5375656  +6.3153533     5269.955     10585.43     10920.18     77.67458     155.4728      310.822      2.076     5.31     847.6138     54.79287     618.0132        40     1.806     1.206 -30.33   0
        48    422.9866    947.4858 307.7302339  +6.3011374     1821.181     3285.049     3192.092     77.55079     155.2873     310.7601      1.840     5.41      851.467     54.79287     224.1058        22     1.647     0.847 -30.64   0
        49    324.4404    945.9244 307.7711819  +6.2985219      8447.51     14510.58     15012.74     77.79816     155.4728     310.8838      1.861     4.94     850.4749     54.79287     999.3962        39     1.818     1.002 -36.15   0
        50    592.5187    947.4131 307.6598811  +6.3067685     484.6904     742.3752     266.6843     77.55079     155.2254     310.6983      1.578     4.20     852.0104     54.79287     82.82959         5     1.028     0.490  -3.25   0
        51    244.6406    944.9050 307.8043318  +6.2963004     6336.961     11052.72     11859.48     77.92155      155.411     310.9765      1.838     5.14     849.9803     54.79287      751.318        37     1.859     1.012 -30.47   0
        52    572.7399    939.3461 307.6683597  +6.3094454     1108.602     1738.644     1941.476     78.04475      155.411      310.822      1.773     6.22     851.8155     54.79287     138.4899        14     1.401     0.777 -34.57   0
        53    902.4289    935.2904 307.5316708  +6.3219871     718.6509     1369.239      1445.65     78.04475     155.2254     310.7601      1.991     6.01     847.1052     54.79287     108.4887         8     1.300     0.781   8.58   0
        54    858.2688    934.5042 307.5500244  +6.3208581     578.4721      737.175     309.6711     77.79816     155.5963     310.8838      1.427     4.59     847.9916     54.79287     101.1877         6     1.100     0.545 -63.39   0
        55    135.2635    935.3575 307.8500422  +6.2966163      556.723     766.8279     166.4062     77.92155      155.411     310.8838      1.403     4.24     846.7719     54.79287     73.10663         6     1.109     0.461  -7.42   0
        56    401.1290    932.7907 307.7397980  +6.3064805     588.1695     889.2428     693.3589     77.42681     155.1016     310.6983      1.761     4.62     850.8206     54.79287     82.81885         7     1.062     0.572 -66.31   0
        57    969.3957    930.9601 307.5040228  +6.3259776     651.6137     1306.637     1809.873     77.17825     155.2254     310.5746      2.254     6.34     845.2212     54.79287     107.0455         9     1.482     0.763 -20.28   0
        58    738.9317    928.2346 307.5997609  +6.3195148     1366.084     2456.636     2559.385     77.79816     155.5346     310.9456      1.996     6.01     849.4031     54.79287     168.4374        22     1.636     0.913 -29.58   0
        59    563.6383    928.1267 307.6725131  +6.3137761      594.899     947.2949     827.3094     77.79816     155.4728     310.9147      1.587     3.44     851.5058     54.79287     86.61182         5     0.773     0.441 -72.62   0
        60    615.0130    923.8391 307.6513359  +6.3172419     575.9896     1078.372     512.1577     77.42681     155.2873     310.6364      1.744     6.46     851.3054     54.79287     75.95154         8     1.444     0.811 -42.55   0
        61    603.5940    924.8696 307.6560403  +6.3164397     822.9334     1407.767     1224.342     77.42681     155.1016     310.6983      1.878     4.99     851.3796     54.79287     126.9408         9     1.323     0.532 -40.25   0
        62    524.3606    923.9066 307.6889550  +6.3142209     1056.049     1841.095     1753.603     78.04475      155.411     310.9456      1.827     5.40      851.298     54.79287     177.8131        16     1.345     0.998 -35.27   0
        63    970.3071    923.8101 307.5038833  +6.3289591     1033.902     1856.001     1997.698     77.55079     155.1016     310.6674      1.927     6.42     845.0522     54.79287     131.1778        15     1.569     0.738 -21.85   0
        64    657.6852    921.7357 307.6336969  +6.3195182     2107.721     3721.013     3905.992     78.04475     155.5963     310.8838      1.869     5.50     850.8943     54.79287     265.3557        22     1.573     0.888 -29.38   0
        65    948.4880    918.8834 307.5131033  +6.3302751     551.0244     832.0173      1065.54     77.67458     155.6581     310.8838      1.480     4.87     845.6416     54.79287     81.76074         6     0.970     0.694  15.66   0
        66     71.6146    917.4674 307.8770576  +6.3018894      1664.22     2816.905      2855.81     77.42681     155.3492     310.7601      1.877     5.62     845.8898     54.79287     250.6781        20     1.744     0.786 -35.28   0
        67     54.1974    918.0077 307.8842671  +6.3010885      2448.53     4521.685      4736.85     77.30263     155.1635     310.6674      1.982     5.26     845.9056     54.79287     315.4256        24     1.664     0.895 -33.79   0
        68    818.4631    917.9241 307.5670989  +6.3263913     806.7078     1328.274     1638.886     78.16775     155.4728      310.822      1.850     4.52     848.1299     54.79287     122.1072         8     1.037     0.566 -44.88   0
        69    197.6819    916.9865 307.8247581  +6.3062685      2003.28     3475.143     3749.403     77.55079     155.2254     310.6674      1.804     5.52     848.0076     54.79287     256.7844        23     1.718     0.897 -25.24   0
        70    231.5108    913.8992 307.8108233  +6.3086638     747.2508     1322.358     676.8487     77.92155     155.9047      310.822      1.690     5.41     848.9361     54.79287     119.7882         9     1.566     0.527 -40.26   0
        71    336.4825    913.2269 307.7672832  +6.3124172     953.5951     1806.825     2010.992     77.79816     155.2873      310.791      1.806     5.57     849.6758     54.79287     148.7285        15     1.650     0.654 -22.05   0
        72    788.3571    912.9760 307.5797590  +6.3274421     597.0292     1086.353     1400.662     77.55079     155.3492     310.6983      2.456     4.83     848.4966     54.79287      79.8363         6     0.825     0.801  24.08   2
        73    652.2596    910.8611 307.6363128  +6.3238281     5935.118      10398.4     10885.25     77.92155     155.4728     310.8838      1.851     5.15     850.6702     54.79287     742.8164        36     1.777     1.006 -31.73   0
        74     12.0197    909.7541 307.9020480  +6.3030952     862.9238     1598.643     1592.129     77.55079      155.411     310.6983      1.925     6.08     845.8669     54.79287     119.1125        11     1.658     0.626 -39.92   0
        75    442.4626    908.5221 307.7234594  +6.3178648     508.2855     660.0603     456.2681     78.16776     155.5346     310.8528      1.726     4.29     850.3284     54.79287     85.34442         5     1.206     0.435 -34.74   0
        76    890.1593    906.8940 307.5377119  +6.3333050     2264.847     4129.482     4213.481     78.04475      155.411     310.9456      1.926     5.42     846.8889     54.79287     268.1512        27     1.631     1.053 -25.50   0
        77     25.5579    907.4463 307.8965078  +6.3044972     926.1452     1407.498     1439.999     77.92155     155.4728     310.7601      1.814     6.03     845.8356     54.79287     128.4577        13     1.539     0.665 -41.31   0
