#   1 NUMBER                 Running object number                                     
#   2 X_IMAGE                Object position along x                                    [pixel]
#   3 Y_IMAGE                Object position along y                                    [pixel]
#   4 ALPHA_J2000            Right ascension of barycenter (J2000)                      [deg]
#   5 DELTA_J2000            Declination of barycenter (J2000)                          [deg]
#   6 FLUX_APER              Flux vector within fixed circular aperture(s)              [count]
#   9 FLUXERR_APER           RMS error vector for aperture flux(es)                     [count]
#  12 FLUX_RADIUS            Fraction-of-light radii                                    [pixel]
#  13 FWHM_IMAGE             FWHM assuming a gaussian core                              [pixel]
#  14 BACKGROUND             Background at centroid position                            [count]
#  15 THRESHOLD              Detection threshold above background                       [count]
#  16 FLUX_MAX               Peak flux above background                                 [count]
#  17 ISOAREA_IMAGE          Isophotal area above Analysis threshold                    [pixel**2]
#  18 A_IMAGE                Profile RMS along major axis                               [pixel]
#  19 B_IMAGE                Profile RMS along minor axis                               [pixel]
#  20 THETA_IMAGE            Position angle (CCW/x)                                     [deg]
#  21 FLAGS                  Extraction flags                                          
         1    664.0778     21.3089 307.6690307  +6.6946195     9147.511     16473.77     17340.32     80.86124     162.1083     323.6381      1.873     6.53     902.7657     57.04079     1401.217        39     1.871     0.916 -33.24   0
         2    425.5647     16.7777 307.7682851  +6.6884895     6886.677     12361.31     12822.32     80.60331     161.5937     323.3806      1.888     5.86     908.4709     57.04079     924.4768        39     1.918     0.963 -33.69   0
         3    264.5296     18.0008 307.8351517  +6.6825719      5570.98     10504.13     11922.34     80.47404     161.4003     323.4128      2.084     6.90     921.5266     57.04079     745.9542        45     2.273     0.968 -30.99   0
         4    687.6306     14.3428 307.6594785  +6.6982841     13112.45     25510.12     32888.62     80.98991     161.8512     323.5093      2.439     8.79     902.0098     57.04079     1972.557        66     2.816     0.963 -35.53  16
         5    655.6987     16.6092 307.6726702  +6.6962789     7874.705     14014.29     14792.92     80.86124     161.4648     323.4128      1.896     5.73     902.7164     57.04079     1107.169        35     1.865     0.897 -32.86   0
         6    741.3447     15.4622 307.6371222  +6.6996205     1600.795     2831.119     2809.177      81.2466     161.8512     323.6059      1.897     6.58     899.9838     57.04079     222.6658        18     1.880     0.646 -31.54   0
         7    202.7869     13.5126 307.8609561  +6.6823468     902.3841     1324.741     1174.276     80.73238     161.6581     323.5093      1.471     4.25     921.3104     57.04079     132.6539         8     1.193     0.648 -83.95   3
         8    665.0963     12.7405 307.6688956  +6.6981907     2481.385     4668.012     5411.925      80.9899     161.8512     323.7024      1.996     5.97     902.6048     57.04079     343.2825        25     1.901     0.756 -29.41   1
         9     72.0699      9.7820 307.9153916  +6.6794836     2896.503     5149.927     5477.325     80.60331     161.7225     323.5415      1.856     6.03     921.4605     57.04079     375.5172        26     1.738     0.864 -28.46  16
        10    954.0942      9.6422 307.5489166  +6.7091369     638.9662     1172.967     1334.735     81.11835     161.7868     323.7346      1.665     5.03     893.2374     57.04079     104.4122         9     1.553     0.462 -40.37  16
        11    162.6896      7.3196 307.8778249  +6.6835532     4384.154     7767.079     8267.216     80.86124     162.0441     318.2202      1.907     6.05     921.2535     57.04079     560.6888        30     1.793     0.893 -32.40  16
        12     95.0171      7.2197 307.9059444  +6.6813146     737.3985      1124.28      1387.69     80.86124     161.6581      317.434      1.714     3.39     921.8746     57.04079      154.511         7     1.134     0.584 -47.34  16
        13    789.9581      5.6476 307.6172523  +6.7052990      1073.41     2075.669     2222.744     81.11835     161.7868     303.4142      2.045     6.12     897.7822     57.04079      168.885        14     1.674     0.630 -32.26  16
        14    897.0740      3.5290 307.5728147  +6.7097554     1533.396     2911.578     3031.047     81.37466      156.221     277.3849      1.995     6.72     894.9339     57.04079     251.3689        18     1.880     0.674 -35.31  24
        15    642.8915      2.6627 307.6784607  +6.7016069     930.6231     1549.925      1227.35     81.11835     147.2316     265.0624      1.701     6.54     902.4698     57.04079     166.6487        15     1.795     0.668 -32.66  24
        16    234.2643      3.0155 307.8482324  +6.6877393     852.3102     1563.149     1855.739     80.60331     151.2087     270.1591      2.153     5.61     921.4186     57.04079     127.9114        11     1.560     0.568 -36.03  24
        17    981.8135      1.3465 307.5376766  +6.7134871     532.5016     984.4218     1096.571     69.95351     128.5837     243.5689      1.511     4.92     891.4622     57.04079     124.1177         6     1.483     0.461 -19.62  24
        18    848.1960      1.8045 307.5931824  +6.7088333     663.6096     832.0085     480.5353     75.81063     135.4452     251.1868      1.258     4.78     896.0453     57.04079     132.0834         8     1.590     0.407 -26.20  24
        19    748.5737      1.5163 307.6345870  +6.7056195     973.8584     1279.208     996.6594     72.86948     131.0698     246.5007      1.253     4.81     899.2056     57.04079     194.6537         9     1.321     0.496 -20.34  24
        20    962.5402    992.3455 307.5124893  +6.3037395     5495.425     10407.83     11074.02      81.2466     161.7868     323.5737      2.035     5.83      928.975     57.04079     584.0377        42     1.911     1.142 -32.87   0
        21    922.8264   1021.7086 307.5279951  +6.2902919      6816.29     12987.37     13873.47      81.2466      153.803     273.9479      1.997     5.54     932.7892     57.04079     747.2186        37     1.860     1.055 -30.42  24
        22    554.1851   1021.0267 307.6810688  +6.2782417     6832.213     12432.39     13253.86     80.73238      159.388     283.4371      1.917     5.89      938.503     57.04079     874.5648        35     1.914     0.879 -33.72  24
        23    311.4601   1023.8868 307.7817420  +6.2689172     515.2786     750.8954     1077.139     67.37579     125.3029     239.8211      1.871     3.92     941.1989     57.04079     140.2155         6     1.497     0.294  -4.65  24
        24    644.6265    986.9036 307.6446660  +6.2953578     689.2076     1078.797     1099.773      81.2466     161.5937     323.5093      1.736     5.69     935.7236     57.04079     105.8677        10     1.700     0.537 -35.74   0
        25    936.4573    983.9025 307.5236014  +6.3063542     1582.245     3060.796     3078.194      80.9899     161.7868     323.7989      1.895     6.07      930.455     57.04079     220.2764        24     1.867     0.926 -38.53   0
        26    795.7573    980.1381 307.5821454  +6.3032074     995.1388     1853.197     2056.062     81.11835     161.7868     323.7024      1.875     6.92     932.9873     57.04079     125.9703        18     1.831     0.843 -33.94   0
        27    657.0728    979.8491 307.6397354  +6.2986867       3954.3      7212.21      7852.94     81.11835     161.9155     323.6381      1.933     5.87     935.4207     57.04079     511.2141        28     1.809     0.871 -33.56   0
        28    269.1804    979.9423 307.8007753  +6.2856372     3800.886     6592.229     7115.033     80.73238     161.7225     323.4128      1.831     6.07     941.1452     57.04079     536.0741        25     1.749     0.807 -32.62   0
        29    479.1191    978.0681 307.7136782  +6.2934590     1052.642     1921.954      1804.25      81.2466     162.1083     323.6381      1.890     6.59     938.4577     57.04079     121.3369        16     1.607     0.757 -35.14   0
        30     37.9125    977.2821 307.8968771  +6.2789545     1921.991     3394.125     3514.243     80.86124     162.0441     323.6702      1.885     5.59     940.6085     57.04079     256.1474        23     1.762     0.847 -31.73   0
        31    888.5194    976.2676 307.5437608  +6.3079052      770.426     1403.306      1599.29      81.2466     162.1083     323.6381      2.065     6.22     931.1542     57.04079      106.332        11     1.573     0.691 -36.21   0
        32   1011.9958    973.1319 307.4925983  +6.3133217     651.9982     1282.418     1937.846     80.47404     161.4648     323.3806      3.054     5.10     925.4026     57.04079     82.43005         7     1.345     0.547 -65.83   0
        33    960.2975    973.5357 307.5140500  +6.3114297     518.5557     1073.111     1508.171     81.11835     161.9155     323.6381      1.828     3.61     928.5513     57.04079     89.17719         5     1.423     0.263 -45.58   0
        34    581.4432    972.4069 307.6713856  +6.2992260     1390.066     2370.678     2623.893     80.60332     161.5937     323.3162      1.857     6.88     936.7367     57.04079     211.1827        18     1.729     0.803 -34.63   0
        35    305.3074    973.4661 307.7859949  +6.2895245     683.5502     1023.017     533.5029     80.98991     162.0441     323.6059      1.908     6.25     940.8108     57.04079     115.6262         9     1.807     0.607 -27.53   0
        36     68.6565    970.3360 307.8843483  +6.2828572     420.1993     1187.631     1586.242      81.2466     161.7868     323.6059      2.805     4.13     940.3464     57.04079     90.91992         6     0.993     0.491 -33.40   2
        37    620.9555    968.6535 307.6551067  +6.3020991     993.4427     1759.956     1791.219     81.11835     161.8512     323.6059      1.743     5.41     935.7961     57.04079       174.63        11     1.623     0.509 -34.31   0
        38    300.7714    966.7031 307.7881059  +6.2921639     1262.131     2040.573     2074.735      81.2466     161.5937     323.6059      1.807     7.03      940.815     57.04079     167.6279        18     1.851     0.748 -45.11   0
        39    905.2552    959.1467 307.5373855  +6.3155321     5643.682      10870.9     11465.06     81.37466     161.7868     323.5737      2.060     5.99      930.168     57.04079     643.1945        43     1.977     1.089 -31.92   0
        40    768.8064    961.8258 307.5939493  +6.3098658     749.3837     998.6245     416.7162     80.60331     161.7225     323.4128      1.505     4.32     933.0615     57.04079     103.0308         7     0.891     0.597 -57.73   0
        41    441.1836    956.2734 307.7301614  +6.3011836     1837.003     3532.685     3537.259     80.60331     161.6581     323.5093      1.958     6.00     938.6656     57.04079     237.7643        22     1.651     0.862 -36.79   0
        42    610.2886    956.8160 307.6599331  +6.3066285     454.8128     694.5924     108.4224     80.86124     161.5937      323.445      1.490     7.67     935.8118     57.04079     80.77917         8     1.862     0.884 -19.95   0
        43    342.7483    954.6655 307.7710838  +6.2985431     8262.512     14603.71      15389.3     81.11835     161.7868     323.6059      1.877     5.98     940.0483     57.04079     1088.483        39     1.929     0.885 -33.40   0
        44    262.8765    953.5548 307.8042818  +6.2963182     6099.417     10655.52     11193.17      80.9899     161.9155     323.6381      1.865     5.66     940.7527     57.04079     873.0097        31     1.847     0.843 -35.38   0
        45    775.2304    947.0681 307.5917770  +6.3161729     551.9699     1056.551      643.897      80.9899     161.8512     323.5737      1.709     6.13     932.6375     57.04079     86.07483         7     1.546     0.683 -54.06   0
        46    591.3727    947.5588 307.6680978  +6.3098164     915.1193     1777.331     2047.978     80.73238     161.7225      323.445      1.980     5.50     936.0933     57.04079     151.3795        11     1.656     0.514 -39.20   0
        47    920.4249    944.4019 307.5315807  +6.3221256     935.6748     1338.982     1829.255     80.73238     161.5292     323.4128      1.897     5.29     929.1711     57.04079     122.4515        11     1.267     0.622 -49.49   0
        48    877.1620    943.3549 307.5495789  +6.3211128     602.2103     1135.268     1625.146     80.86124     161.7868     323.5093      2.066     2.63     930.1406     57.04079     123.4711         5     0.740     0.430  20.31   0
        49    757.2306    937.3683 307.5995759  +6.3195752     1275.266      2520.14     2292.792     80.60332     161.5937     323.3484      2.056     6.94     932.8409     57.04079     209.1608        18     1.786     0.761 -25.89   0
        50    849.8026    938.5027 307.5611014  +6.3222018     501.6105     602.2327      93.6416     80.73238     161.5937      323.284      1.287     4.22     930.6637     57.04079     83.07654         6     1.022     0.498  -2.91   0
        51    582.5288    937.7839 307.6720981  +6.3135553     639.0419     1027.086     785.2436     80.60331     161.7868     323.5093      1.756     4.88     936.0886     57.04079     90.84412         5     0.960     0.703 -64.84   2
        52      7.4238    934.5098 307.9109795  +6.2955837     812.5734     1423.484     1463.096     81.11835     161.6581     318.8412      1.951     5.88     939.8387     57.04079     130.1694         9     1.512     0.643 -43.56  16
        53    988.8395    933.0702 307.5035535  +6.3290875     1135.133     1965.303     2335.033      80.9899     161.8512     323.6702      1.808     5.88     925.8983     57.04079     150.5395        17     1.553     0.787 -28.18   0
        54    621.8967    933.5169 307.6558961  +6.3166355      678.192     1015.827     511.1135     81.11835     162.2367     323.6702      1.667     5.65     935.2561     57.04079     107.8132         8     1.446     0.622 -26.24   0
        55    542.4111    932.9037 307.6889189  +6.3142255     1063.247       1894.5     2933.504     80.86124     161.5292     323.4128      2.269     6.02      936.791     57.04079     159.2943        13     1.650     0.618 -30.34   0
        56    676.0128    930.6438 307.6335235  +6.3196336     2130.508     3986.407     4121.363     80.60331     161.7225     323.3484      1.983     6.07     934.1152     57.04079      303.601        24     1.847     0.822 -28.34   0
        57    836.0396    927.7584 307.5671760  +6.3261773     596.8646     932.8339     1089.473     80.86124     161.9155     323.4771      1.593     3.99     930.6893     57.04079     104.0219         6     0.936     0.486 -37.53   0
        58     72.5762    926.6336 307.8841968  +6.3010295     2481.008     4637.421     4764.386     80.60332     161.6581     323.3806      1.956     6.24     939.6819     57.04079     324.4006        24     1.766     0.809 -32.71   0
        59    216.0352    925.5641 307.8246728  +6.3062983     1883.065      3469.35     3405.887     80.86124     161.5937     323.3484      1.854     5.91     940.1047     57.04079     265.6862        22     1.799     0.816 -32.62   0
        60     90.1988    925.7753 307.8769095  +6.3019771     1703.701     3017.156      3170.09     80.73238     161.5292     323.3806      1.852     7.06     939.6855     57.04079      249.351        21     1.777     0.786 -38.38   0
        61    954.2129    925.8539 307.5181726  +6.3309108     623.8295     1364.341     1308.532     80.47404     161.7868     323.3484      2.104     6.59     927.1475     57.04079     110.0674         8     1.531     0.796 -21.88   0
        62    248.3690    922.8165 307.8113411  +6.3085196     541.4587     838.3927     802.7802     80.73238     161.5937     323.5415      1.594     4.30     940.2454     57.04079     87.10315         6     1.230     0.428 -58.75   0
        63    670.5323    919.7224 307.6361656  +6.3239587     5988.326     10687.63     11069.99      81.2466     161.9155     323.5737      1.916     6.12     933.8578     57.04079     826.2628        35     1.846     0.903 -32.10   0
        64    807.8629    920.5006 307.5791186  +6.3282316     733.4978     1183.998     931.7028     80.86124     161.9155     323.6381      1.626     5.68     931.2418     57.04079     100.0193        10     1.642     0.553 -32.03   0
        65    355.4679    921.0254 307.7669357  +6.3128572     781.5342     1106.105     897.0626     80.73238     161.7225     323.5093      1.418     4.12     939.6899     57.04079     128.9642         6     1.294     0.374 -22.05   0
        66    908.3597    916.0359 307.5375404  +6.3334328     2402.605     4315.988     4543.785     80.86124     161.8512      323.445      1.858     5.71     928.4716     57.04079     344.7781        23     1.791     0.798 -36.60   0
        67     30.7613    917.6924 307.9018589  +6.3033121     939.7929     1346.519     1696.403      81.2466     161.7868     323.6702      1.721     4.63     939.4243     57.04079     158.4166         9     1.348     0.452 -22.86   0
        68     43.3094    916.5884 307.8966867  +6.3041905     944.3028     1627.654     1787.857     80.86124     161.5292     323.4128      1.840     5.97     939.4438     57.04079     147.6161        13     1.724     0.582 -25.66   0
        69    353.5107    912.8614 307.7680233  +6.3161616     14354.61     25008.94     26547.67     81.11835     161.9798     323.6702      1.858     6.09     939.6541     57.04079     2016.461        45     1.902     0.933 -33.73   0
        70     88.3420    913.6014 307.8780914  +6.3069400     1152.863      2216.33     2639.846     80.47404     161.4648     323.3162      2.038     6.19     939.5903     57.04079      197.901        16     1.807     0.613 -37.77   0
        71    224.2515    912.6135 307.8216982  +6.3119205     1143.763     1940.851     2416.943     80.47404     161.7868     323.3484      1.833     5.57     939.9697     57.04079     172.9602        13     1.504     0.597 -29.05   0
        72    683.0594    904.8628 307.6314631  +6.3305123     734.8772     1090.292     1306.977     81.11835     161.7868     323.6381      1.795     4.97     933.1452     57.04079      123.438         8     1.260     0.628 -31.58   0
        73    430.9539    903.7784 307.7361751  +6.3225108     1006.475      1539.24     1594.665     80.73238     161.8512      323.445      1.585     4.51     938.3257     57.04079     181.0743        10     1.410     0.588 -32.43   0
        74    116.9174    903.4141 307.8665715  +6.3121073      1418.13     2716.389     2952.367     80.73238     161.5937     323.4128      1.910     6.49     939.6682     57.04079     211.3845        16     1.899     0.622 -37.03   0
        75    684.9645    900.0486 307.6308337  +6.3325635     788.7631     1468.864     1963.804     80.86124     161.9155     323.5737      2.097     6.04     932.9404     57.04079     109.4797        12     1.735     0.591 -26.07   0
        76    511.9948    900.1747 307.7026480  +6.3267168     542.6063     933.3278     987.8726     80.60331     161.6581      323.445      1.657     3.93     936.6549     57.04079     84.76697         6     0.947     0.466 -34.79   0
        77    898.6295    897.7201 307.5421940  +6.3406690     1619.878     2922.906     3158.789      80.9899     161.8512     323.5737      1.888     6.53     928.2524     57.04079     213.1295        21     1.826     0.789 -42.67   0
