#   1 NUMBER                 Running object number                                     
#   2 X_IMAGE                Object position along x                                    [pixel]
#   3 Y_IMAGE                Object position along y                                    [pixel]
#   4 ALPHA_J2000            Right ascension of barycenter (J2000)                      [deg]
#   5 DELTA_J2000            Declination of barycenter (J2000)                          [deg]
#   6 FLUX_APER              Flux vector within fixed circular aperture(s)              [count]
#   9 FLUXERR_APER           RMS error vector for aperture flux(es)                     [count]
#  12 FLUX_RADIUS            Fraction-of-light radii                                    [pixel]
#  13 FWHM_IMAGE             FWHM assuming a gaussian core                              [pixel]
#  14 BACKGROUND             Background at centroid position                            [count]
#  15 THRESHOLD              Detection threshold above background                       [count]
#  16 FLUX_MAX               Peak flux above background                                 [count]
#  17 ISOAREA_IMAGE          Isophotal area above Analysis threshold                    [pixel**2]
#  18 A_IMAGE                Profile RMS along major axis                               [pixel]
#  19 B_IMAGE                Profile RMS along minor axis                               [pixel]
#  20 THETA_IMAGE            Position angle (CCW/x)                                     [deg]
#  21 FLAGS                  Extraction flags                                          
         1    769.3934     41.8627 307.6197411  +6.6712329     1961.985     2894.248     3639.839     80.79512     162.3031     324.6708      1.595     3.09      903.926     57.26839     337.2692        18     1.289     0.796 -41.77   0
         2    264.8574     19.5360 307.8301483  +6.6635377     8725.871     13989.26     15594.05     81.57077     162.4324     324.9294      1.780     3.66     925.0602     57.26839     1184.395        43     1.684     1.103 -43.57   2
         3      5.8791     21.8606 307.9376787  +6.6538622     1162.423     2140.954      2257.66     81.57077      162.497     307.0611      2.074     7.60     929.1095     57.26839     169.1292        17     1.869     0.865 -42.56  16
         4    625.0880     17.1928 307.6805386  +6.6765898     3110.663     5330.337     6523.548     80.92491     162.1737     324.6385      2.007     3.59     907.3605     57.26839      449.028        31     1.534     1.178 -50.75   2
         5    444.2891     19.1224 307.7556030  +6.6697335     21229.54     34607.55     36681.53     81.18388     162.7551     325.0262      1.722     3.71     910.0306     57.26839     2715.671        57     1.692     1.175 -40.49   0
         6    252.8755     16.1592 307.8352414  +6.6645291     2783.621     4691.322     4874.131     81.31304      162.497     324.9294      1.751     4.30     925.0007     57.26839     387.4427        26     1.528     0.981 -34.14   0
         7    305.7679     14.2963 307.8133263  +6.6670756     882.3793     1425.688     1241.743     81.57078     162.3678     324.9939      1.647     5.92     923.0714     57.26839      129.986        10     1.504     0.690 -36.53   0
         8    942.8499      9.5422 307.5487480  +6.6903711     1097.007     1606.684     1212.647     81.44201      162.497     324.9294      1.525     4.34     898.2496     57.26839     167.9967        11     1.133     0.724 -48.82   0
         9    694.0213      8.8766 307.6521737  +6.6823307     1611.382     2522.409     2399.062      81.0545     162.3031     324.8324      1.570     3.76     905.1677     57.26839     261.1978        16     1.291     0.796 -31.84   0
        10     98.8159      9.1701 307.8994932  +6.6622318     579.3207     869.2198     744.4224      81.0545     162.2384     324.8324      1.510     4.48     926.0276     57.26839     80.88715         6     1.206     0.474 -28.54   0
        11    182.0995      2.1195 307.8651262  +6.6679454     9369.501     12969.93     13217.74     79.22104     140.9873     257.3792      1.477     4.11     924.6295     57.26839     1296.229        30     1.518     0.898 -23.69  24
        12    259.5692      3.4035 307.8328920  +6.6700202       784.77     1189.226      1270.76     80.92492     155.5678     276.6768      1.651     5.25     924.9496     57.26839      118.748         7     0.998     0.781  -5.95  16
        13    926.9666      1.1493 307.5556309  +6.6933061     702.3082     964.5547     932.5642     67.79958     126.0529      241.257      1.149     2.96     898.9921     57.26839       208.13         5     1.005     0.322  -9.28  24
        14    525.6923      1.2328 307.7223810  +6.6798491      997.197     1243.834     1219.128     69.63233     127.4604     242.9908      1.144     3.06     907.5465     57.26839     254.8688         8     1.187     0.414  -4.46  24
        15    719.8798    995.7489 307.6081890  +6.2757428     2944.029     4415.573     4770.778     81.44201     162.5615      324.897      1.584     4.12     938.4932     57.26839     413.2051        21     1.490     0.826 -29.45   2
        16    585.8184   1018.9263 307.6630734  +6.2616891     162526.8     244698.3       256379     80.92491     162.4324     308.8672      1.573     3.55     942.3596     57.26839     25848.27        95     1.731     1.070 -38.77  19
        17    587.5378   1011.7646 307.6626008  +6.2647035        75666       114583     122917.3     81.31305      162.497     324.8647      1.638     3.64      942.184     57.26839      10780.9        78     1.750     1.084 -39.18   3
        18    402.8600   1022.4572 307.7389199  +6.2541020     740.1905      1190.38     1226.232     81.57077     146.1769     264.0215      1.814     4.88     943.4983     57.26839     123.8763         7     1.014     0.741 -89.40  24
        19    219.6839   1021.7659 307.8149971  +6.2482399     3951.455     5800.225     6197.385     81.44201     154.0764     274.5444      1.547     3.60     945.5739     57.26839     594.2219        27     1.496     0.878 -42.80  24
        20    244.4277    997.8762 307.8055315  +6.2589341     1432.469     2220.551      2280.87     81.31304      162.497     324.8647      1.555     4.35     945.3674     57.26839     245.6451        16     1.541     0.635 -42.29   0
        21    442.9675    996.8235 307.7231322  +6.2660299     845.1895     1337.541     1431.895     80.92491     162.3678     324.7032      1.643     4.52     943.2326     57.26839     154.2831        10     1.323     0.612 -76.12   0
        22    735.3036    994.9711 307.6018108  +6.2765795     1079.293     1614.638     1624.034     81.57077     162.2384      324.897      1.650     6.29      938.326     57.26839     146.7911        12     1.302     0.855 -35.33   0
        23    366.4589    993.1561 307.7550232  +6.2649786     1936.269     2933.802     3059.351     81.31304     162.4324     324.9616      1.524     4.12     944.0134     57.26839     277.8835        17     1.348     0.780 -43.50   0
        24    519.1564    984.7169 307.6919058  +6.2735812     1050.012     1672.203     1647.091     81.44201      162.497     324.8647      1.746     4.13     942.1721     57.26839      160.576        14     1.363     0.747 -45.35   0
        25    299.1581    982.1368 307.7833393  +6.2672698     15210.61     23192.82     25297.54     81.44201     162.4324     324.9616      1.630     3.86     945.1135     57.26839     2459.653        57     1.977     0.997 -38.93   0
        26    753.3693    982.9293 307.5947145  +6.2821550     8132.868     12309.22     13193.95     81.31304      162.497     324.8647      1.590     3.79     937.9849     57.26839     1239.199        35     1.515     0.969 -41.68   0
        27    591.8378    984.9881 307.6617177  +6.2759027     478.2085     554.0066     661.2597     80.92491     162.3031     324.5739      1.107     3.85     941.4545     57.26839     76.55774         5     0.826     0.515 -31.99   0
        28    548.7674    983.5008 307.6796517  +6.2750749     4423.284     6510.458     7226.463     81.44201     162.3678     325.0585      1.576     3.50     941.6608     57.26839     674.0657        27     1.501     0.866 -44.02   0
        29    814.5278    982.5571 307.5693319  +6.2843518     1258.056     1806.644     2489.747     81.31305      162.497     324.9294      1.686     4.11     937.5026     57.26839     226.2828        14     1.294     0.734 -52.40   0
        30    422.9888    982.8868 307.7318980  +6.2711142     941.5798     1403.105     1051.807      81.0545     162.2384     324.7355      1.612     5.24     943.2311     57.26839      148.218        13     1.292     0.816 -24.07   0
        31    270.2804    979.8732 307.7954060  +6.2672350     890.0513     1476.169     1094.943     81.69933     162.7551     324.9294      1.488     4.34     945.2518     57.26839     161.5501         7     1.223     0.439 -42.85   0
        32    914.6873    976.3696 307.5279498  +6.2902499     9299.237     13789.98     14360.26     81.57078     162.3031     324.8001      1.584     3.50     934.0239     57.26839     1411.757        33     1.516     0.954 -44.09   0
        33    546.0609    975.6683 307.6810395  +6.2782181     8533.727     12755.62     13833.53     81.57077     162.4324      324.897      1.550     3.55     941.5583     57.26839     1277.997        33     1.515     0.929 -43.20   0
        34    888.2789    972.5592 307.5390436  +6.2909420     12919.52     19525.11     20891.92     81.31305      162.497      324.897      1.628     3.58     935.1486     57.26839     1843.323        45     1.635     1.063 -39.48   0
        35   1010.0708    971.9323 307.4884913  +6.2952630     4990.619     7765.457     8320.138     81.44201     162.6261     324.8647      1.612     3.64     931.6776     57.26839     662.8478        28     1.515     0.972 -41.74   0
        36    601.1450    972.9622 307.6582583  +6.2811794     1409.533      2101.94     2614.773     81.44201     162.5615     324.9294      1.520     4.16     941.0507     57.26839     234.1954        16     1.370     0.798 -43.18   0
        37    532.4860    971.5413 307.6868153  +6.2794674     4352.042     6789.256     7431.314     81.44202      162.497     325.0262      1.762     3.79     941.7164     57.26839     701.8401        32     1.679     1.070 -24.02   0
        38    642.0136    970.7692 307.6413623  +6.2834523     1526.918     2005.953     1812.906      81.0545     162.2384     324.8324      1.368     3.77     939.7751     57.26839     270.6157        12     1.237     0.632 -39.78   0
        39     67.4261    969.8989 307.8799689  +6.2645353     992.4836     1355.292     1577.181     81.57077     162.2384     324.8324      1.317     3.97     944.2808     57.26839     169.4625        11     1.230     0.640 -42.64   0
        40    485.6430    967.9585 307.7063865  +6.2793775     2463.007     3698.743     3319.404     81.18388      162.497     324.7678      1.478     4.01     942.3566     57.26839     385.3582        18     1.464     0.742 -48.06   0
        41    920.1116    960.0873 307.5262442  +6.2971536     45573.65      69309.2     72826.69     81.18388     163.0128     324.9939      1.593     3.67     933.3496     57.26839     7006.109        66     1.660     1.095 -38.93   0
        42    325.3834    961.3118 307.7731539  +6.2767479     562.2429     936.7884     360.6313     81.18388     162.2384     324.7678      1.637     5.38     944.5884     57.26839     74.00098         7     1.309     0.624 -43.77   0
        43    227.1823    958.5091 307.8140231  +6.2746080     1659.344     2688.797     2728.111     81.18388     162.2384     324.8001      1.734     3.89     944.9523     57.26839     243.4448        16     1.305     0.812 -50.92   0
        44    625.9506    956.7531 307.6485043  +6.2887018     847.0992     1149.609     1123.441     81.44201     162.3678     324.9294      1.272     3.30     939.9631     57.26839      158.887         8     1.121     0.467 -22.19   0
        45    115.4101    956.8591 307.8604876  +6.2715327     581.1068     748.0276      701.268     80.79512     162.3678     324.6062      1.551     4.91     944.3538     57.26839     91.30768         6     1.179     0.579 -57.79   0
        46    818.0106    953.9440 307.5688478  +6.2962818     2300.279      3547.54      3892.95     80.79512     162.4324     324.5739      1.601     3.88      936.054     57.26839      333.882        21     1.431     0.828 -41.37   0
        47    766.1655    951.7228 307.5904509  +6.2954670     6997.375     10574.79        11616     81.31304     162.5615     324.8647      1.592     3.74     936.9389     57.26839     1035.228        32     1.520     0.926 -39.74   0
        48    552.9979    951.1075 307.6789871  +6.2885908     1037.525     1651.698     1728.511     80.79512     162.1737     324.6062      1.619     3.62     941.0863     57.26839     164.5518         8     0.967     0.564 -62.43   0
        49    235.6788    950.7628 307.8107572  +6.2780916     1535.233     1949.801     1836.034     81.31305     162.5615      324.897      1.435     3.75     944.9125     57.26839     229.5901        13     1.179     0.741 -41.99   0
        50    199.8332    950.4965 307.8256498  +6.2769973     762.4155     1343.447     1312.633     81.57078     162.3678     324.9939      1.858     5.41      944.787     57.26839     113.0917        10     1.136     0.727 -56.10   0
        51     60.4157    948.8789 307.8835916  +6.2729777     2829.068     4477.094     4661.518      81.0545     162.2384     324.7355      1.662     3.54     944.1799     57.26839     428.6879        20     1.306     0.865 -40.39   0
        52    954.4630    946.8121 307.5124257  +6.3037805     6969.387     10560.34     10878.77     80.92491     162.3031     324.6708      1.621     3.73     931.8333     57.26839     973.8119        30     1.512     0.940 -41.40   0
        53    210.6164    943.1182 307.8214221  +6.2804058     806.4837     1037.066      1064.42      81.0545     162.1737     324.7678      1.352     3.14     944.7505     57.26839     137.1663         7     0.742     0.642 -58.46   0
        54    928.2260    938.6437 307.5235950  +6.3062779     1946.064     3053.445     3207.101      81.0545     162.5615     324.8001      1.668     3.66     932.5448     57.26839      314.238        18     1.383     0.867 -46.47   0
        55    636.7546    941.0591 307.6445468  +6.2955429     811.6346     1060.868      699.019     81.31304      162.497     324.9939      1.344     4.24      939.274     57.26839     136.9995         8     1.103     0.464 -36.25   0
        56    648.9416    934.4345 307.6397094  +6.2986857     4796.737     6839.877     7049.888     81.31304      162.497     324.8647      1.485     3.47     938.8507     57.26839      790.626        25     1.373     0.870 -40.15   0
        57    261.0637    934.6675 307.8007612  +6.2855892     4421.526     6529.867     6901.558     81.44201      162.497     324.9616      1.572     3.79      944.938     57.26839     656.9705        24     1.414     0.867 -45.15   0
        58    998.1917    934.7542 307.4946719  +6.3102172     601.0316     952.5944     1243.482     80.92491     162.3678     324.5415      1.406     3.66     929.5317     57.26839     107.4114         5     0.940     0.411 -46.22   0
        59    787.6619    934.8547 307.5820920  +6.3031497     1237.518     1764.907     2289.139     81.57077     162.4324     324.8647      1.522     4.39     935.8431     57.26839     203.2575        15     1.481     0.658 -22.72   0
        60    471.1758    932.8391 307.7135786  +6.2933925     1009.323     1575.328     1456.729      81.0545     162.3031     324.7032      1.634     4.25     941.8129     57.26839     167.5039         8     1.074     0.479 -37.71   0
        61     29.8917    932.1763 307.8968312  +6.2788463     2231.823     3363.528     3319.455     81.44201     162.3031     324.7355      1.545     3.55     944.0983     57.26839     347.5653        18     1.313     0.795 -42.42   0
        62    880.5042    931.0037 307.5436684  +6.3078399     892.4163     1251.933     752.8564     81.18388     162.1737     324.5739      1.423     5.16     933.4901     57.26839     164.1382         9     1.261     0.608 -50.48   0
        63    972.6168    929.2921 307.5054755  +6.3116196     766.7722     1285.227     1326.631     81.18388     162.3031     324.8001      1.485     4.40      930.283     57.26839      127.548         8     1.276     0.506 -49.16   0
        64   1004.6322    927.1478 307.4922527  +6.3135724     983.5036     1693.582     2159.886     81.31304      162.497     324.8001      1.972     6.08     928.7474     57.26839     171.2909        11     1.355     0.767 -46.85   0
        65    952.0981    927.9194 307.5140421  +6.3115021     882.3857     1466.629     1575.236     81.31304     162.8196     324.9616      1.723     4.55     931.1948     57.26839     128.9937         7     1.151     0.511 -49.92   0
        66    573.5359    927.0801 307.6712689  +6.2991987     1863.612     2653.545     2873.868     81.69933     162.5615     324.8647      1.508     3.99     940.2527     57.26839      277.547        19     1.468     0.773 -37.10   0
        67    297.1131    927.9951 307.7860182  +6.2895543     953.8788     1246.426     1386.407     80.92491     162.1737     324.5739      1.387     5.06     944.9716     57.26839     132.9435        10     1.189     0.616 -22.98   0
        68    612.7521    923.4144 307.6551081  +6.3020248     1324.165     1787.527     1753.643     80.79512     162.4324     324.6062      1.476     4.46     939.3912     57.26839     228.9111        11     1.283     0.630 -37.34   0
        69     62.6960    923.9335 307.8834899  +6.2833532     733.2797     1094.589      1082.44     81.44201     162.5615     324.9294      1.469     4.22     943.9946     57.26839     114.9307         7     0.917     0.554 -58.83   0
        70     57.8223    922.4691 307.8855631  +6.2837939     537.8101     1014.487     988.3632      81.0545     162.4324     324.8647      1.857     4.93     943.9675     57.26839     94.27283         6     1.341     0.512 -41.41   0
        71    292.6339    921.0458 307.7881130  +6.2922731     1388.362     2091.969     1976.333      81.0545     162.4324     324.8001      1.592     4.57     944.9809     57.26839     198.5049        15     1.328     0.728 -48.40   0
        72    560.1862    919.2896 307.6770749  +6.3019682     571.9479     776.0069     457.9956     81.18388     162.3031     324.7678      1.468     4.67     940.3801     57.26839     101.4579         6     1.123     0.551 -67.56   0
        73    759.6557    917.2004 307.5943155  +6.3095030     991.5017     1399.803     1464.516     80.66512     162.2384     324.5739      1.361     3.53     936.0481     57.26839     205.5101        10     1.105     0.607 -53.44   0
        74    897.1111    913.7400 307.5373523  +6.3155220     7349.021     11131.18     11787.72     81.31304     162.6261     324.9939      1.569     3.52     932.4037     57.26839     1190.063        31     1.559     0.898 -37.89   0
        75    135.7102    915.4206 307.8534616  +6.2893236     639.1188     777.1763     714.9819     81.31305     162.2384     324.7355      1.279     3.49     944.3029     57.26839     96.43823         5     0.762     0.461 -16.90   0
        76    433.2865    910.6837 307.7300593  +6.3012698     2181.369     3401.616     3818.941     81.18388     162.6906     324.9294      1.669     3.81     942.3252     57.26839     385.8458        20     1.361     0.927 -39.67   0
        77    334.6727    909.2678 307.7710552  +6.2985468     9695.367     14515.73     15130.43     81.57078     162.6261      324.897      1.581     3.58     943.9399     57.26839     1504.885        35     1.566     0.922 -43.47   0
