#   1 NUMBER                 Running object number                                     
#   2 X_IMAGE                Object position along x                                    [pixel]
#   3 Y_IMAGE                Object position along y                                    [pixel]
#   4 ALPHA_J2000            Right ascension of barycenter (J2000)                      [deg]
#   5 DELTA_J2000            Declination of barycenter (J2000)                          [deg]
#   6 FLUX_APER              Flux vector within fixed circular aperture(s)              [count]
#   9 FLUXERR_APER           RMS error vector for aperture flux(es)                     [count]
#  12 FLUX_RADIUS            Fraction-of-light radii                                    [pixel]
#  13 FWHM_IMAGE             FWHM assuming a gaussian core                              [pixel]
#  14 BACKGROUND             Background at centroid position                            [count]
#  15 THRESHOLD              Detection threshold above background                       [count]
#  16 FLUX_MAX               Peak flux above background                                 [count]
#  17 ISOAREA_IMAGE          Isophotal area above Analysis threshold                    [pixel**2]
#  18 A_IMAGE                Profile RMS along major axis                               [pixel]
#  19 B_IMAGE                Profile RMS along minor axis                               [pixel]
#  20 THETA_IMAGE            Position angle (CCW/x)                                     [deg]
#  21 FLAGS                  Extraction flags                                          
         1    680.8564     24.7929 307.6504220  +6.6519026     1598.133     3749.277     4100.123     90.83334      182.248     364.3872      2.356     7.30     1167.564     64.28031     189.7628        30     1.747     1.363  65.98   0
         2      2.1641     17.2222 307.9332072  +6.6322260     2960.956     6473.154     10895.39     89.06941     158.3333     289.5783      4.092    10.40     1202.596     64.28031     451.2932        67     3.890     1.410 -89.52  24
         3    422.9843     15.8031 307.7580774  +6.6469694     1620.951     5343.509     6344.687     90.97879     181.9576      364.496      2.787     8.38     1175.923     64.28031     238.6992        48     1.986     1.800  37.60   0
         4    895.1072     10.9177 307.5616946  +6.6647971     2377.628     5307.407     5813.288     91.12401     182.7552     364.7861      2.290     5.69     1160.347     64.28031     299.1415        38     1.743     1.453  75.94  16
         5    877.2354     11.8662 307.5691031  +6.6638084     1299.313     2654.593     3085.783     91.26899     182.3931     364.7498      2.253     7.75     1160.365     64.28031     174.9857        20     1.479     1.179   1.23   0
         6    588.9555     11.2759 307.6891370  +6.6544057     691.4696     1640.037     2298.047     91.26899     182.4655     364.7136      2.468     6.40      1168.52     64.28031     110.3979         9     1.446     0.796 -67.01   2
         7    385.7463      9.7577 307.7737839  +6.6482154     803.9576     1750.753     2407.124     91.41375     182.3931     364.6773      2.138     4.42     1180.768     64.28031     105.8391         7     1.246     0.445  30.27   0
         8    134.4499      4.7106 307.8785656  +6.6418491     1540.437     4254.676     5130.244     91.41375     182.1754      330.118      2.626     8.14     1191.657     64.28031     194.0442        35     1.754     1.564 -81.96  24
         9     16.3204      3.3031 307.9277873  +6.6384504     5771.264     14452.26     15857.06     91.12401     173.8566     309.1449      2.375     6.44     1201.198     64.28031     586.4869        52     1.892     1.609 -16.41  24
        10    282.4100      3.1835 307.8170243  +6.6474577     540.8434     1585.013     1249.213     91.12401     172.0216     306.9128      2.050     3.45     1192.378     64.28031     81.47217         5     1.228     0.281 -35.15  16
        11    822.6436    998.2607 307.5586163  +6.2546718     2610.083     4541.986     4745.657     91.41375     182.3931     364.8224      1.869     4.60     1224.115     64.28031     280.8716        24     1.469     1.030  79.93   0
        12    999.5968   1023.7507 307.4841496  +6.2500528     1289.603     1350.311     1106.486     77.81902     143.0667     272.3058      1.019     2.79     1222.783     64.28031     322.1924         6     0.872     0.428   4.59  24
        13    880.0097   1021.3772 307.5339755  +6.2470422     1484.449     2495.507     2595.216     90.97878     176.7977     313.9407      1.738     5.19     1223.418     64.28031     208.3706        18     1.387     1.036  74.34  24
        14    662.8796   1023.6519 307.6242197  +6.2388452     577.2418     824.3356     930.8339     79.99736     145.2678     274.6267      1.685     3.95     1225.825     64.28031     89.39368         6     1.045     0.428 -12.72  24
        15    210.5308   1022.8102 307.8124060  +6.2240233     1836.908     2861.292     2639.047     89.21774     158.9167     290.1258      1.639     4.10     1224.241     64.28031     266.6718        16     1.220     0.943  30.77  24
        16    142.4100   1023.0558 307.8407319  +6.2216317     2786.238     4136.415     4502.524     86.66169     155.0422     285.5783      1.562     4.08     1224.691     64.28031     350.4165        18     1.325     0.897  10.76  24
        17      9.5666   1022.9487 307.8959896  +6.2172055     985.7596     1531.306     1345.976     88.62295     157.0756     287.7002      1.839     3.94     1224.694     64.28031     148.3037         9     1.153     0.719  17.63  24
        18    743.2455    996.5441 307.5917025  +6.2527269     1273.552     2304.109     2033.395     91.41375     182.3931     364.6773      1.878     6.61     1224.588     64.28031     145.2074        15     1.380     0.889 -37.74   0
        19    806.4178    995.9595 307.5654434  +6.2550799     828.5741     1340.844     1153.391     90.97878     182.1754     364.4597      1.785     4.50     1224.417     64.28031     131.5789         7     1.230     0.468  52.44   0
        20    566.6187    993.8166 307.6652675  +6.2479424     2059.071     4485.125     4959.591     91.12401     182.1028     364.6048      2.182     5.83     1225.541     64.28031     226.6073        30     1.507     1.387 -88.93   0
        21    273.1877    984.7878 307.7876303  +6.2418285     704.4888      1365.79     1522.191     91.26899     182.0302     364.6048      1.730     3.72     1224.606     64.28031     106.3551         5     1.012     0.393 -30.95   2
        22    270.5615    983.2524 307.7887747  +6.2423743     843.1024     1294.754     1226.509     91.12401     182.4655     364.6773      1.594     4.52      1224.58     64.28031     121.4293         6     1.105     0.525   4.25   2
        23    695.6143    981.5656 307.6120208  +6.2573190     3291.657     6566.929     7134.611     90.97879     182.1028     364.5323      2.099     4.75     1223.719     64.28031     343.0792        37     1.592     1.405  66.39   0
        24    891.1498    980.9234 307.5307015  +6.2641189     627.7405     711.1232    -106.1829     91.26899     182.4655     364.6773      1.371     4.35     1221.508     64.28031     87.29858         5     1.057     0.510  51.73   0
        25    605.5599    980.1180 307.6495307  +6.2549030     1319.385     2476.038     2191.781     91.41375     182.4655     364.6048      1.922     6.27     1224.738     64.28031     169.4054        16     1.330     0.992 -86.65   0
        26    225.9618    978.9456 307.8074721  +6.2426542     825.6295     1707.629     1971.745     91.41375     182.4655     364.6773      2.114     7.20     1224.144     64.28031     118.4456        12     1.633     0.889  42.41   0
        27     61.5472    971.3286 307.8761191  +6.2402698     5671.013     11087.11     11592.68     91.26899     182.3205     364.6411      2.039     4.62     1223.097     64.28031     646.8837        40     1.696     1.332  66.29   0
        28    790.7471    970.4766 307.5728199  +6.2650789     11088.04     20516.55     21880.43     91.55827     182.3931     364.6773      1.962     4.43     1222.533     64.28031     1123.858        47     1.608     1.361  71.75   0
        29    574.2296    961.5372 307.6631903  +6.2615263       110806     229702.7     254060.2     91.12401     182.3931     364.6048      2.179     4.74     1224.261     64.28031      11162.1       116     1.903     1.687  67.76   3
        30    575.7993    954.4062 307.6627778  +6.2645235     50147.79     106450.1     118155.8     90.68765     182.0302     364.4597      2.179     4.97     1223.938     64.28031     5057.516        82     1.834     1.600  47.64   3
        31    208.2745    964.6222 307.8153142  +6.2479741     2624.495     5436.607     6418.119     90.97879      182.248     364.6048      2.283     5.26     1224.039     64.28031      286.746        35     1.644     1.362  74.56   0
        32    750.0909    963.5360 307.5899663  +6.2665858     790.4917      1188.13     859.9022     91.41375     182.6104     364.7498      1.750     5.72     1222.259     64.28031     108.0631         9     1.263     0.729  32.11   0
        33    785.0723    958.3289 307.5755895  +6.2699053     5219.489     9716.407     10214.08     91.70258      182.538     364.6048      1.977     4.48     1221.639     64.28031     540.3986        34     1.514     1.301  66.64   0
        34    882.7327    955.2738 307.5350655  +6.2744294     1416.938     2280.744     2339.196     91.55827      182.538     364.6411      1.818     6.13     1220.713     64.28031     168.9867        17     1.527     0.981 -72.29   0
        35    205.6751    953.9008 307.8167583  +6.2523138     1397.754     3110.364     3309.752     90.83334      182.538     364.5685      2.193     6.35     1223.983     64.28031      185.615        23     1.411     1.343 -59.02   0
        36    423.9294    951.0367 307.7260672  +6.2608247     2775.103     5842.527     7426.355     91.26899     182.4655     364.7498      2.346     5.71     1224.553     64.28031     307.5852        35     1.751     1.351  55.57   0
        37    565.3672    950.0210 307.6672654  +6.2659849     2837.522     6310.029     7942.143     90.83334     182.1754      364.496      2.471     5.48     1223.865     64.28031      291.656        39     1.699     1.487  61.70   1
        38    740.8766    945.7402 307.5943987  +6.2736262      837.665     1831.672     2448.499     91.55827     182.4655     364.6411      2.459     5.37     1221.053     64.28031     104.9609         9     1.133     0.719  82.58   2
        39    948.3519    940.1762 307.5082751  +6.2828541     5861.547     10007.63     10400.77     90.97879     182.3931     364.5685      1.824     3.89     1218.836     64.28031     690.7832        36     1.506     1.201  60.06   0
        40    234.0050    941.2020 307.8054038  +6.2585094     836.6136     1655.539      1891.19     90.68765     181.9576     364.4235      1.894     5.92     1224.172     64.28031     100.7002        10     1.352     0.730 -63.44   0
        41    708.2006    938.2736 307.6082434  +6.2756166     1965.332     4034.067     5717.092     90.54174     181.6667      364.496      2.877     6.31     1221.118     64.28031     201.5258        29     1.593     1.370 -54.57   2
        42    709.0698    950.7639 307.6074610  +6.2704880     5311.797     10857.68     12886.49     91.26899     182.4655     364.7498      2.181     4.70     1221.857     64.28031      568.675        43     1.573     1.518  61.99   0
        43    724.0684    937.3043 307.6016750  +6.2765475     761.9569     1282.866     737.8905     91.26899      182.538     364.7136      1.720     4.73     1220.732     64.28031     111.1012         7     1.093     0.635  57.28   0
        44    355.0821    935.9418 307.7552164  +6.2647477     1177.353     2469.105     3104.237     91.55827     182.3931     364.7498      2.283     5.77     1224.689     64.28031     137.8616        16     1.379     1.028  10.22   0
        45    741.7540    925.5271 307.5947144  +6.2820021     5818.342     11540.08     12813.15     91.26899     182.4655     364.6773      2.087     4.72     1219.664     64.28031     602.0614        47     1.723     1.430  63.37   0
        46    537.1959    926.1126 307.6797911  +6.2749135     2730.878     5837.038     7092.884     90.83334     182.0302     364.3146      2.291     5.07     1223.054     64.28031      321.406        34     1.603     1.365  84.69   3
        47    534.5512    918.3535 307.6811531  +6.2780288     5480.179     11917.28      13801.3     91.41375      182.248     364.7136      2.279     5.05     1222.631     64.28031     594.2899        53     1.827     1.593  80.54   3
        48    287.4644    925.1290 307.7837098  +6.2669422     9564.042      21297.8     24860.72     91.41375     182.3931     364.7136      2.339     5.16     1224.465     64.28031      995.792        71     1.947     1.710  60.20   0
        49    507.4554    927.2521 307.6921245  +6.2734464     782.2226     1606.053     1314.729     91.41375     182.3931     364.6411      2.262     5.37     1223.129     64.28031      110.262         6     1.144     0.710 -40.43   0
        50    802.5321    924.4302 307.5694671  +6.2844867     794.3839     1505.864     1558.936     91.12401     182.3931     364.6411      1.913     6.49     1218.992     64.28031     98.03357         9     1.404     0.841 -79.94   0
        51    411.5102    924.8836 307.7321169  +6.2712073     732.8245     1156.263     890.9568       91.124     182.6828     364.7861      1.746     5.16     1223.839     64.28031     86.29565         8     1.191     0.631 -28.48   0
        52    903.0677    918.8130 307.5278320  +6.2901642     7194.423     13085.91     13859.12     90.83334     182.1754     364.5685      1.902     4.09     1218.648     64.28031      760.611        40     1.509     1.349  65.19   0
        53    876.6660    914.9976 307.5389438  +6.2908582     9797.803     18638.53     19555.88     90.68765     182.0302     364.4235      1.986     4.33     1218.648     64.28031     1112.111        51     1.611     1.488  64.54   0
        54    998.3163    914.3092 307.4883582  +6.2952024     4349.704     6984.482     7635.489     91.12401     182.7552     364.8224      1.728     3.97     1215.628     64.28031     495.5732        30     1.449     1.116  70.79   0
        55    520.7999    914.1738 307.6870147  +6.2792939     2670.073     6108.784     7637.212     90.83334     182.0302     364.4597      2.442     6.15     1222.496     64.28031     283.6598        36     1.764     1.424  74.12   0
        56    588.9482    915.2344 307.6586292  +6.2811389     844.7653     1436.906     1558.208     91.26899     182.3931     364.5685      1.800     4.40     1222.094     64.28031      136.248         8     0.970     0.697 -66.96   0
        57    630.2647    913.3057 307.6415064  +6.2833187     846.2921     1672.844     1527.508     91.26899     182.4655     364.7136      2.125     6.63     1221.318     64.28031     109.6622        12     1.147     1.076  20.45   0
        58    473.8015    910.9093 307.7066762  +6.2790666     1440.082     3219.049     3417.658     90.54173     181.9576     364.3872      2.148     7.80     1222.695     64.28031     196.9701        20     1.478     1.255 -33.48   0
        59    908.3861    902.4988 307.5261680  +6.2970785     36638.53     65973.66     70341.51     91.26899     182.1028     364.3872      1.948     4.18     1217.224     64.28031     3990.595        76     1.687     1.478  75.19   0
        60    215.5462    901.0034 307.8144429  +6.2744877     1074.063     2072.848     2411.773     90.68765     182.1028      364.242      2.205     6.58     1223.622     64.28031      161.077        14     1.315     1.134  42.70   0
        61    754.5587    894.3455 307.5904375  +6.2953061     5049.831     10222.74     11667.29     91.26899     182.3931     364.7136      2.188     4.72     1217.451     64.28031     546.3295        50     1.860     1.489  67.97   0
        62    806.1218    896.1862 307.5689243  +6.2962695     1748.072     3418.848     3309.204     90.97878     182.1028     364.4597      1.950     5.54     1217.348     64.28031     206.1094        25     1.506     1.152  79.86   0
        63    224.6423    893.5959 307.8109099  +6.2778520     958.2062     2094.675     1410.446     90.68765     182.0302     364.3509      2.150     7.52     1223.685     64.28031      137.762        14     1.508     1.049  61.42   0
        64     49.2132    891.9771 307.8839399  +6.2726196     1840.511     3991.649     4098.955     91.12401     182.1754     364.5685      2.131     5.60     1221.013     64.28031     240.2389        29     1.563     1.310  63.74   0
        65    942.6548    889.1765 307.5123592  +6.3037235     5840.078     10260.94     10796.33     90.97879     182.3931     364.4597      1.863     4.18     1215.526     64.28031     657.8745        36     1.488     1.263  86.02   0
        66    916.3812    880.9305 307.5235670  +6.3062517     1768.565     3316.633     3221.925     90.97878      182.248     364.6048      1.953     5.54     1215.442     64.28031     181.2784        23     1.400     1.182   6.09   0
        67    249.5726    877.5479 307.8010822  +6.2853163     2488.086     5876.168     6201.553     90.97879      182.538     364.6048      2.314     6.46     1223.709     64.28031     261.0172        36     1.807     1.417  87.23   0
        68    775.9532    877.6566 307.5820989  +6.3029127     944.6643     2079.141     2522.233     91.41375     182.3931     364.7861      2.293     7.34     1216.364     64.28031     139.2524        13     1.695     0.891  71.53   0
        69    637.1916    876.9355 307.6398509  +6.2985688     2995.094     6584.009     6992.053     90.83334     182.1028     364.5323      2.180     5.52     1218.889     64.28031     331.3888        38     1.661     1.468  84.21   0
        70    986.1004    876.6590 307.4947052  +6.3103420     561.8727     1238.601     1246.537     91.12401     182.3931     364.8224      2.296     4.91     1213.485     64.28031     95.52612         5     0.963     0.762  83.53   0
        71     18.4625    874.8353 307.8973129  +6.2786622     1575.109     3090.084      2981.41     91.26899     182.3931     364.6411      2.018     5.96     1220.753     64.28031     198.4924        20     1.421     1.076  79.59   0
        72    868.5198    873.3079 307.5437350  +6.3078013     624.0642     1173.281     905.9912     91.12401     182.6828     364.7498      1.845     4.91     1215.385     64.28031     86.00012         6     0.965     0.707 -66.07   0
        73    993.0310    869.1583 307.4920738  +6.3136705     816.6472     1658.818     1806.778     90.83334      182.248      364.496      1.856     6.47     1212.766     64.28031     124.2756        10     1.644     0.716 -76.17   0
        74    941.1530    870.7704 307.5136027  +6.3112739     618.8113     1152.154     1237.824     90.97879     182.4655     364.5685      1.498     3.43     1214.183     64.28031     81.13843         5     0.992     0.344  44.67   0
        75    562.2311    868.6798 307.6713142  +6.2994677     1042.779     1995.602      2471.33     91.26899     182.3205     364.6411      1.966     6.10     1219.705     64.28031     150.6837        13     1.426     0.733  12.31   0
        76    601.7110    865.3685 307.6550015  +6.3021573     753.0681      1200.16     1401.296     91.55828     182.1754     364.6048      1.898     7.57     1219.236     64.28031     95.79932         9     1.668     0.962  35.28   0
        77    547.9767    863.7222 307.6774115  +6.3010373     427.7217     1100.915      1647.97     90.97879     182.1754     364.6048      2.403     5.17     1219.519     64.28031     86.21289         5     1.211     0.624 -88.42   0
