#   1 NUMBER                 Running object number                                     
#   2 X_IMAGE                Object position along x                                    [pixel]
#   3 Y_IMAGE                Object position along y                                    [pixel]
#   4 ALPHA_J2000            Right ascension of barycenter (J2000)                      [deg]
#   5 DELTA_J2000            Declination of barycenter (J2000)                          [deg]
#   6 FLUX_APER              Flux vector within fixed circular aperture(s)              [count]
#   9 FLUXERR_APER           RMS error vector for aperture flux(es)                     [count]
#  12 FLUX_RADIUS            Fraction-of-light radii                                    [pixel]
#  13 FWHM_IMAGE             FWHM assuming a gaussian core                              [pixel]
#  14 BACKGROUND             Background at centroid position                            [count]
#  15 THRESHOLD              Detection threshold above background                       [count]
#  16 FLUX_MAX               Peak flux above background                                 [count]
#  17 ISOAREA_IMAGE          Isophotal area above Analysis threshold                    [pixel**2]
#  18 A_IMAGE                Profile RMS along major axis                               [pixel]
#  19 B_IMAGE                Profile RMS along minor axis                               [pixel]
#  20 THETA_IMAGE            Position angle (CCW/x)                                     [deg]
#  21 FLAGS                  Extraction flags                                          
         1    173.0900     24.3225 307.8650910  +6.6681694      11930.3     16986.54     17042.84     78.08781     156.5482     312.5688      1.504     3.08     835.1607     55.08438      1665.65        37     1.340     1.086 -83.47   0
         2    918.6762     22.1810 307.5553845  +6.6940718     4643.286      6089.73     6446.213     77.83873      155.989     312.4445      1.389     2.97     823.1798     55.08438       749.47        21     1.205     0.865 -84.16   0
         3    983.5052     18.4342 307.5285735  +6.6977848     2257.174     3390.145     3315.928     78.45996     156.1756     312.5999      1.590     3.29     819.2917     55.08438      315.751        21     1.282     0.960 -87.63   0
         4    702.8492     14.7693 307.6453098  +6.6899094     8580.657     11499.46     11814.76     77.96337      156.362     312.4134      1.398     2.88     825.6467     55.08438     1402.592        28     1.252     0.927 -88.17   0
         5    623.0900     14.1287 307.6784708  +6.6875007     4192.132     5649.455     5554.967     78.21206     156.5482     312.5067      1.423     3.17     826.0389     55.08438     705.0104        20     1.219     0.863 -84.25   0
         6    325.0659     13.5411 307.8023146  +6.6777355     1127.058     1744.341     2039.488     78.45996     156.2378     312.5067      1.757     3.92     834.4281     55.08438      176.263        11     1.084     0.773 -62.56   0
         7    378.9651     12.5320 307.7799549  +6.6799643     776.8207     1013.638     365.0761     78.21206      156.362     312.5999      1.341     3.68     831.8054     55.08438     111.8937         8     0.838     0.671  82.34   0
         8    423.2632     10.4010 307.7616219  +6.6823327     7119.685      9914.67     10257.85     77.71389     156.1134      312.258      1.501     3.09     828.6921     55.08438     996.7981        29     1.290     0.989 -82.18   0
         9     24.2314      9.8378 307.9274256  +6.6691308     9456.112     13337.34      14125.7     77.96337     156.0512     312.3202      1.478     3.19     835.5161     55.08438      1320.51        33     1.335     1.031  89.98   0
        10    670.2731      9.2254 307.6590317  +6.6911066     955.8721      1111.68     731.5322     77.96337     156.1756     312.4445      1.354     3.09     825.9298     55.08438     151.7151         8     0.944     0.554 -73.49   0
        11    498.9335      7.5443 307.7302785  +6.6860535     1059.152     1306.641     1562.913     78.45996     156.1756     308.5984      1.245     2.94     826.0424     55.08438     186.3227         8     0.904     0.656 -81.44   0
        12    319.7979      5.2715 307.8047827  +6.6809722     14704.72     20534.65     21993.33     77.83873     155.9267     288.8355      1.485     3.20     834.4382     55.08438      2179.65        39     1.380     1.033 -75.19  16
        13    415.0328      6.2808 307.7651805  +6.6837571     834.2478     1053.071     1420.118     78.21206     156.2378     299.0752      1.484     4.75     829.1082     55.08438     122.8144         8     1.012     0.631  79.49  16
        14     93.4583      5.4574 307.8988133  +6.6732738     2989.013     4302.952     4988.403     78.45996     156.2999     291.2125      1.577     3.37     834.6169     55.08438     381.5995        23     1.292     1.015 -66.44  16
        15    386.0007      3.2783 307.7773442  +6.6840210     2688.951     3890.922     3615.049     77.58884      148.135     264.1846      1.492     3.23     831.2012     55.08438     385.9343        20     1.181     0.978 -77.42  24
        16     84.6251      4.4771 307.9025163  +6.6733806     1769.263     2430.528     3158.167     77.96337     156.2378      279.924      1.572     3.36     834.6232     55.08438     242.8325        16     1.104     0.888 -82.09  16
        17    788.5431      3.9813 307.6100670  +6.6972326     1055.799      1355.66     1073.158     77.83873     154.0473     273.6447      1.387     4.60     824.8799     55.08438     138.1855         9     1.020     0.667  63.09  16
        18    646.3386      1.1928 307.6692469  +6.6936205     1373.087     1563.182     1718.216     65.80682      121.805     232.6831      0.959     2.63     825.7881     55.08438      370.074         7     0.925     0.391  -3.73  24
        19   1000.7933    995.0269 307.4886431  +6.2951744     4831.991     7739.433     7826.445     77.83873     156.1756     312.3202      1.685     3.69     852.4634     55.08438       583.17        30     1.475     1.070  85.81   0
        20    950.8374   1020.7347 307.5085221  +6.2828929     6703.603     10958.91     11391.96     78.21206     155.6151     277.4853      1.715     3.61     855.1898     55.08438     828.5986        42     1.503     1.293  76.44  24
        21    879.0713    995.5593 307.5391617  +6.2908891     12977.85     20264.89     21500.93     78.21206     156.2999     312.5688      1.699     3.41     855.9309     55.08438     1668.656        46     1.445     1.281 -86.46   0
        22    591.7822    995.5641 307.6584356  +6.2812726     1618.841     2302.714     2278.001     77.83873     156.1134     312.2891      1.491     3.93     860.2888     55.08438     224.6685        13     1.190     0.728 -82.40   0
        23    523.1780    994.3452 307.6869585  +6.2794759     4709.759     6402.748     7202.371     77.83873     156.2999     312.3202      1.448     3.08     860.2874     55.08438     670.8394        23     1.255     0.885 -87.44   0
        24    632.8674    993.7158 307.6414406  +6.2834123     1492.085     2113.169     1924.836     78.58362     156.5482     312.5377      1.552     4.31     859.8801     55.08438     195.5347        17     1.386     0.813 -87.38   0
        25     57.8609    992.7391 307.8801873  +6.2644987     964.3369     1187.395     1047.997     78.33611     156.2999     312.5377      1.407     4.40     856.7922     55.08438      160.996        12     1.213     0.680 -74.43   0
        26    788.0027    992.5282 307.5770729  +6.2890957     534.7141     927.0309     795.2462     77.83873     155.9267     312.3513      1.833     4.17     856.8325     55.08438     83.41193         6     1.290     0.385 -70.33   0
        27    476.3950    990.9457 307.7064954  +6.2793100     2424.183     3483.009     3884.482     77.71389     156.0512     312.1958      1.523     3.31     860.2933     55.08438      334.939        19     1.254     0.876 -84.20   0
        28    910.8493    983.0887 307.5263864  +6.2970995        45420     69584.88     73330.32     78.33611     156.1134     312.5999      1.632     3.35     855.1859     55.08438     5935.574        73     1.566     1.273  86.69   0
        29    512.6542    985.2900 307.6916324  +6.2828613     517.4822     697.1312     1123.234     78.21206     156.1134     312.6309      1.478     4.14     860.1865     55.08438     73.54352         6     0.937     0.523  47.18   0
        30    218.1024    981.1503 307.8140566  +6.2746770      1996.52     2861.663     2911.173     78.21206     156.2378      312.662      1.452     3.76     858.7761     55.08438     287.4846        18     1.328     0.836  83.68   0
        31    106.2544    980.2231 307.8605207  +6.2712956      684.061     1181.576     1088.283     77.83873     156.2999     312.3202      1.892     5.42     856.6096     55.08438     101.8195         8     1.098     0.859 -58.69   0
        32    756.8856    974.8831 307.5905846  +6.2953395     7404.222     10836.34     12204.46     78.08781     156.4862     312.5999      1.613     3.53     857.4169     55.08438     1045.659        38     1.750     1.067 -77.21   0
        33    616.7360    979.4379 307.6486181  +6.2887664     851.5408     1284.375     1040.974     78.33611     156.2378     312.5999      1.697     5.82     859.8546     55.08438     137.5205        12     1.140     0.836  83.29   0
        34    808.7992    977.0024 307.5689600  +6.2962011     2597.131     3720.444     3880.531     77.71389     155.8645     312.1958      1.457     3.12     856.2155     55.08438     414.0701        19     1.199     0.892 -73.81   0
        35    543.7460    973.8126 307.6791105  +6.2886423      998.917     1746.215     2110.614     77.71389     156.2378     312.2269      1.917     4.96     860.0717     55.08438      162.053        14     1.480     0.796  87.44   0
        36    226.4234    973.5689 307.8108581  +6.2780867     1670.432     2262.859     2274.903     77.71389     156.1134      312.258      1.470     3.58     858.9445     55.08438     210.1333        16     1.127     0.886  72.45   0
        37    191.1772    973.0845 307.8255068  +6.2771010     822.1265      1283.59     1449.335     78.21206     156.0512     312.4134      1.666     4.53     857.7185     55.08438     117.8082        10     1.155     0.773 -79.71   0
        38     51.2923    971.6970 307.8836258  +6.2729642     3177.825     4527.767     4384.511     78.33611     156.7961     312.4445      1.491     3.18     856.6273     55.08438     451.1238        21     1.272     0.908 -74.13   0
        39    945.1943    969.8126 307.5125720  +6.3037278     7092.622     10983.57     11188.46     77.96337     156.1134     312.3823      1.652     3.60     854.0328     55.08438     895.1198        33     1.401     1.117 -89.85   0
        40    201.3029    965.7253 307.8215517  +6.2804798     672.3206     852.3182     532.3292     77.96337     156.4241     312.5377      1.173     3.43     857.9927     55.08438     131.8633         7     1.016     0.475 -59.40   0
        41    627.3528    963.8644 307.6447340  +6.2955516     724.4808     902.3349     501.7507     78.21206     156.2378     312.5688      1.470     4.99     859.4206     55.08438     130.6027         9     1.439     0.490  72.86   0
        42    919.0134    961.5381 307.5237195  +6.3062694     2281.686      2962.44     2199.131     77.83873     156.1134     312.2891      1.484     3.61     854.3164     55.08438      313.718        20     1.326     0.935 -89.87   0
        43    778.4268    958.0414 307.5822067  +6.3030132     1459.858     2292.167     2136.283     77.96337     156.1756     312.3513      1.624     3.74     856.6032     55.08438     190.3361        13     1.103     0.879 -68.49   0
        44    639.6140    957.3527 307.6398624  +6.2986507     4992.927     7006.462     7406.734     77.71389     156.1134     312.2891      1.524     3.14     859.0617     55.08438     681.6276        25     1.296     0.938 -77.72   0
        45    251.8889    957.4060 307.8008317  +6.2856157     4908.872     6968.099     7165.582     77.83873      155.989      312.258      1.492     3.22     859.3743     55.08438     733.4266        25     1.287     0.934 -82.07   0
        46    989.1754    957.2125 307.4947339  +6.3103984     707.0303      1241.69     1633.237     77.96337     156.1134     312.4445      2.170     5.07     852.8641     55.08438     106.9148         8     1.060     0.761 -49.83   0
        47    461.9352    955.7926 307.7136826  +6.2933375       1200.1     1572.904     1072.045     77.83873     156.0512     312.3513      1.395     3.18     860.1185     55.08438     182.0896        13     1.040     0.830 -75.97   0
        48     20.5463    954.8378 307.8969600  +6.2788881     2333.974      3308.48     2908.066     78.21206      156.362     312.5067      1.469     3.44     856.4945     55.08438     320.8966        19     1.287     0.830 -73.07   0
        49    871.5712    954.0272 307.5436690  +6.3077851     1085.031     1656.997     1992.693     77.83873     156.1134     312.3202      1.697     4.09      854.988     55.08438     154.3416        12     1.113     0.778  76.43   0
        50    963.2385    951.6858 307.5056879  +6.3118141     617.7113     830.1448     1187.491     78.33611     156.2999     312.5067      1.580     3.81      853.237     55.08438     86.56702         5     0.997     0.418  84.73   0
        51    287.9958    951.0114 307.7860575  +6.2894695     885.9924     1326.542       1542.9     77.96337      155.989     312.4134      1.441     4.34     860.2563     55.08438     148.3246         9     1.071     0.724 -75.43   0
        52    995.5753    949.3474 307.4923402  +6.3138592     854.9142     1717.089     1790.953     77.83873     156.2999     312.4134      2.018     5.46     852.7537     55.08438     134.1168        11     1.629     0.517 -78.16   0
        53    942.6086    950.6027 307.5142896  +6.3115723     794.2346     924.6846     721.3306     77.71389      155.989     312.3202      1.247     3.20     853.5026     55.08438     150.3992         8     1.041     0.486  87.09   0
        54    564.2661    949.7726 307.6714003  +6.2992551     1961.025      2849.14     3568.959     77.96337     156.2378     312.4134      1.748     3.38     859.6903     55.08438     268.1757        15     1.125     0.833  84.24   0
        55    603.7040    946.1392 307.6551487  +6.3020770     1359.251     1992.515     1548.903     78.08781     156.2999     312.5999      1.466     2.97     859.4507     55.08438     243.7813        12     0.964     0.836 -84.35   0
        56     53.0115    946.4915 307.8837646  +6.2834277     792.9901     1207.094     1999.125     78.08781      155.989     312.3202      2.470     6.56     856.3973     55.08438     120.7534        10     1.184     1.020 -78.83   0
        57    283.4938    943.8519 307.7881681  +6.2922739     1595.718     2037.275     2231.944     78.21206     156.1756     312.7241      1.372     3.57     859.9942     55.08438      219.006        14     1.156     0.785  88.51   0
        58    551.1418    942.4998 307.6770939  +6.3018176     732.8958     1039.294     977.1655     78.08781     156.2999      312.693      1.555     3.76      859.644     55.08438     117.5855         6     1.007     0.458 -60.46   0
        59    750.4335    940.2233 307.5944276  +6.3094328     982.0228      1264.69     1387.181     77.83873     156.1134     312.3202      1.281     3.98     856.6174     55.08438     144.1622        11     1.112     0.705 -51.81   0
        60    887.9204    936.7899 307.5374592  +6.3154480     7529.026      11223.5     11440.84     77.96337      155.989     312.3823      1.566     3.26     854.1794     55.08438     993.0328        31     1.359     1.079 -88.28   0
        61    423.8115    933.7969 307.7302517  +6.3011387     2488.137     3209.375     3522.902     77.96337      155.989     312.3823      1.384     3.12     859.9071     55.08438     356.3057        16     1.097     0.843 -74.71   0
        62    325.3717    932.1516 307.7711766  +6.2985117     10873.24     15181.86     15807.69     77.96337      156.362     312.4445      1.466     3.07     859.9417     55.08438     1526.859        33     1.369     0.966 -75.86   0
        63    245.5107    931.0258 307.8043702  +6.2962919     8031.543     10943.78     11196.89     78.45996     156.0512     312.3513      1.433     3.05     858.7631     55.08438     1176.879        29     1.311     0.936 -76.75   0
        64    573.5612    925.3546 307.6683628  +6.3096476     1446.315     2134.049      2384.86     78.08781     156.2999     312.4134      1.634     3.33     859.2096     55.08438     207.6896        13     1.077     0.810  88.14   0
        65    758.0441    924.6276 307.5917916  +6.3161262     658.3253     862.0324       824.76     77.96337      156.362     312.4134      1.302     4.65     856.1538     55.08438     98.36938         7     0.887     0.692  64.01   0
        66    903.7012    921.8727 307.5314074  +6.3221339     1089.381     1623.511      2384.83     78.08781     156.4241     312.5067      1.733     3.82     853.3524     55.08438     146.2919        11     1.040     0.804  88.06   0
        67    860.4335    920.5473 307.5494167  +6.3212351     821.7771     1234.978     945.2334     78.21206     156.2378     312.4445      1.334     4.37     854.4686     55.08438     120.7989         8     1.101     0.493 -86.97   0
        68    207.5623    920.8992 307.8204670  +6.2991961     593.3833     664.5536     826.0126     78.33611     156.1756     312.7241      1.155     3.72     857.7449     55.08438     117.2685         6     0.819     0.484 -80.62   0
        69    402.5456    919.5333 307.7395615  +6.3063133     596.9837     931.1394     1327.712     78.33611     156.2378     312.4445      1.544     4.13     859.5527     55.08438     107.3084         5     0.986     0.493  85.47   0
        70    739.8312    914.8833 307.5996809  +6.3195397     1913.136      2701.82     2846.228     78.33611     156.1134     312.3823      1.475     3.62     856.0298     55.08438      291.994        15     1.207     0.824 -70.69   0
        71    563.4450    915.3976 307.6728980  +6.3134191     707.2831     802.7528     711.4484     77.71389     155.9267     312.1647      1.381     3.39     858.9785     55.08438     106.4714         6     1.021     0.473  80.29   0
        72    833.1849    915.1876 307.5609102  +6.3225369     689.5859      803.344      994.491     78.21206      155.989     312.4445      1.340     4.49     854.8732     55.08438     104.9218         6     0.953     0.602 -65.44   0
        73    604.1273    911.4711 307.6561393  +6.3164037     949.7999     1088.874     90.39995     78.58362     156.4241     312.4756      1.237     3.68     858.4208     55.08438     148.0344         7     0.886     0.579 -76.85   0
        74    971.3755    910.3972 307.5036934  +6.3291320     1262.827     1923.057     2497.738     77.96337      155.989     312.3202      1.821     3.35     851.9826     55.08438     202.9811        14     1.116     0.794 -65.01   0
        75    616.0795    911.0079 307.6511924  +6.3169955     625.0143     730.2476     233.7002     77.96337     155.8645     312.3513      1.179     4.17       858.26     55.08438     106.1118         7     0.896     0.554  50.79   0
        76    525.0598    910.4745 307.6890008  +6.3141645     1521.387     1806.678     2053.958     78.58362     156.2999     312.4756      1.321     3.35      859.087     55.08438     234.8987        12     1.033     0.767 -85.78   0
        77    658.5627    908.3275 307.6336437  +6.3195253     2831.704     3809.586      3747.57     78.21206     156.2999     312.5688      1.437     3.10     857.5076     55.08438     424.8139        17     1.237     0.836 -69.79   0
