#   1 NUMBER                 Running object number                                     
#   2 X_IMAGE                Object position along x                                    [pixel]
#   3 Y_IMAGE                Object position along y                                    [pixel]
#   4 ALPHA_J2000            Right ascension of barycenter (J2000)                      [deg]
#   5 DELTA_J2000            Declination of barycenter (J2000)                          [deg]
#   6 FLUX_APER              Flux vector within fixed circular aperture(s)              [count]
#   9 FLUXERR_APER           RMS error vector for aperture flux(es)                     [count]
#  12 FLUX_RADIUS            Fraction-of-light radii                                    [pixel]
#  13 FWHM_IMAGE             FWHM assuming a gaussian core                              [pixel]
#  14 BACKGROUND             Background at centroid position                            [count]
#  15 THRESHOLD              Detection threshold above background                       [count]
#  16 FLUX_MAX               Peak flux above background                                 [count]
#  17 ISOAREA_IMAGE          Isophotal area above Analysis threshold                    [pixel**2]
#  18 A_IMAGE                Profile RMS along major axis                               [pixel]
#  19 B_IMAGE                Profile RMS along minor axis                               [pixel]
#  20 THETA_IMAGE            Position angle (CCW/x)                                     [deg]
#  21 FLAGS                  Extraction flags                                          
         1    695.0472     15.0876 307.6454088  +6.6897271       7279.9     11366.12     11379.05     77.88663     155.2795     310.7444      1.627     3.14     815.0128     54.76831     1120.137        37     1.303     1.294 -48.77   0
         2    615.3544     14.3401 307.6785435  +6.6873789     3769.927     5748.653     5908.884      77.7633     155.3413     310.8062      1.645     3.16     814.9937     54.76831     613.8054        29     1.281     1.221 -14.71   0
         3    415.4553     10.7022 307.7617153  +6.6822067     6400.579     9832.998     10123.61      77.7633     155.4031     310.9297      1.688     3.26     819.7997     54.76831     997.0061        33     1.291     1.233 -73.15   0
         4     16.3992     10.2654 307.9275137  +6.6690223     8187.374     13070.56     13784.15     77.14365      155.094     310.4663      1.737     3.34     821.2234     54.76831      1291.04        38     1.341     1.323  83.18   0
         5    662.3699      9.5095 307.6591719  +6.6909407      963.007     1522.976     1504.205     78.00977     155.1558     310.6826      1.697     3.56     814.8666     54.76831     163.9615         9     0.873     0.802  38.30   0
         6    491.1060      7.5023 307.7303931  +6.6860550      944.032     1396.853     1297.049     77.88663      155.958     306.5774      1.562     4.08     816.0358     54.76831     165.8391        11     1.203     0.823 -52.78  16
         7    312.0942      5.6383 307.8048268  +6.6808407     13004.84     19953.98     21345.72     78.00977     155.2795     291.5239      1.644     3.36     822.9644     54.76831     1844.883        43     1.351     1.286 -38.43  16
         8     85.7737      5.9230 307.8988398  +6.6731422     2496.982     3911.224     4335.411     77.76329     155.4031     293.9829      1.713     3.50     821.1217     54.76831      350.199        22     1.228     1.111  30.52  16
         9    942.9500      5.6709 307.5427262  +6.7018648     491.3883     727.0032       885.41     77.88663     155.3413     291.6884      1.424     4.29     813.7184     54.76831     77.61322         6     0.833     0.648  33.47  16
        10    407.3367      6.0867 307.7652432  +6.6838406      759.564     1125.207     1434.288     78.00977     155.5266     295.6109      1.477     3.35     820.1591     54.76831     115.3943         7     0.851     0.574 -62.00  16
        11     77.0010      4.9060 307.9025186  +6.6732678     1447.872     2563.177     3177.603     77.39211     154.9701     283.0372      2.002     4.41     821.0339     54.76831     202.2942        19     1.311     1.042 -28.46  16
        12    378.2686      3.4393 307.7774085  +6.6839617     2398.967      3827.03     3949.623      77.7633     149.2916     265.4676      1.723     3.58     821.4728     54.76831     346.0374        22     1.220     1.096   8.55  24
        13    780.7443      4.0833 307.6101723  +6.6971243     823.4965     1113.307     1483.114     77.88663     153.7888     273.6926      1.460     4.30     814.2446     54.76831     111.7432         9     0.906     0.714  23.65  16
        14    638.5538      1.1774 307.6693459  +6.6935862     1882.573     2341.977     2831.904     65.42923     121.0268     231.0989      1.057     2.95     814.5684     54.76831     529.0449         8     1.078     0.378  -3.13  24
        15    254.0425   1002.9957 307.7954371  +6.2671812     732.3349     1117.976     806.2604     77.26798      155.094     310.4354      1.575     4.92      846.205     54.76831     89.09058         8     0.877     0.780 -82.03   0
        16    943.6422   1020.8545 307.5085659  +6.2827941     5126.613     10056.66     10477.89     77.76329     154.1006     274.3231      2.042     4.38     842.6016     54.76831     579.0413        41     1.559     1.436  84.94  24
        17    898.2077    999.3950 307.5281434  +6.2901436     7005.074     13399.48      14482.8     77.26798     155.1558     310.5591      2.026     4.15     843.1476     54.76831     745.3101        51     1.590     1.540 -40.26   0
        18    871.8441    995.6034 307.5392147  +6.2908326     10001.65     19189.85     21006.48     77.26798     155.0321     310.3735      2.026     4.15      843.252     54.76831     1094.081        59     1.676     1.564 -22.31   0
        19    993.6201    994.9724 307.4886803  +6.2951388     3828.753     7594.573     8468.423     77.51603     155.2177     310.6518      2.084     4.42     838.5938     54.76831     413.2061        41     1.534     1.495 -43.46   0
        20    584.7634    996.1008 307.6583776  +6.2810705     1184.879     1995.602     2101.305     77.88663     155.2795     310.8988      1.870     6.08     847.3545     54.76831      152.617        16     1.418     1.011 -39.15   0
        21    516.0016    994.7983 307.6869665  +6.2793151     3699.174     6545.141     7810.647     77.26798     154.9701     310.4044      2.038     3.80      847.097     54.76831      471.629        32     1.480     1.247  -9.52   0
        22    625.6494    994.0413 307.6414732  +6.2832834     1200.398     2031.597     1933.694     78.00977     155.4031     310.6518      1.799     4.89     846.9347     54.76831     158.3495        17     1.244     1.028  83.43   0
        23     50.7784    993.6923 307.8801263  +6.2642169     803.2303     1321.896     925.2282     77.88663     155.2177     310.5281      1.610     4.42     841.5255     54.76831     124.5858         7     1.248     0.445 -69.78   0
        24    469.0760    991.1229 307.7065700  +6.2792666     1915.434     3428.807     3384.155     78.13272       155.65     310.7753      1.895     4.71     846.7415     54.76831     224.6649        26     1.460     1.206  66.70   0
        25    903.5857    983.1656 307.5264521  +6.2970222     35524.14     66790.05     72828.17     77.51604     155.1558     310.5899      2.004     4.07      842.699     54.76831     3920.702        82     1.681     1.639  87.32   0
        26    211.0025    981.4628 307.8140267  +6.2746304     1495.727     2388.709     2636.614     77.26798     155.2177     310.4663      1.773     4.48     844.3127     54.76831        180.4        19     1.288     1.054 -67.45   0
        27    610.3665    979.1869 307.6483146  +6.2889063     805.5527     1164.696     901.4732     77.39211     155.1558     310.6208      1.439     4.52     846.9592     54.76831     112.3323         8     0.928     0.656  68.90   0
        28    749.6553    974.9238 307.5906318  +6.2953053     5902.735     10651.49     12204.24     77.88663     155.4031     310.6518      2.004     4.14     845.1503     54.76831     703.7836        48     1.719     1.439 -85.69   0
        29    801.5984    976.9966 307.5689983  +6.2961780     1967.209     3491.153     3565.493     77.26798     154.9701     310.4663      1.854     4.36     844.4241     54.76831     250.2829        24     1.326     1.213  53.27   0
        30    536.3725    974.5678 307.6791872  +6.2883461     917.0945     1585.479      1150.03     77.39211     155.1558     310.5281      1.803     5.08     846.8594     54.76831     133.9988        11     1.232     0.798 -59.97   0
        31    219.3321    974.0963 307.8108163  +6.2779501     1325.307     2236.377     2584.914     77.76329     155.5266     310.7135      1.871     4.32     844.3233     54.76831     179.5478        16     1.271     0.929 -69.47   0
        32    183.4833    973.4820 307.8257185  +6.2770041     793.0508     1526.681     1528.791     77.63976       155.65     310.8062      2.007     5.23     843.4161     54.76831     129.6052         8     1.092     0.708 -55.76   0
        33     44.0257    972.0577 307.8836572  +6.2729215     2423.295     4125.025     4397.958     77.51604     155.4031     310.5591      1.868     4.14     840.7188     54.76831     279.4701        25     1.331     1.183 -86.52   0
        34    937.8410    969.9654 307.5126709  +6.3036099     5403.456     10447.77     10698.89     77.63976     155.4031     310.5281      2.026     4.28     841.4389     54.76831      620.403        46     1.622     1.481 -73.78   0
        35    194.3534    965.8381 307.8214629  +6.2805233     449.6781     699.4537     769.9075      77.7633     155.3413     310.5899      1.418     3.60     843.5447     54.76831     80.75238         5     1.029     0.363   3.55   0
        36    911.7944    961.5213 307.5237661  +6.3062304     1641.975     2986.985      2991.09     77.51604     154.9082     310.4972      1.884     4.65     841.9734     54.76831     209.3945        23     1.397     1.123 -45.44   0
        37    632.4056    957.5468 307.6398890  +6.2985742     4420.238     7175.123     7464.384     77.39211     155.1558     310.4354      1.759     3.62     846.0663     54.76831     571.0587        32     1.368     1.252 -49.00   0
        38    244.5183    957.9062 307.8009045  +6.2854760     3802.226     6502.311     6976.385     77.63976       155.65     310.8062      1.852     3.77     844.4592     54.76831     479.2358        33     1.403     1.322 -54.74   0
        39    771.3745    957.5665 307.5821948  +6.3031936     1264.155     2076.273     2030.077     77.26798     155.2177     310.5281      1.846     3.35     844.5662     54.76831     176.4093        14     0.999     0.914 -84.69   0
        40    454.9734    955.8536 307.7136061  +6.2933557     1023.166      1694.61     1797.412     77.63976     155.5266     310.6208      1.803     5.48     846.0809     54.76831     168.2126        15     1.277     0.959  73.54   0
        41     13.4392    955.3307 307.8969167  +6.2788012     1934.752     3344.169     3992.693      77.7633     155.4031     310.8062      1.918     4.01     839.3673     54.76831     291.4968        22     1.398     0.998 -43.23   0
        42    864.4907    953.6580 307.5436671  +6.3079043     717.5302      1089.99     577.9235      77.7633     155.4031     310.8371      1.522     4.75     842.9756     54.76831     91.45319         8     1.545     0.414 -79.17   0
        43    557.1530    950.2437 307.6713745  +6.2990806     1603.846     2481.779     3239.007     77.88663     155.3413     310.6826      1.814     4.07     846.4055     54.76831     194.0726        18     1.208     1.008 -73.91   0
        44    988.7366    947.5655 307.4922876  +6.3145476     566.8237     1438.074     1766.461      77.7633     155.4649     310.7135      2.934     7.03     838.8095     54.76831     103.3698         8     2.152     0.644  49.69   2
        45    935.8519    950.5068 307.5141456  +6.3115768     711.7828     1145.584     1253.377      77.7633     155.2795     310.9297      1.897     4.07     840.9047     54.76831     122.1875         9     1.165     0.793  -3.14   0
        46    280.7449    951.0499 307.7860959  +6.2895180     1018.404     1457.989     2136.532     77.88663     155.4031     310.7444      1.723     4.82     845.1263     54.76831     138.4415         9     0.957     0.688  20.14   0
        47    596.0817    946.5685 307.6553362  +6.3018957     1030.405     1505.417     1028.587     77.76329     155.2795     310.7135      1.659     5.53     846.2898     54.76831     124.4055        15     1.199     1.021  -6.80   0
        48    276.0149    944.0909 307.7882931  +6.2922325     1388.072     2259.336     2513.907     77.63976     155.2177     310.5591      1.682     3.99     844.7583     54.76831     204.6294        16     1.231     0.935 -84.83   0
        49     46.2673    946.5506 307.8835847  +6.2835260     757.2763     1050.716     1383.954      77.7633     155.2795     310.7444      1.670     4.05     840.0472     54.76831     107.5908         7     0.993     0.473  10.14   0
        50    880.6706    936.8770 307.5375097  +6.3153698     5976.713     10791.14     11326.48     78.13272       155.65     310.7135      1.931     3.87     842.2802     54.76831     760.2073        42     1.522     1.458  67.69   0
        51    743.2426    940.1306 307.5944565  +6.3094554     867.8295     1294.151     822.8643     77.76329     155.4031     310.7753      1.607     5.90     844.7861     54.76831     107.4853        11     1.047     0.935 -47.28   0
        52    416.4884    933.9886 307.7303156  +6.3010970     1820.895     2988.549     3648.706     77.51603     155.1558     310.5591      1.930     4.52     845.6111     54.76831     298.2467        19     1.273     1.102  68.82   0
        53    318.1287    932.4661 307.7712002  +6.2984394     8925.438     14196.34      14642.1     77.88663     155.4649     310.7135      1.720     3.47     844.9631     54.76831      1120.25        40     1.405     1.276 -48.56   0
        54    585.4740    933.3945 307.6601808  +6.3069806     530.3728     743.7069     526.3937     77.51604     154.9701     310.6208      1.394     5.20     846.0051     54.76831      93.5993         7     0.917     0.854  45.20   0
        55    238.1957    931.4769 307.8044166  +6.2961749     6712.311     11010.09     11742.59     77.51604     154.9082     310.5591      1.785     3.66     843.3903     54.76831     839.1541        38     1.449     1.285 -42.98   0
        56    750.4147    925.9481 307.5919527  +6.3155490     654.8328     1065.029     1171.594     77.26798     155.4031     310.4663      1.736     6.32      844.452     54.76831     98.39667         8     1.333     0.841 -69.41   0
        57    566.3765    925.8931 307.6683603  +6.3094406     1289.115     2092.933     2341.148     77.88663     155.2177     310.5591      1.723     4.28     845.9156     54.76831     183.0277        16     1.119     1.094  56.28   0
        58    896.3118    921.8685 307.5315166  +6.3220857     986.4549     1647.943     2036.971     78.00977       155.65     310.7444      2.066     4.39     841.4396     54.76831     128.9741        12     1.034     0.892  81.44   0
        59    129.1867    921.8808 307.8499924  +6.2964877     592.5533     804.9884     362.0693     77.51603     155.1558     310.5281      1.143     4.02     841.6254     54.76831     96.33362         6     1.248     0.370 -29.18   0
        60    853.4808    920.7161 307.5493374  +6.3211376     679.9738     1189.719     1241.147      77.7633       155.65     310.7753      1.919     5.33     842.6895     54.76831      85.8822         8     0.992     0.809  49.28   0
        61    395.7133    920.3794 307.7393966  +6.3060213     714.4027     1035.162      622.441     77.63976     155.1558     310.5899      1.334     3.44     845.2997     54.76831     131.2387         5     0.729     0.469 -13.04   0
        62    732.9815    914.8622 307.5995608  +6.3195452     1500.768     2437.622      2676.31     77.51604     155.3413     310.5899      1.714     3.97     844.5096     54.76831      189.332        16     1.134     0.985  37.93   0
        63    556.3499    915.1185 307.6728836  +6.3135542     656.2037     747.5172     344.7601     77.88663     155.4649     310.7444      1.496     5.86     845.8154     54.76831     100.3246         9     1.379     0.701  29.15   0
        64    964.2571    911.0739 307.5036672  +6.3287995     1152.814     2331.242      3073.17     77.88663     155.3413     310.6826      2.472     6.95      839.213     54.76831     160.4233        16     1.566     1.094 -62.73   0
        65    517.7673    911.0699 307.6890371  +6.3139387     1169.719     1923.429      1536.91     77.76329     155.4031     310.7444      1.624     3.83     845.7025     54.76831     170.9028        14     1.202     0.888 -74.93   0
        66    596.5571    911.0855 307.6563260  +6.3165597     728.3159     1041.308     1003.583     77.88663     155.2795     310.7135      1.650     6.02     845.5382     54.76831     118.4192        10     1.198     0.851   3.57   0
        67    651.2341    908.3669 307.6337170  +6.3195041     2437.725     3929.065     3900.012     77.51604     155.1558     310.4663      1.711     3.84     844.8801     54.76831     313.3843        26     1.372     1.123 -46.35   0
        68    608.7141    910.5909 307.6512954  +6.3171691     535.5099     902.8908     1067.614     77.51604      155.094     310.5591      1.541     3.36     845.4704     54.76831     89.37012         5     0.735     0.447  20.48   0
        69    458.2193    908.1171 307.7138580  +6.3131705     628.3899     855.0662     923.1187     77.51603      155.094     310.6518      1.551     4.99     845.4045     54.76831     82.69916         6     1.078     0.654 -13.46   0
        70    941.8546    906.0977 307.5131342  +6.3301096     531.7416     881.4482     1674.736     77.76329     155.4031     310.9297      2.604     6.07     839.7047     54.76831     71.60803         7     1.243     0.835 -35.85   0
        71     47.7972    904.6683 307.8843586  +6.3008664     2651.596     4898.801     5120.249     77.26798     155.0321     310.4972      1.918     3.87     839.1754     54.76831     338.2487        31     1.435     1.278 -63.21   0
        72    812.4330    904.8354 307.5669096  +6.3263284     668.2355     1292.955     1481.046     77.51604     155.1558     310.4663      2.036     4.68     843.0266     54.76831     126.9996         8     1.367     0.680 -69.92   0
        73    191.5928    903.6539 307.8246978  +6.3061011     2162.372     3397.496     3850.309     77.39211     155.1558     310.4045      1.732     3.55      842.459     54.76831     299.4009        19     1.137     1.057 -69.91   0
        74     65.4239    903.7966 307.8770705  +6.3018170     1870.126     2706.673     3122.967     77.51604      155.094     310.5591      1.646     3.73     839.4841     54.76831     251.3713        17     1.163     0.954  -9.67   0
        75    645.8033    897.5321 307.6363340  +6.3237961     6539.699     10572.65     11333.18     77.26798     155.0321     310.4972      1.758     3.50     844.8048     54.76831     908.1235        38     1.411     1.274 -81.37   0
        76    330.3712    899.7831 307.7672142  +6.3123405      939.588     1377.731     1993.334     77.51604     155.1558     310.6518      1.818     3.86     844.6686     54.76831     123.1029         9     0.839     0.800   1.50   0
        77    225.5649    899.6238 307.8107299  +6.3089016      727.785     1036.168      1279.33     77.39211     155.2177     310.4972      1.592     5.17     842.8371     54.76831     80.60553         9     0.963     0.786 -73.68   0
