#   1 NUMBER                 Running object number                                     
#   2 X_IMAGE                Object position along x                                    [pixel]
#   3 Y_IMAGE                Object position along y                                    [pixel]
#   4 ALPHA_J2000            Right ascension of barycenter (J2000)                      [deg]
#   5 DELTA_J2000            Declination of barycenter (J2000)                          [deg]
#   6 FLUX_APER              Flux vector within fixed circular aperture(s)              [count]
#   9 FLUXERR_APER           RMS error vector for aperture flux(es)                     [count]
#  12 FLUX_RADIUS            Fraction-of-light radii                                    [pixel]
#  13 FWHM_IMAGE             FWHM assuming a gaussian core                              [pixel]
#  14 BACKGROUND             Background at centroid position                            [count]
#  15 THRESHOLD              Detection threshold above background                       [count]
#  16 FLUX_MAX               Peak flux above background                                 [count]
#  17 ISOAREA_IMAGE          Isophotal area above Analysis threshold                    [pixel**2]
#  18 A_IMAGE                Profile RMS along major axis                               [pixel]
#  19 B_IMAGE                Profile RMS along minor axis                               [pixel]
#  20 THETA_IMAGE            Position angle (CCW/x)                                     [deg]
#  21 FLAGS                  Extraction flags                                          
         1    954.7061     23.8390 307.5285128  +6.6978052     1875.689     3223.272     3565.584     84.38582      168.038     336.2096      1.906     5.15     975.8303     59.24475     246.6034        18     1.489     0.790 -45.25   0
         2    594.2115     19.5611 307.6785199  +6.6875490     3016.063     5619.421     5744.237     83.71767     167.9043     335.8085      1.977     4.63     985.2867     59.24475      368.988        30     1.637     1.096 -43.63   0
         3    394.5534     15.8355 307.7616445  +6.6824091     4991.415     9408.243       9920.8     83.85173     168.1048     335.9757      1.969     4.75      993.202     59.24475     597.3524        39     1.767     1.201 -44.68   0
         4    469.9084     13.1152 307.7304117  +6.6860544     824.9944     1343.822     1315.109     83.98557     168.5719     336.2096      1.805     5.59      988.949     59.24475     91.39526         9     1.067     0.825 -61.77   0
         5    642.1804     14.3073 307.6587568  +6.6913206      741.381     1487.312       1335.7      84.1192     167.8373     335.9423      2.016     6.30     984.2983     59.24475     121.5205         9     1.491     0.749 -36.83   0
         6    291.1634     10.6855 307.8047980  +6.6810717     9704.925     18797.86     20045.08     84.25262      168.038     336.1094      2.057     4.75      1003.91     59.24475     1252.962        56     1.928     1.312 -43.90  16
         7     64.6199     11.1474 307.8989530  +6.6732786       2024.8     3978.987     4521.778     83.71767     168.1048     335.9088      2.081     5.40      1001.65     59.24475     253.9303        26     1.596     1.167 -41.58   0
         8     55.9800      9.9218 307.9025861  +6.6734944     1192.195     2581.879     2729.165     83.85173     167.7704      336.076      2.064     7.20     1001.737     59.24475     154.3052        20     1.900     0.913 -49.76  16
         9    357.2848      8.7013 307.7773791  +6.6841065     1780.395     3404.128     3527.137     84.25262     168.5719     336.1762      2.012     5.71       995.92     59.24475     267.0538        24     1.696     0.985 -39.90  16
        10    674.1531     20.2814 307.6452632  +6.6899216     5887.497     10618.19     10775.82     84.25262     168.1048     336.1428      1.912     4.69     984.2747     59.24475      714.202        34     1.664     1.110 -45.50   0
        11    618.0988      4.1105 307.6691130  +6.6947263     8597.698     16039.74     17270.88     84.25262     167.0996     296.2143      1.962     4.65     984.1128     59.24475     1050.083        47     1.748     1.275 -43.00  24
        12    782.4470      3.7866 307.6008017  +6.7003453     1412.027     2379.698     2952.899      83.5834     164.1839     291.6286      1.989     5.22     979.8611     59.24475     179.3624        16     1.415     0.788 -42.43  16
        13    495.8215      4.3346 307.7199372  +6.6905464     1003.957     1746.208     1784.784     83.85173     167.6365     299.2323      1.860     5.96     988.0853     59.24475     128.5231        13     1.373     0.727 -53.27  16
        14    217.9684      2.0000 307.8355197  +6.6822033     4514.636      6915.93     7494.474     80.57286     143.6804     264.1439      1.613     4.61     1003.613     59.24475     634.2489        25     1.660     0.861 -15.56  24
        15    852.5764      1.7493 307.5717161  +6.7035242     1182.252     1712.062     1957.849     78.02333     140.0383     260.0298      1.495     5.79     978.0143     59.24475     179.5286        13     1.330     0.722 -10.82  24
        16    608.9903      1.4966 307.6729880  +6.6955012     3364.184      4318.45     4808.706     75.08907     135.8863      255.542      1.192     2.91     984.0629     59.24475     746.6236        15     1.184     0.640  -7.40  24
        17    378.7818      1.4620 307.7686885  +6.6878153     2980.633     3869.158     3728.963     74.93934     135.6381     255.0141      1.247     3.39     994.5071     59.24475     646.9225        13     1.172     0.620  -9.56  24
        18    638.4194      1.2170 307.6607634  +6.6965996     1540.825     1914.106     2209.828     71.56609     131.4326     250.7054      1.102     3.19     983.9047     59.24475     381.9626         9     1.188     0.408  -3.00  24
        19    189.4555    986.7376 307.8139156  +6.2746776      1626.28     2430.104     2653.169     84.38582     168.1048     336.1094      1.678     5.65     1019.366     59.24475     210.2411        16     1.346     0.829 -55.51   0
        20    923.3920   1024.0000 307.5077970  +6.2838074     1072.394     1340.667     1277.943     67.52862     127.6171     246.7314      0.844     2.28      1011.24     59.24475      447.562         5     1.108     0.289   0.00  24
        21    697.4986   1023.0684 307.6016600  +6.2766657     897.3044      1040.96     788.0334     80.43333     143.1322     263.2494      1.210     3.85     1016.618     59.24475     180.8821        10     0.993     0.738 -32.58  24
        22    682.5236   1023.2798 307.6078731  +6.2760789     2172.682     2797.666     2651.498     78.45401     140.0383     259.7272      1.385     4.45     1016.748     59.24475     407.7317        14     1.200     0.706 -24.33  24
        23    328.7900   1021.5165 307.7548619  +6.2649858     1759.351     2748.569     2716.567     83.85173     161.5634     287.2827      1.619     4.65      1020.42     59.24475     255.0199        18     1.505     0.786 -45.63  24
        24     77.1626    985.8228 307.8605884  +6.2712889     570.2722     1016.101     631.2393     83.85173     167.8373     335.8754      1.858     3.91     1019.058     59.24475     92.29675         5     1.357     0.322 -33.10   0
        25    588.3578    984.4216 307.6483009  +6.2889799     784.0848     1089.652     1268.246     83.85173     167.9711     335.9088      1.648     4.38     1016.856     59.24475     146.8135         7     1.220     0.448 -35.19   0
        26    728.3643    980.0155 307.5902929  +6.2954710     6636.496     10275.11     10962.06     83.85173     167.9043     335.9088      1.646     4.37     1015.043     59.24475     1003.858        33     1.669     0.952 -50.09   0
        27    780.1129    982.0669 307.5687277  +6.2963492     2324.221     3741.368     4067.729     84.38582     168.3051     336.1428      1.661     4.49     1014.398     59.24475     317.3038        21     1.488     0.871 -48.31   0
        28    514.8909    979.8806 307.6789714  +6.2884008     800.7239     1204.967     1582.806     83.98557     168.3719     336.1428      1.583     4.91     1018.443     59.24475     97.93701         9     1.255     0.543 -45.66   0
        29    197.8481    978.6417 307.8107045  +6.2783015     1332.471     2302.482     2990.579     84.25262      168.038     336.0091      1.741     5.33     1019.474     59.24475     200.6074        18     1.482     0.994 -69.03   0
        30    162.0825    979.3195 307.8255372  +6.2768226      794.338     1351.695     1017.023     84.25262     168.3719     336.2096      1.682     4.68     1019.392     59.24475     120.3568         7     0.981     0.634   6.09   0
        31     22.6861    977.4278 307.8835007  +6.2729262     2676.405     4180.152      4444.57     84.38583     167.7704     335.9423      1.775     4.33     1018.788     59.24475     401.9572        19     1.443     0.804 -45.48   0
        32    916.5455    975.1237 307.5122883  +6.3037601     6847.212     10571.51     10624.76     84.25262     168.1048     336.1094      1.644     4.46     1010.367     59.24475     975.0061        28     1.552     0.897 -44.77   0
        33    598.7182    969.9526 307.6444866  +6.2952999     646.6707     1086.778     923.2951     84.25262     168.1048     336.1428      1.930     5.46     1016.465     59.24475     96.56555         7     1.433     0.586 -23.96   0
        34    890.3713    966.7275 307.5234441  +6.3063554     1912.677     3145.118     3017.868      84.1192     168.1048      336.076      1.763     4.34     1011.421     59.24475     330.6064        20     1.505     0.840 -45.78   0
        35    611.0234    962.7092 307.6396201  +6.2987014      4629.29     7075.321     7202.815     84.25262     167.9043     335.9423      1.618     3.95     1016.107     59.24475     658.2683        27     1.526     0.911 -42.90   0
        36    749.8772    963.2278 307.5819234  +6.3031197     1398.228     2062.828       2319.1     84.11919      168.038     336.1094      1.611     4.56     1014.198     59.24475     242.5533        14     1.406     0.641 -43.78   0
        37    223.3500    962.8344 307.8006484  +6.2856826     4082.834     6612.863     6790.132      84.1192     168.1048     336.0091      1.747     4.21     1019.796     59.24475     589.0412        27     1.504     0.986 -34.46   0
        38    960.2028    962.7632 307.4945695  +6.3103163     903.0687     1382.434     1825.851     83.31421     167.9043     335.9088      1.640     4.25     1008.602     59.24475     125.4557         9     0.972     0.744 -41.59   0
        39    432.9606    961.4299 307.7136285  +6.2932798     1193.466     1703.818     1252.671     83.71767     167.7704     335.9757      1.423     3.48     1019.387     59.24475     200.3357        10     1.087     0.647 -46.72   0
        40    842.2906    959.7930 307.5436507  +6.3076176     882.2722     1289.078       1334.6     83.85173     167.7704     335.8754      1.681     5.18     1012.409     59.24475     132.5914        10     1.310     0.741 -55.96   0
        41    934.5424    957.7869 307.5053966  +6.3115172     588.9875     834.4233     1343.311      83.5834     167.9711     335.8085      1.424     4.37     1009.205     59.24475      85.3396         5     0.931     0.585 -42.72   0
        42    535.6189    955.1844 307.6711969  +6.2992900     1620.672     2737.088     2844.146     83.98557     167.8373     336.0091      1.845     4.28     1017.882     59.24475      263.575        18     1.372     0.968 -53.89   0
        43    259.0651    956.7265 307.7860205  +6.2894011     724.8351     1238.478     1265.438     84.38582     168.1048     336.1094      1.947     4.81     1020.159     59.24475     130.9954         8     1.254     0.522 -45.87   0
        44    967.0356    954.8757 307.4919968  +6.3138004     952.1949     1410.787     1166.821      84.1192     168.1716     336.1428      1.604     5.98     1008.157     59.24475     139.5632        12     1.354     0.742 -52.28   0
        45    914.8028    955.7791 307.5136642  +6.3116893     795.0468     1222.109     935.9244     83.85173     167.7704     335.8419      1.586     4.64      1009.89     59.24475     112.3091         7     1.315     0.464 -26.67   0
        46    574.6638    951.9449 307.6550876  +6.3019318     1051.856     1794.302     1491.697     84.38582      168.038     336.1094      1.646     6.06     1016.955     59.24475     167.0682        13     1.614     0.657 -52.46   0
        47     24.5094    952.3503 307.8835962  +6.2833412     790.1653     1239.461     1122.039     84.25262     167.9043     336.2764      1.629     4.36     1018.784     59.24475       124.52         9     1.072     0.777 -31.90   0
        48    254.9984    949.3477 307.7879601  +6.2923114     1233.222     2125.218     2506.273      83.5834     167.7035     335.6747      1.764     4.87     1020.201     59.24475     182.5741        16     1.423     0.822 -31.09   0
        49    722.0336    945.0461 307.5941036  +6.3096983     838.0502      1443.97      944.124     83.85173     168.1048     336.0425      1.620     5.00     1014.026     59.24475     135.0475        11     1.446     0.643 -32.68   0
        50    859.2793    941.9776 307.5371945  +6.3155391     7162.118     10936.94     11609.61     83.85173     167.7704      336.076      1.618     4.49     1010.956     59.24475     1008.073        30     1.510     0.992 -40.78   0
        51    395.2574    939.1591 307.7300443  +6.3012138      2081.83     3388.307     3782.215     84.25262     168.1048     336.1428      1.718     4.54     1019.695     59.24475     304.0073        17     1.536     0.675 -41.48   0
        52    296.8849    937.5457 307.7709616  +6.2985872     9098.051     14657.12      15290.2     84.25262     168.1048     336.2764      1.737     4.20     1020.365     59.24475     1267.389        38     1.683     0.997 -44.90   0
        53    216.9028    936.4772 307.8042209  +6.2963488     6713.762     10565.25     11116.73     83.85173     168.3051     336.1762      1.694     4.09     1020.187     59.24475     976.3702        33     1.621     0.950 -43.57   0
        54    544.8713    931.1057 307.6681682  +6.3095408     1235.038     1837.217     1809.806     84.25262     168.1716     336.1094      1.551     5.29     1017.636     59.24475     178.9474        12     1.290     0.658 -56.60   0
        55    729.1663    930.4814 307.5916325  +6.3159498     668.9103     984.5383     1139.435      84.1192      168.038     336.1094      1.649     3.65     1013.544     59.24475     125.8677         6     1.272     0.301 -18.82   0
        56    874.8211    927.3374 307.5312320  +6.3221015     1012.419     1514.602     1617.177     83.85173     168.1048     335.9757      1.841     6.00     1009.689     59.24475     184.4207        13     1.595     0.636 -46.00   0
        57    831.3694    926.0789 307.5493248  +6.3211739     707.3557     971.1385     1203.797     84.11919     168.1716      336.076      1.504     4.25     1010.542     59.24475     145.6458         8     1.472     0.350 -46.45   0
        58    178.4637    926.6145 307.8205226  +6.2991323     636.0606     962.1679     694.5258     83.71767     167.9711     335.9757      1.348     3.01     1019.905     59.24475     144.2864         6     0.896     0.443  72.97   0
        59    373.8839    925.1411 307.7393977  +6.3062864     518.7405     1082.152     1323.853     84.25262     168.1716     336.1762      2.252     5.88      1019.89     59.24475     79.86694         7     1.571     0.620 -40.39   0
        60    942.4139    922.4994 307.5033159  +6.3263491     887.1357     1344.245     1682.722      84.1192     167.8374     335.8419      1.706     5.48     1008.033     59.24475     129.3928         9     1.334     0.634 -44.83   0
        61    711.2328    920.2642 307.5994273  +6.3195703     1684.559     2751.383     3145.456      84.1192     168.1716      336.076      1.711     5.04     1013.331     59.24475     247.0703        17     1.534     0.744 -44.16   0
        62    535.1080    920.7207 307.6725752  +6.3135024     400.2447     672.5057     862.8675     83.98557     168.3719     336.1762      1.575     3.54     1017.442     59.24475     116.9631         5     1.434     0.253 -41.58   0
        63    575.2777    916.6520 307.6560262  +6.3165241     736.0766      1158.64     955.8956     84.25262     168.1716     336.1094      1.858     6.46     1016.355     59.24475     114.6622        12     1.669     0.702 -48.68   0
        64    942.6428    915.8903 307.5034435  +6.3290855     1259.784     2065.774      2285.34     84.25262     168.1048     336.1762      1.704     5.37     1007.749     59.24475     201.1361        14     1.630     0.593 -36.63   0
        65    496.5499    915.9200 307.6887548  +6.3141960     780.4739     1631.218     1907.441     84.25262     168.1716     336.1094      2.278     6.12     1017.775     59.24475     139.7052        12     1.747     0.602 -38.44   0
        66    629.9714    913.4779 307.6334134  +6.3196608     2451.135     3845.473     4179.569     84.11919      168.038     336.1094      1.727     4.84     1014.687     59.24475     372.5726        23     1.648     0.837 -46.30   0
        67    981.0827    912.9493 307.4875739  +6.3315787     747.5909     1043.616     1497.449     84.25262      168.038     336.1428      1.586     5.66     1006.069     59.24475      98.5119         8     1.337     0.675 -59.85   0
        68    919.6058    911.8864 307.5131485  +6.3299720     595.3589     871.0593     1348.502     83.71767     167.7704     335.8085      1.618     4.01      1008.33     59.24475     114.1584         6     1.059     0.434 -76.56   0
        69     26.6170    909.7427 307.8841696  +6.3010032     2643.995     4641.603     4538.108     83.71767      168.038     335.8419      1.825     4.31      1018.72     59.24475     416.3751        24     1.521     0.961 -49.11   0
        70    790.8760    909.6248 307.5667016  +6.3266184      782.578     1389.359     1224.274     83.85173      168.038      336.076      1.790     4.46     1010.858     59.24475     117.7139         8     1.204     0.470 -60.62   0
        71    169.9916    908.6225 307.8246527  +6.3062766     1934.397     3188.691     2726.017     83.85173     167.9043     335.9088      1.594     4.51     1019.969     59.24475     284.2512        15     1.405     0.673 -39.07   0
        72     43.8786    909.0067 307.8770246  +6.3018866      1829.49     2870.854     2369.506     83.85173     167.5695     335.8754      1.573     4.77     1018.913     59.24475     245.4066        18     1.543     0.792 -44.01   0
        73    907.6850    908.9614 307.5181993  +6.3307829     756.0154     1029.662      710.708     84.25262      168.038     336.1094      1.363     4.27     1008.442     59.24475     114.0232         7     0.873     0.596 -58.91   0
        74    308.8658    904.9029 307.7670919  +6.3124658     847.1483     1477.603     1558.681     84.25262     168.1716     336.1762      1.675     6.31     1020.258     59.24475     139.8334        12     1.691     0.662 -50.60   0
        75    925.9866    906.6280 307.5106750  +6.3323555      515.809     769.0778     533.8326     83.85173     167.9043     336.0091      1.341     3.11     1008.028     59.24475     100.1036         5     0.862     0.481   3.76   0
        76    204.0267    905.3269 307.8106268  +6.3087783     709.5446      1053.29     823.6938     83.85173      168.038     336.0091      1.702     5.38     1020.426     59.24475     109.8328         9     1.586     0.515 -28.99   0
        77    761.6766    903.7132 307.5790311  +6.3280860     849.7922     1186.502     1022.512     84.25262     168.4386     336.1762      1.498     5.75     1011.641     59.24475     116.9871        11     1.508     0.617 -43.72   0
