#   1 NUMBER                 Running object number                                     
#   2 X_IMAGE                Object position along x                                    [pixel]
#   3 Y_IMAGE                Object position along y                                    [pixel]
#   4 ALPHA_J2000            Right ascension of barycenter (J2000)                      [deg]
#   5 DELTA_J2000            Declination of barycenter (J2000)                          [deg]
#   6 FLUX_APER              Flux vector within fixed circular aperture(s)              [count]
#   9 FLUXERR_APER           RMS error vector for aperture flux(es)                     [count]
#  12 FLUX_RADIUS            Fraction-of-light radii                                    [pixel]
#  13 FWHM_IMAGE             FWHM assuming a gaussian core                              [pixel]
#  14 BACKGROUND             Background at centroid position                            [count]
#  15 THRESHOLD              Detection threshold above background                       [count]
#  16 FLUX_MAX               Peak flux above background                                 [count]
#  17 ISOAREA_IMAGE          Isophotal area above Analysis threshold                    [pixel**2]
#  18 A_IMAGE                Profile RMS along major axis                               [pixel]
#  19 B_IMAGE                Profile RMS along minor axis                               [pixel]
#  20 THETA_IMAGE            Position angle (CCW/x)                                     [deg]
#  21 FLAGS                  Extraction flags                                          
         1    165.9553     19.7885 307.8649848  +6.6681011     11303.89     16577.69     17107.52     80.55901     161.6336     323.1385      1.540     3.17     911.0392     57.00945     1570.218        35     1.380     1.060  53.94   0
         2    510.1741     18.0789 307.7220229  +6.6803749     3148.875     4448.713      5075.42      80.8168     161.6979     323.3637      1.507     3.16      895.502     57.00945     528.1684        23     1.364     0.926  53.08   0
         3    911.4932     17.5806 307.5552865  +6.6940154     4564.586     6126.148     6285.904      80.9454     161.5049     323.2672      1.459     3.52     889.8491     57.00945     663.6776        24     1.282     0.961  51.22   0
         4    712.4201     16.1703 307.6380523  +6.6879403     2136.949     2901.304     3102.105     80.55901     161.5693     323.2994      1.469     3.56     892.6214     57.00945     361.9319        15     1.204     0.826  49.60   0
         5    448.3499     16.3714 307.7477684  +6.6790050     1892.505      2660.06     2390.062     80.68802     161.8908     323.3315      1.529     3.02     899.3145     57.00945     292.3441        15     1.029     0.882  58.79   0
         6    976.1853     13.9832 307.5285261  +6.6976609     2222.812     2984.999     2343.971      80.8168     161.4405     323.3637      1.449     3.76     885.4715     57.00945     287.8822        14     1.139     0.814  69.43   0
         7    770.9084     13.6959 307.6138327  +6.6909191     481.7862     953.3039     648.8879     81.07378     162.2758     323.3959      1.390     5.20     891.3286     57.00945     91.95319         6     1.527     0.500  44.96   0
         8    695.6804     10.3886 307.6452024  +6.6897666     8097.852     11228.25     11444.46     80.68802     161.5049     323.2672      1.497     3.17     892.5562     57.00945     1312.837        30     1.316     1.059  42.80   0
         9    615.9020      9.6352 307.6783766  +6.6874054     4024.013     5896.792     5900.701     81.07378     161.6336     323.5888      1.544     3.17     893.7751     57.00945      579.232        24     1.337     0.915  45.91   0
        10    318.0111      9.1146 307.8021684  +6.6776225     998.7814     1507.243     1604.659     80.68801     161.5049     323.2672      1.570     4.53     910.1787     57.00945     183.6237        12     1.210     0.789  48.81   0
        11    416.0697      5.7828 307.7615378  +6.6822923     6673.818     9783.486     9772.516     80.55901     161.6336     304.6162      1.531     3.19     902.6349     57.00945     974.0366        32     1.396     1.013  59.86  16
        12     17.0782      5.3159 307.9273291  +6.6690594     9187.229     13516.27     14133.63     81.20196     162.0834     299.7288      1.556     3.35     909.5399     57.00945     1417.229        34     1.379     1.058  53.52  16
        13    662.8727      4.7383 307.6590245  +6.6910005     897.8218     1367.637     1669.086     81.20196     161.7623     292.9554      1.616     3.65     892.8168     57.00945       186.77         9     1.116     0.581  65.11  16
        14    491.9123      2.7852 307.7301261  +6.6860755      908.196     1287.627     1394.208      80.8168     148.3473     266.3653      1.408     4.34     895.4825     57.00945     142.3376         9     1.165     0.557  45.54  24
        15    312.9143      1.6285 307.8045388  +6.6805414     9087.433      11542.6     11988.92     74.52337     132.8895      248.467      1.294     3.36     910.7417     57.00945     1780.064        21     1.285     0.735  11.28  24
        16    407.7822      1.9770 307.7651096  +6.6835851     749.1867     994.8085     1225.565     77.53285     137.8828     253.9731      1.428     4.42     903.3469     57.00945     143.5452         8     0.913     0.608  45.52  24
        17     86.4741      1.6122 307.8986222  +6.6729273     2100.251     2722.438     3064.876     73.82229     132.7329     248.0481      1.371     3.25     910.4429     57.00945     404.9008        15     1.282     0.663   7.24  24
        18    898.3841    994.8096 307.5279602  +6.2901500      9098.26        14054     14877.37     80.81681     161.5049     323.3315      1.660     3.55      921.355     57.00945     1173.087        36     1.448     1.117  50.73   0
        19    736.5476   1021.8879 307.5942446  +6.2735629     1331.871     2024.833     1669.057     81.07378     152.0176     271.4704      1.596     4.02     925.2148     57.00945     206.7521        15     1.236     0.821  57.25  24
        20    560.2440   1023.6844 307.6673811  +6.2669199     1239.004     1421.997     1273.058     70.21195       128.27     243.0074      1.078     2.59     929.4568     57.00945     389.9304         7     0.886     0.571 -17.74  24
        21    253.7996    997.9980 307.7954713  +6.2672417     956.0728     1404.404     1432.221     80.42981     161.3116     323.1063      1.561     2.43     930.4609     57.00945     179.7316         8     0.790     0.646  59.60   0
        22    993.7331    990.3687 307.4885202  +6.2951657     5054.082     7634.046      7711.39      80.9454     161.7623     323.3959      1.639     3.46      918.825     57.00945     632.3131        28     1.371     1.054  58.34   0
        23    872.0335    990.8964 307.5390319  +6.2908854     12752.44     20207.98     21519.15     81.20196     161.6336     323.5566      1.689     3.47     921.5459     57.00945     1800.956        49     1.472     1.312  47.61   0
        24    584.7900    991.4656 307.6582733  +6.2810427     1548.716     2307.513     1905.143     80.55902     161.5693     323.2994      1.583     3.74     928.0874     57.00945     206.4105        16     1.222     0.866  47.83   0
        25    516.0060    989.8258 307.6868863  +6.2794150     4440.253     6343.842     6445.622     80.55901     161.5692      323.235      1.525     3.36     929.4957     57.00945     563.2141        25     1.293     0.987  61.26   0
        26    625.6597    989.0576 307.6413858  +6.2834055     1669.779      2454.67     2341.499     81.20196     161.6979     323.4602      1.546     4.04     927.0976     57.00945     213.4903        15     1.196     0.838  25.81   0
        27     50.7030    988.5397 307.8801072  +6.2643148     808.0609     1419.101     1563.079     80.81681     161.7623     323.5245      1.730     3.21     930.9081     57.00945     147.9463         7     0.831     0.643  70.44   0
        28    469.3175    986.3402 307.7063876  +6.2792887      2446.89     3398.942     2987.078     81.20196     161.8265     323.4602      1.516     3.68     929.7263     57.00945     331.1949        19     1.202     0.951  44.20   0
        29    903.7433    978.4808 307.5262822  +6.2970700      46526.3     69918.99     72980.73     81.20196     161.7623      323.428      1.657     3.45     920.8579     57.00945     6216.836        63     1.510     1.221  52.13   0
        30    210.9498    976.7516 307.8139776  +6.2745723     1817.679     2645.615     2500.144     81.07378     161.6336     323.3959      1.525     3.52     930.3029     57.00945     266.3757        18     1.199     0.922  39.14   0
        31     98.9045    976.1815 307.8605137  +6.2710389     647.7196     909.0175     452.0549     80.94539     161.5692     323.2029      1.382     4.36     929.9072     57.00945     102.8986         6     1.081     0.501  49.10   0
        32    609.9451    974.9615 307.6483840  +6.2886985     969.2053     1305.267     1067.287     81.07378     161.8265      323.428      1.439     5.18     927.1369     57.00945     170.7532        10     1.180     0.643  65.59   0
        33    749.7974    970.2487 307.5904766  +6.2953241      6981.15     10539.84     11948.59     80.42981     161.4405     323.0097      1.660     3.45     923.9253     57.00945     984.9086        38     1.576     1.238 -86.34   0
        34    801.6301    972.0947 307.5688937  +6.2962950     2522.181     3691.128     3953.078     81.20196     161.5049     323.3315      1.578     3.55     921.7203     57.00945     361.1962        21     1.292     0.974  51.49   0
        35    536.2472    969.2091 307.6791759  +6.2886044     965.5714     1352.089     1746.133     80.55901     161.6979     323.0741      1.596     5.63     928.8665     57.00945     124.0063        11     1.131     0.821  33.72   0
        36    219.3408    969.1741 307.8107496  +6.2779825     1724.419     2179.137     1976.836     80.68801     161.7623     323.2672      1.390     3.79     930.3155     57.00945     261.0149        17     1.254     0.909  43.49   0
        37    183.6145    968.5470 307.8256031  +6.2770402     912.5667     1259.201     1081.605     80.42982     161.6979     323.1707      1.553     4.11     930.1674     57.00945      132.017         8     0.922     0.684  36.31   0
        38    938.0648    965.1730 307.5124777  +6.3037096     7157.303     11203.15     11413.09     80.68801     161.6979     323.3315      1.642     3.45     919.7177     57.00945     986.0637        35     1.384     1.144  44.81   0
        39     44.1358    967.0390 307.8835601  +6.2729693     3009.362     4451.023     4456.351     81.07378     161.6979     323.4602      1.542     3.45     930.5229     57.00945     434.6967        23     1.187     1.055  56.79   0
        40     58.6065    961.3576 307.8777445  +6.2758019     475.0261     454.0714    -4.769351     80.55902     161.4405     323.1385      1.142     4.29     930.2184     57.00945      75.9339         5     1.022     0.513  46.42   0
        41    911.9461    956.8505 307.5236012  +6.3062735      2255.02     3738.782     3847.396     81.20196     161.7623     323.4602      1.778     3.67     920.1152     57.00945     305.7968        23     1.254     1.115  38.28   0
        42    632.6210    952.7851 307.6397144  +6.2986128     5047.798     7094.042     7272.212     80.81681     161.5049     323.3315      1.490     3.27     926.2789     57.00945     744.6656        28     1.307     1.025  47.84   0
        43    981.4546    952.7669 307.4948773  +6.3102793     858.0197     1524.942      2164.32      80.9454     161.7623     323.3637      1.869     5.45       918.07     57.00945     117.4388        11     1.236     0.849  40.22   0
        44    771.2487    953.0215 307.5821481  +6.3031533      1390.31     2047.244     2079.391     80.68801     161.8265     323.3315      1.606     3.79     922.9457     57.00945     204.6318        14     1.176     0.801  53.49   0
        45    244.7302    952.9689 307.8007554  +6.2855256     4914.446     6903.907     7194.919      80.9454     161.7623     323.3959      1.483     3.25     930.2747     57.00945     727.9103        22     1.172     1.007  56.58   0
        46     13.3449    950.3241 307.8969082  +6.2788324     2388.187     3202.294     3065.251     81.07378     161.7623     323.3637      1.473     3.06     930.3347     57.00945     369.3359        19     1.119     0.972  61.40   0
        47    454.5054    951.0954 307.7137236  +6.2933418     1243.234      1736.78     1227.137     81.07378     162.4039     323.3315      1.487     3.22     929.4008     57.00945      176.512        11     0.982     0.726  19.38   0
        48    864.1762    949.3953 307.5436855  +6.3077559     992.7399     1347.207     1687.349     80.55901     161.5049     323.2672      1.399     3.59      921.206     57.00945     150.6395         8     0.879     0.661  51.67   0
        49    935.9097    946.8481 307.5139864  +6.3112028     915.3494     1467.039     1495.163     81.07378     161.6336     323.5888      1.647     6.12     919.1384     57.00945      121.001        12     1.087     0.969 -15.63   0
        50    955.8036    946.8348 307.5057265  +6.3118723     576.6235     810.3248     341.6656     80.17078     161.6336     323.2029      1.398     3.87     918.5795     57.00945     85.04816         6     0.774     0.556  44.73   0
        51    280.6582    946.5635 307.7860549  +6.2893770     888.9671     1109.652     1575.953     81.07378     161.7623     323.4602      1.538     4.69     930.2499     57.00945     134.7844         8     1.052     0.651  38.51   0
        52    988.7717    944.9336 307.4921014  +6.3137573     989.7047     1991.388     2263.518      80.8168     161.6979     323.3959      2.153     5.14     917.5955     57.00945     137.7174        13     1.292     0.936 -55.35   0
        53    557.2250    945.3663 307.6712679  +6.2991502     1887.084     2322.257     2399.718     80.42981     161.5049     323.2029      1.303     3.20      927.931     57.00945     335.3372        13     1.097     0.730  48.84   0
        54    596.5187    941.7208 307.6550759  +6.3019714      1612.09     2143.833      2014.77     81.20196     162.0192     323.5888      1.477     4.53     926.9106     57.00945     235.7979        15     1.253     0.849  60.66   0
        55     45.8112    942.1429 307.8837060  +6.2833030     593.5096     715.7883     859.1132     80.42981     161.6979     323.1385      1.279     4.71     929.9163     57.00945     85.79303         8     1.281     0.491  49.14   0
        56    276.3448    939.5631 307.7880817  +6.2921220     1693.219     2434.114     3109.423      80.9454     161.7623     323.4602      1.672     4.07     930.2209     57.00945     242.9441        17     1.193     0.974  78.53   0
        57    742.9135    935.2148 307.5945106  +6.3095569     894.6133     1254.304     1062.665     80.68801     161.5049     323.3315      1.445     3.45     923.7933     57.00945      134.406         9     0.959     0.661 -26.51   0
        58    880.7670    932.1450 307.5373751  +6.3154315      7698.46      11289.6     11514.89     80.94539     161.7623     323.3959      1.578     3.26     920.4661     57.00945     1129.255        34     1.389     1.061  49.75   0
        59    416.6411    929.2267 307.7301808  +6.3010994     2307.512     3378.761     3397.444     80.68802     161.5693     323.2672      1.563     3.34     929.2934     57.00945     332.8494        17     1.223     0.867  35.59   0
        60    318.3211    927.5679 307.7710582  +6.2984838     10839.94      15003.8     15425.91      80.9454     161.7623     323.3959      1.527     3.31     929.8942     57.00945     1569.676        32     1.317     1.044  56.74   0
        61    585.3596    929.0888 307.6601338  +6.3068125     736.5936     514.0963     390.7951     81.07378     161.6979     323.4602      1.183     3.45     926.9625     57.00945     120.3427         7     0.749     0.647  50.11   0
        62    238.3657    926.4785 307.8042913  +6.2962473     7945.045      10776.9     11251.54      80.9454     161.8265     323.4602      1.495     3.26     930.1469     57.00945     1221.447        27     1.264     0.998  56.55   0
        63    566.5784    921.1564 307.6681985  +6.3094580     1350.451     1698.599      1679.92     80.55901     161.6336      323.235      1.468     3.80     927.1182     57.00945     224.3815        15     1.210     0.867  25.59   0
        64    750.8451    920.7253 307.5917037  +6.3158038      830.208      1315.72     1346.275      80.9454     161.8265     323.4602      1.518     4.37     923.2823     57.00945     116.4379         9     1.001     0.781  38.34   0
        65    896.6071    917.1129 307.5313018  +6.3221662     1210.114      1793.13     1924.707     80.55901     161.4405     323.1707      1.621     4.51     919.4644     57.00945     163.8236        11     1.006     0.825  77.45   0
        66    200.7462    917.1353 307.8202255  +6.2988396     457.8933     752.6588     631.9741     81.07378     161.6979     323.3959      1.569     4.64     930.1038     57.00945     83.17004         6     1.555     0.393  31.52   0
        67    128.7478    916.7244 307.8501318  +6.2965876     657.1016     1039.994     926.1605     81.07378     161.8265      323.428      1.483     4.22     929.8673     57.00945      100.748         7     1.105     0.459  58.36   0
        68    853.0258    916.4132 307.5494211  +6.3209994     776.7491      1312.96      1626.63      80.8168     161.5693     323.3637      1.728     3.76     920.7365     57.00945     113.0828         6     0.835     0.487   5.94   0
        69    394.9651    915.2344 307.7396518  +6.3061483     572.1083     865.9424     1103.148      80.8168     161.5049     323.1707      1.571     3.89     929.1694     57.00945     121.1711         5     0.860     0.505  44.41   0
        70    963.7991    912.5984 307.5035534  +6.3262730     661.8172     1016.997     1400.181     80.42981     161.3116     323.1063      1.468     5.07     917.2592     57.00945     113.0228         7     1.342     0.542  31.36   0
        71    825.8453    911.0096 307.5608883  +6.3223220     769.1478     872.6668     791.5036     80.55901     161.6336     323.1063      1.375     2.78     921.0873     57.00945     132.0225         8     0.825     0.641  48.98   0
        72    732.7090    910.1299 307.5995897  +6.3195713     1908.852     2519.852     2551.717     81.07378     161.8908      323.428      1.383     3.21     923.5118     57.00945     317.7783        14     1.128     0.766  50.02   0
        73    596.7903    906.7207 307.6561396  +6.3164295     1005.848      1166.72     751.3919     80.68801      161.376     323.2672      1.395     3.60     926.0076     57.00945     160.5457        10     1.128     0.617  71.58   0
        74    964.1829    905.9209 307.5036177  +6.3290425     1326.997     2118.696     2306.923     80.68801     161.5049     323.3637      1.629     4.53     917.0394     57.00945     178.2171        14     1.188     0.886  17.77   0
        75    517.7267    905.9595 307.6889931  +6.3140946     1417.621     1738.745     1825.942      80.9454     161.8265     323.4602      1.326     3.04      927.813     57.00945     191.8046        11     0.965     0.721  20.69   0
        76    651.4142    903.5341 307.6335661  +6.3195740     2753.276     3690.177     3809.309     80.55902     161.6336     323.3637      1.458     3.19     924.8669     57.00945     446.7516        16     1.161     0.843  43.92   0
        77    941.9562    901.3934 307.5129985  +6.3301698     736.0746     893.7202     1219.173     80.55901     161.5049     323.1063      1.410     5.16     917.5511     57.00945     144.0993         8     1.055     0.713  53.54   0
