#   1 NUMBER                 Running object number                                     
#   2 X_IMAGE                Object position along x                                    [pixel]
#   3 Y_IMAGE                Object position along y                                    [pixel]
#   4 ALPHA_J2000            Right ascension of barycenter (J2000)                      [deg]
#   5 DELTA_J2000            Declination of barycenter (J2000)                          [deg]
#   6 FLUX_APER              Flux vector within fixed circular aperture(s)              [count]
#   9 FLUXERR_APER           RMS error vector for aperture flux(es)                     [count]
#  12 FLUX_RADIUS            Fraction-of-light radii                                    [pixel]
#  13 FWHM_IMAGE             FWHM assuming a gaussian core                              [pixel]
#  14 BACKGROUND             Background at centroid position                            [count]
#  15 THRESHOLD              Detection threshold above background                       [count]
#  16 FLUX_MAX               Peak flux above background                                 [count]
#  17 ISOAREA_IMAGE          Isophotal area above Analysis threshold                    [pixel**2]
#  18 A_IMAGE                Profile RMS along major axis                               [pixel]
#  19 B_IMAGE                Profile RMS along minor axis                               [pixel]
#  20 THETA_IMAGE            Position angle (CCW/x)                                     [deg]
#  21 FLAGS                  Extraction flags                                          
         1      3.6632     93.1018 307.9360287  +6.6320754     738916.8      1621904      1737437     78.20776     151.9447     269.8064      2.184     8.46     843.6165     55.08135     62215.96       301     2.153     1.674 -63.95  28
         2    180.4186     19.9761 307.8650551  +6.6681679      10074.6     16304.97     17041.96     78.08353     156.1671     312.3963      1.736     3.93      837.692     55.08135     1443.313        42     1.667     1.090 -48.97   0
         3    524.6776     18.0332 307.7221041  +6.6804347     2821.063     4433.197     4666.882     78.20776     156.2913     312.4584      1.660     3.85     825.1906     55.08135     402.0016        26     1.419     1.032 -52.02   0
         4    926.1044     17.3578 307.5553525  +6.6940300     3803.988     6090.206     6171.626      78.3318     156.2292     312.6137      1.735     3.90     822.7964     55.08135     482.0075        27     1.511     0.934 -53.73   0
         5    462.8175     16.5471 307.7478529  +6.6789912     1722.284     2754.592     2680.356     77.83446     156.3534     312.2097      1.684     4.18     827.6163     55.08135     225.9727        19     1.380     0.887 -40.04   0
         6    726.8998     16.1023 307.6381556  +6.6879472     1948.371     3113.701     3324.911     78.33181     156.6636     312.3341      1.699     4.41      822.696     55.08135     288.0342        20     1.359     0.954 -48.70   0
         7    990.9316     13.4722 307.5285482  +6.6977796     1576.853     2765.648     3384.906     78.45565     156.4155     312.4895      2.162     5.73     819.5839     55.08135     235.7828        23     1.860     0.861 -53.36   0
         8    710.1437     10.2067 307.6453133  +6.6898255     6826.738     11038.51     11726.58     77.83446     156.1671     312.2097      1.732     4.07     822.7018     55.08135      914.272        36     1.537     1.094 -52.10  16
         9    630.4246      9.5552 307.6784546  +6.6874484     3592.565     5550.421     5648.376     77.83446     156.2913     312.3652      1.674     4.18     823.8114     55.08135     452.2992        28     1.479     1.007 -51.62  16
        10    332.5097      9.1106 307.8022360  +6.6777239     956.6574     1461.154     1306.436      78.3318     156.7875     312.5827      1.612     4.34     836.2912     55.08135     121.9069        11     1.037     0.817 -52.21   0
        11    430.5926      5.9013 307.7615960  +6.6823144     6243.836     9872.265     10611.76     78.08353     155.9182     295.3018      1.709     3.94     829.8788     55.08135     940.0551        36     1.551     1.093 -43.16  16
        12     31.5284      5.6787 307.9273855  +6.6690995     8151.465     13131.24     13843.82      78.5793     156.5396     293.3557      1.776     3.79     838.8164     55.08135     1115.417        41     1.541     1.184 -43.56  16
        13    677.8344      4.2097 307.6589362  +6.6912293     924.1021     1502.677     1492.542     77.83446     155.3568      276.594      1.668     4.13     822.9338     55.08135      136.629        12     1.068     0.880 -52.82  16
        14    506.0113      2.8112 307.7303670  +6.6860988     985.7965     1342.276     1229.908     78.20776     143.6008     257.9219      1.431     4.78     825.7589     55.08135     139.2999        12     1.138     0.757 -54.38  24
        15    326.7908      1.8506 307.8048546  +6.6805308     9037.292      12048.8     12756.54     73.86654     131.6801     243.0779      1.383     3.50     836.6062     55.08135     1524.359        27     1.429     0.849 -12.92  24
        16    100.6078      1.8867 307.8988160  +6.6729724     1913.392     2693.054     2691.039     73.99786     132.0483     243.7162      1.428     3.82     837.2141     55.08135     321.1037        16     1.276     0.772 -20.92  24
        17    422.0684      1.7676 307.7652754  +6.6837374     706.3561     894.4625     1522.267     73.07368     130.4951     242.1175      1.348     4.38     830.5903     55.08135     115.2664         7     0.919     0.808 -19.14  24
        18     91.6087      1.1681 307.9025785  +6.6729686     714.0717     1059.862     1363.679     65.21037     121.3991     232.2945      1.833     3.65     837.2672     55.08135     183.8803         8     1.352     0.369   2.58  24
        19   1008.9758    990.1147 307.4886421  +6.2951304     3225.816     6885.945     7659.582     78.33181     156.0427     312.3341      2.229     5.06     846.2818     55.08135     346.0842        39     1.677     1.404 -48.48   0
        20    751.6511   1021.7493 307.5944153  +6.2735516     942.1525     1884.654     1648.259     78.33181     148.2579     264.1701      1.990     6.53      853.636     55.08135      128.197        17     1.444     1.218 -59.08  24
        21    720.1606   1023.7216 307.6074220  +6.2716935     974.1465     1204.492      1683.17     67.40662     123.4609     234.3335      1.128     2.69     854.2238     55.08135     292.7262         9     1.128     0.433  -6.33  24
        22    576.1636   1023.7693 307.6671958  +6.2668968     1177.227     1607.284     1784.217     66.68257     122.5136     233.3786      1.224     4.16     858.1699     55.08135     285.0997         8     1.222     0.404  -6.02  24
        23    600.0323    991.0386 307.6583773  +6.2812031     1102.529     1909.036     2131.893     77.95909     156.1049      312.303      1.825     5.54     857.0577     55.08135     146.1076        13     1.409     0.859 -51.25   0
        24    531.4071    989.8370 307.6869051  +6.2794206     3458.002     6460.878     7283.245     77.58459     156.1049     312.2408      2.037     4.20     857.3756     55.08135      394.082        35     1.555     1.285 -35.88   0
        25    641.1186    989.3296 307.6413782  +6.2832721     1104.326     1926.606     2002.129      78.5793     156.6016     312.5205      1.773     6.41     855.9525     55.08135     146.0509        17     1.396     1.171 -55.06   0
        26     66.2277    988.6437 307.8800437  +6.2644278     865.4459     1508.705     1636.253     77.95909     156.3534     312.3963      2.001     6.37     853.8257     55.08135     100.2568        13     1.208     0.944 -62.01   0
        27    484.7556    986.3547 307.7063871  +6.2793086     1936.957     3314.359     3324.638     78.33181     156.2913     312.4584      1.836     4.65     856.9854     55.08135     223.1284        23     1.519     0.942 -55.01   0
        28    918.9786    978.3547 307.5263938  +6.2970096     31918.21     65249.96     72847.79     77.95909     156.2292     312.3341      2.169     4.62     850.9227     55.08135     3449.734        90     1.959     1.579 -51.99   0
        29    226.1492    977.0444 307.8140486  +6.2745485     1490.991     2462.854     2817.885     78.45565     156.2292     312.5205      1.809     4.45     855.7824     55.08135     171.7498        17     1.316     0.932 -64.40   0
        30    114.0974    977.0673 307.8605607  +6.2708042     545.5681     722.4507     826.6824     78.33181     156.3534     312.5205      1.549     5.80     853.9573     55.08135     87.11359         6     1.331     0.711 -80.09   0
        31    816.9125    972.0080 307.5689763  +6.2962514     1853.364     3642.218     4230.416     77.95909     155.9804     312.2408      2.132     5.05     852.6345     55.08135     208.3674        28     1.638     1.110 -65.10   0
        32    765.1497    970.2371 307.5905239  +6.2952677     5213.283     10209.95     11394.25     78.08353     156.2292     312.3652      2.086     4.79     853.3888     55.08135     638.4083        48     1.914     1.340 -65.24   0
        33    625.1924    975.0099 307.6484662  +6.2886561     597.3188     931.6253     760.6796     77.83446     156.1049     312.3963      1.749     3.97     856.1543     55.08135     84.63934         6     0.927     0.487 -53.58   0
        34    552.1783    969.3668 307.6789645  +6.2885623     739.8076     1424.003     1576.374     77.83446     156.1049      312.303      2.089     6.14     856.8041     55.08135     105.7807        12     1.369     0.813 -57.32   0
        35    234.2751    969.2819 307.8109348  +6.2780241     1254.237     2080.928     1987.239      78.5793     156.5396     312.5516      1.973     4.91     855.4988     55.08135     158.6844        16     1.330     0.898 -37.44   0
        36    199.3379    968.6561 307.8254584  +6.2771185     740.0975     1182.089     1021.334     78.45565     156.2913     312.5205      1.661     4.33      854.957     55.08135     96.00818         7     1.138     0.469 -29.51   0
        37     59.4199    967.2979 307.8835841  +6.2730137     2372.091     4016.692     4266.613     78.20776     156.1049     312.2408      1.853     4.47     853.1461     55.08135     253.9436        26     1.516     1.047 -43.76   0
        38    953.4448    965.0172 307.5125279  +6.3036567     4946.913     10129.49     11180.96     77.95909     156.1671     312.2719      2.143     4.76     849.4077     55.08135      553.723        50     1.831     1.454 -47.72   0
        39    927.0685    956.7010 307.5237539  +6.3062179       1490.7     3057.801     2976.206      78.3318     156.4155     312.4895      2.037     7.16      850.725     55.08135     176.0435        27     1.580     1.389 -26.43   0
        40    259.9258    953.2356 307.8008231  +6.2855036     3787.442     6537.881     6984.567     78.20776     156.3534     312.4895      1.829     4.26     855.1489     55.08135     474.5177        34     1.542     1.259 -49.11   0
        41    786.3383    953.1440 307.5822958  +6.3030273     1123.926     1837.155     1828.644     78.45565     156.2913     312.5205      1.691     5.07     853.0846     55.08135     142.3469        14     1.313     0.808 -54.04   0
        42    647.7640    952.8630 307.6398331  +6.2985491     3814.804     6756.126     6805.742     78.20776     156.2913     312.4895      1.879     4.34     855.2399     55.08135     423.8185        33     1.625     1.175 -42.87   0
        43    469.9260    951.2502 307.7137135  +6.2933098     1112.234     1768.527     1826.579     78.33181     156.3534     312.5205      1.720     6.34     856.5762     55.08135     144.8785        14     1.245     0.907 -63.90   0
        44     28.8698    950.6065 307.8968242  +6.2788854     1840.126      3009.76     3182.406     77.83446     155.8559     312.3652      1.731     3.94     852.2697     55.08135     253.0306        21     1.376     0.945 -72.84   0
        45    879.6038    948.6860 307.5437250  +6.3079565     720.1149     1186.131     1367.599     77.83446     155.9182     312.2097      1.696     6.16     851.3751     55.08135     94.91553         8     1.545     0.691  85.40   0
        46    572.3009    945.4650 307.6714070  +6.2990991      1569.94     2747.773     2924.333     78.33181     156.3535     312.4895      1.954     5.56     855.9994     55.08135     192.8168        18     1.449     0.833 -45.60   0
        47    295.4084    946.2986 307.7863254  +6.2895491     813.9669      1333.93     1966.982     78.08353     155.9182     312.2719      1.875     5.67     855.3953     55.08135     111.6151        10     1.045     0.867 -66.17   0
        48   1004.2025    944.3956 307.4921397  +6.3138497     612.3127     1551.514     2027.809     77.70963     155.8559     312.2719      2.720     8.92     846.7233     55.08135     105.0999        15     1.752     1.269  86.56   0
        49    951.0357    945.6131 307.5141718  +6.3115889     596.6274     975.9066     1030.348     77.83446     156.1049     312.2097      1.873     5.52      849.515     55.08135     77.21838         8     1.017     0.845   2.56   0
        50    611.9293    941.6980 307.6550812  +6.3019699     897.2312     1672.717     1639.924     78.20776     156.4776     312.5205      1.876     6.19     855.6929     55.08135      117.046        12     1.437     0.903 -76.76   0
        51     61.7871    942.4146 307.8834344  +6.2833662     699.6312     1136.946     1707.328     78.20776     155.9804     312.4273      1.882     3.46     852.4627     55.08135     84.30457         5     0.783     0.443 -19.52   0
        52     55.4554    941.5650 307.8860912  +6.2835056     489.5101     937.0021     1277.091     78.20776     156.2913     312.5205      1.788     4.92     852.3534     55.08135     82.45892         7     1.448     0.473 -53.87   0
        53    291.5753    939.6031 307.7881401  +6.2921860     1399.771     2376.023     2801.014     77.95909     155.9804      312.303      1.899     4.71     855.1973     55.08135     159.8986        15     1.209     0.943 -29.93   0
        54    558.8499    937.6940 307.6772499  +6.3018610     528.7106     661.3653      556.067     78.20776     156.1671     312.6137      1.477     3.85       855.86     55.08135     93.05066         6     1.032     0.412 -12.61   0
        55    758.6604    935.3476 307.5943778  +6.3094581     716.2144     1058.918     918.3142     78.33181     156.2292     312.4895      1.701     5.76     853.4377     55.08135     107.0063         7     1.056     0.885 -56.27   0
        56    896.0074    932.0579 307.5374670  +6.3153651     5426.381     10443.37     10956.13     77.70963     156.1671     312.2408      2.036     4.41     851.0154     55.08135      618.462        43     1.666     1.344 -46.66   0
        57    431.7156    929.4217 307.7303037  +6.3010522      1868.97      2993.25     3354.251     78.08353     155.9804     312.3963      1.763     4.12     856.3581     55.08135     272.9728        20     1.408     0.945 -51.52   0
        58    333.4818    927.7496 307.7711395  +6.2984749     8461.249        14264     15452.01     78.33181     156.3535     312.5205      1.871     4.04     855.7262     55.08135     1028.521        41     1.662     1.142 -43.04   0
        59    253.4990    926.7648 307.8043754  +6.2962186     6232.717     10441.59     11110.98     78.33181     156.1671     312.6448      1.830     4.18     854.1856     55.08135      735.104        42     1.695     1.157 -49.12   0
        60    766.3592    919.9482 307.5916935  +6.3160715     566.5635     886.1682     1040.609      78.3318     156.3534     312.4584      1.973     5.12      853.245     55.08135     84.83264         8     1.828     0.405 -81.72   0
        61    581.8727    920.8969 307.6682516  +6.3095607     942.9952     1646.624     1347.661     77.95909     156.4776     312.4584      1.842     6.27     855.4142     55.08135      124.123        13     1.165     0.949 -67.89   0
        62    911.8197    916.8138 307.5314085  +6.3221825     702.3473     1431.141     1662.343     78.08353     156.0427     312.3963      2.329     7.18     850.7513     55.08135     89.94489        11     1.355     1.066 -45.32   0
        63    410.5480    915.4307 307.7395579  +6.3061249      525.631     567.9854     318.4922     78.20776     156.4155     312.4273      1.511     4.73     855.9054     55.08135     70.92078         7     1.188     0.534 -46.08   0
        64    748.2691    910.1262 307.5995303  +6.3195274     1507.911     2567.271     3454.655     78.45565     156.4155     312.4895      2.127     5.41     853.3553     55.08135     184.5027        18     1.460     0.917 -51.39   0
        65    979.2077    906.0918 307.5037871  +6.3288386     902.4551      2089.03     2501.954     77.95909     155.9804      312.303      2.485     9.02     848.0285     55.08135     121.1478        18     1.731     1.312  75.05   0
        66    611.7081    906.7057 307.6563380  +6.3164103     566.4126      919.793      722.595     78.33181     156.7875     312.4895      1.559     4.24     855.0891     55.08135     99.95966         5     0.951     0.540 -54.94   0
        67    666.6897    903.6706 307.6336133  +6.3194878     2130.058     3632.887     3810.986     78.20776     156.5396     312.4895      1.831     4.30     854.3256     55.08135     257.6382        24     1.457     1.074 -58.46   0
        68    624.3480    906.1382 307.6511095  +6.3170641     551.0875     1148.505     1353.825      78.3318     156.2292     312.4584      1.820     4.45     854.9182     55.08135      90.6886         5     1.216     0.464  33.42   0
        69    533.4592    905.5768 307.6888607  +6.3142784     996.3788     1481.674     1659.811     77.95909     156.2913     312.3652      1.567     4.21     855.4639     55.08135     129.3088        10     0.998     0.799  55.55   0
        70    206.8394    898.9041 307.8246762  +6.3061671     2097.503     3249.355     3263.196      78.3318     156.1671     312.6137      1.633     4.53     853.0818     55.08135     247.7393        21     1.366     0.997 -65.38   0
        71     63.2893    899.9211 307.8842334  +6.3009604     2595.985     4388.042     4295.545     78.08353     156.5396     312.5827      1.783     4.33     851.4071     55.08135     300.8058        27     1.591     0.988 -56.68   0
        72    827.9458    899.3885 307.5668085  +6.3266006     627.5558     1030.804     1087.249     77.70962     156.2292     312.1786      1.820     4.90     852.0497     55.08135     83.26086         7     0.939     0.725 -66.02   0
        73     80.7727    899.1865 307.8770003  +6.3018471     1682.594     2843.955     3433.118     77.95909     156.1049     312.3963      1.924     4.44     851.7335     55.08135     237.3451        16     1.412     0.720 -48.30   0
        74    944.4097    898.1707 307.5184969  +6.3309583     559.8642     916.0873     735.2338     77.83446     156.1049     312.3341      1.628     3.47     849.6906     55.08135      72.6286         5     0.775     0.449  71.46   0
        75    661.2466    892.6441 307.6362399  +6.3238599     6239.318     10762.63     11335.63     78.33181     156.2292     312.4584      1.853     4.15     854.2575     55.08135     711.4504        39     1.587     1.202 -51.09   0
        76    346.1433    894.3552 307.7669982  +6.3126841     826.8439     1351.185     1577.213      78.3318     156.2913     312.4895      1.744     3.85     854.7594     55.08135     128.6163        10     1.064     0.696  81.23   0
        77    241.3370    895.2415 307.8104775  +6.3088287     663.0823     961.0024     1019.952     78.33181     156.2292     312.5516      1.568     3.47     853.5714     55.08135     94.54468         5     0.782     0.444  75.30   0
