#   1 NUMBER                 Running object number                                     
#   2 X_IMAGE                Object position along x                                    [pixel]
#   3 Y_IMAGE                Object position along y                                    [pixel]
#   4 ALPHA_J2000            Right ascension of barycenter (J2000)                      [deg]
#   5 DELTA_J2000            Declination of barycenter (J2000)                          [deg]
#   6 FLUX_APER              Flux vector within fixed circular aperture(s)              [count]
#   9 FLUXERR_APER           RMS error vector for aperture flux(es)                     [count]
#  12 FLUX_RADIUS            Fraction-of-light radii                                    [pixel]
#  13 FWHM_IMAGE             FWHM assuming a gaussian core                              [pixel]
#  14 BACKGROUND             Background at centroid position                            [count]
#  15 THRESHOLD              Detection threshold above background                       [count]
#  16 FLUX_MAX               Peak flux above background                                 [count]
#  17 ISOAREA_IMAGE          Isophotal area above Analysis threshold                    [pixel**2]
#  18 A_IMAGE                Profile RMS along major axis                               [pixel]
#  19 B_IMAGE                Profile RMS along minor axis                               [pixel]
#  20 THETA_IMAGE            Position angle (CCW/x)                                     [deg]
#  21 FLAGS                  Extraction flags                                          
         1    174.1269     14.6651 307.8649917  +6.6682154     11094.85     16543.73     17030.57     77.94125     155.2666     310.4406      1.560     3.61     827.1048      54.7202     1639.511        35     1.500     0.949 -38.97   0
         2    919.8426     12.2507 307.5552563  +6.6940745     4122.834     6178.549     6112.451     77.94125     155.2666     310.4406      1.566     3.80     821.3166      54.7202     617.7469        28     1.512     0.998 -49.37   0
         3    518.2111     12.8187 307.7221036  +6.6804736     2945.217     4264.025     4505.788     77.44794     154.9577      310.348      1.535     3.82     821.0554      54.7202      455.023        20     1.406     0.785 -39.07   0
         4    456.3909     11.2253 307.7478408  +6.6790691     2122.768     3157.635     3333.662     77.44794     155.0813     310.3171      1.519     3.74     822.4234      54.7202     344.5779        15     1.319     0.724 -47.62   0
         5    720.7050     10.8667 307.6380394  +6.6880256     1929.274     2767.502     2872.748     77.81821     155.4516     310.4406      1.485     4.30     820.5113      54.7202     304.3432        16     1.417     0.712 -34.66   0
         6    984.3969      8.4743 307.5285611  +6.6977768     1865.901     3093.462     2683.172     77.32412     154.7721     310.3171      1.738     4.32     819.4291      54.7202     247.3383        20     1.462     0.841 -56.04  16
         7    703.9021      5.0184 307.6452161  +6.6898810     7701.164     11425.88     11925.45     77.69498     155.1431     284.4777      1.525     3.68     820.4513      54.7202     1166.267        33     1.496     0.916 -41.21  16
         8    624.2095      4.1865 307.6783539  +6.6875707     3960.244     5736.135     6037.905     77.57156     154.0274     274.4664      1.524     3.54     820.7328      54.7202     594.7596        21     1.382     0.780 -37.90  16
         9    326.4392      3.7223 307.8020816  +6.6778272     975.8762     1333.696     1463.447     77.69498     151.3288     268.6801      1.457     3.71      828.747      54.7202     140.5846        10     1.094     0.629 -35.87  16
        10    423.6544      1.5107 307.7617671  +6.6819873     4144.302     5202.497     5083.861     69.90493     126.0419     236.5534      1.128     3.34     824.4097      54.7202     1012.831        17     1.230     0.667 -10.84  24
        11    380.0135      2.2101 307.7798746  +6.6802413     1014.947      1496.22     1500.698     76.32635     135.4234     247.3256      1.432     3.29      827.293      54.7202     153.5958        10     0.924     0.741 -57.63  24
        12     24.6208      1.4652 307.9275460  +6.6686573     4518.767     5665.808     5622.134     69.21619     125.3559     235.5385      1.130     3.00     824.5247      54.7202     1042.642        18     1.297     0.664  -6.35  24
        13    291.3838    995.3561 307.7833793  +6.2672379     14259.67     23220.36     25309.47     77.44794     155.1431     310.2245      1.820     4.03     853.8432      54.7202     1742.733        57     1.919     1.123 -38.40   0
        14    712.9263   1021.3508 307.6075158  +6.2705553     6598.821      11260.8      12220.5     77.81821     150.8849     267.8944      1.820     4.04     853.1213      54.7202     771.3853        39     1.609     1.166 -28.89  24
        15    580.3752   1023.4447 307.6624718  +6.2652791      36006.6     46590.62     48594.18     69.76772     126.5729     236.9985      1.251     3.67     855.4998      54.7202     7574.921        40     1.492     0.802  -2.50  24
        16    568.9263   1020.4685 307.6673240  +6.2661266     3787.333     6555.366     7384.934     77.94124       155.39     278.7617      1.854     4.15     855.5126      54.7202     479.8826        34     1.629     1.091 -36.89  24
        17    427.8303   1021.6252 307.7258577  +6.2609462     3561.947     5882.533      6724.98     77.32412     148.1938      263.967      1.769     4.41     855.7511      54.7202     446.1975        28     1.652     0.925 -35.50  24
        18    209.6468   1023.5099 307.8163654  +6.2528830     1405.659     1924.925     1780.832     69.63025      125.585     236.3102      1.421     3.83     853.5923      54.7202     246.0509        10     1.201     0.573  -9.81  24
        19    541.1306    996.6649 307.6796587  +6.2750287     4028.492     6678.732     7724.246     77.81821     155.3283     310.4715      1.834     4.20     855.1473      54.7202     487.5716        30     1.470     1.099 -33.58   0
        20    806.7893    995.5593 307.5694099  +6.2843247     1099.393      1876.67     1082.316      77.2001     155.0813     310.1627      1.824     6.03     851.2422      54.7202     111.3949        18     1.341     1.038 -12.14   0
        21    415.6621    995.7847 307.7317740  +6.2712093      875.229     1403.564     971.4258     77.32412     155.2049     310.2553      1.703     6.03     855.0594      54.7202     108.7977        13     1.368     0.749 -21.36   0
        22    907.0316    989.4442 307.5279983  +6.2901790     7244.742     13743.26     15133.74     77.44794     155.3283     310.3171      2.024     4.37     850.7017      54.7202     853.3407        47     1.683     1.372 -51.02   0
        23    262.9332    992.7394 307.7952775  +6.2673680     863.8449     1233.476     745.4555     77.94125     155.2049     310.4406      1.510     5.26     853.3701      54.7202     114.8937        10     1.257     0.621 -50.95   0
        24    538.4158    988.8074 307.6810485  +6.2781824     7867.674     12728.44     14011.33     77.44794     155.0195     310.2862      1.754     3.97     854.9436      54.7202     914.8804        34     1.514     1.070 -41.73   0
        25    880.6671    985.6353 307.5390705  +6.2908763     10389.91     19178.17      20671.8     77.69498     155.3283     310.5023      1.981     4.35     850.9119      54.7202     1180.385        55     1.821     1.341 -30.57   0
        26   1002.3398    985.0251 307.4885778  +6.2951661     3997.811     7750.277     8102.744     77.44794     155.2666     310.3171      2.065     4.27     846.9252      54.7202     451.0613        42     1.727     1.331 -37.68   0
        27    593.2554    985.9772 307.6583770  +6.2811776     1203.349     2146.166     2449.851     77.44794     155.2666     310.2553      2.058     5.91     854.2649      54.7202     150.3528        17     1.435     0.933 -42.00   0
        28    524.7167    984.7382 307.6868715  +6.2794061     3890.903     6341.896     6817.642     77.94125     155.2666     310.4406      1.784     4.00     854.8398      54.7202     467.8921        27     1.492     0.993 -31.78   0
        29     59.2045    983.4029 307.8801616  +6.2644097     888.2004     1278.655     1479.847      77.2001      154.834     310.2862      1.554     4.74     847.8556      54.7202     134.0929        10     1.160     0.759 -69.74   0
        30    634.7268    983.6978 307.6412367  +6.2834996     1333.292     2350.703     2560.901     77.44794       155.39     310.4406      1.884     4.50     853.7792      54.7202     160.8812        17     1.312     0.904 -10.18   0
        31    477.7835    981.4415 307.7064655  +6.2792029     2134.548     3427.956     3490.355     77.32412     155.0813     310.2245      1.734     4.76     854.7253      54.7202     274.0669        22     1.497     0.930 -31.35   0
        32    790.5716    981.2108 307.5766212  +6.2897100     347.5615     413.2032     813.8386     77.32412     155.0813     310.2862      1.289     4.29     851.3929      54.7202     63.32379         5     0.919     0.569  40.76   0
        33    387.0804    979.7863 307.7441748  +6.2768610     553.5422     918.9738     785.9316     77.44794     155.0195     310.2553      1.493     3.92       854.34      54.7202     99.71576         5     0.876     0.502 -51.91   0
        34    912.4407    973.0952 307.5262973  +6.2971089     36650.86     67200.23     72617.11     77.81821     155.2049      310.564      1.974     4.28     850.2843      54.7202     3986.527        84     1.868     1.432 -39.84   0
        35    219.7026    971.5521 307.8139340  +6.2746710      1858.38     2998.451     2804.007     77.81821     155.2049     310.5949      1.716     4.81     851.4976      54.7202     225.4593        19     1.483     0.851 -37.83   0
        36    106.6199    970.6276 307.8609080  +6.2712710     593.5193     1007.976      981.735     77.44794     155.0813     310.3788      1.924     4.43     848.4562      54.7202     108.3499         5     1.022     0.741 -77.28   0
        37    618.5504    969.7709 307.6484176  +6.2887112     846.5063      1199.61     976.2552     77.44794     155.3283      310.348      1.601     5.15     853.4896      54.7202      115.259        11     1.061     0.839 -53.84   0
        38    758.4865    964.9930 307.5904825  +6.2953396     5989.539     10391.12     11459.15     77.32412     154.9577     310.1936      1.874     4.33     851.7919      54.7202     679.2986        41     1.788     1.166 -56.00   0
        39    810.4388    966.7602 307.5688553  +6.2963367     2077.663     3716.589     3557.475     77.57156     155.3283     310.3171      1.891     4.38      851.204      54.7202     223.5146        23     1.426     1.018 -29.64   0
        40    545.5477    964.3787 307.6789045  +6.2885062     957.5491     1452.053     1676.924     77.32412     155.2666     310.2553      1.694     4.55     854.2952      54.7202     134.4539        11     1.172     0.726 -39.27   0
        41    227.9144    964.1107 307.8107747  +6.2780178     1439.808     2281.455     2320.203     77.57156     155.5748      310.564      1.594     4.09     851.2755      54.7202     200.1116        15     1.312     0.726 -29.50   0
        42    192.4119    963.1476 307.8255450  +6.2772287     708.9939     1377.379     1454.036      77.2001     155.2049     310.1627      2.068     5.45     850.2908      54.7202     92.33777         8     1.134     0.738 -54.49   0
        43     52.8539    962.1800 307.8835109  +6.2729593     2540.958     4287.248     4707.025     77.32412     155.2666     310.2553      1.784     4.07       847.43      54.7202     385.0348        27     1.606     0.972 -29.53   0
        44    946.8548    959.9463 307.5124479  +6.3036801     5595.135     10552.44     11357.27     78.06408     155.2049     310.4406      2.016     4.66     848.9006      54.7202     616.2866        44     1.706     1.332 -32.58   0
        45    203.0003    955.6418 307.8214013  +6.2806816      541.806     764.3424     550.9876     77.07589     154.9577       310.07      1.562     4.60     850.2845      54.7202      78.8028         6     1.177     0.510 -51.26   0
        46    629.5544    953.5767 307.6443903  +6.2957638     718.1482     1061.383     1311.422     77.44794     155.2666     310.3171      1.529     4.39     852.9608      54.7202     95.23291         7     0.865     0.689  20.34   0
        47    920.3905    951.5355 307.5237151  +6.3062745     1840.963     3380.388     3196.208     77.32412     155.0813     310.2862      1.906     4.85     849.6299      54.7202     215.7728        24     1.502     1.081 -54.35   0
        48    253.3890    947.8173 307.8007459  +6.2855961      4270.55     6715.327     6927.603     77.57156     154.9577      310.348      1.726     3.70      851.021      54.7202     541.8077        31     1.585     1.005 -34.19   0
        49    780.4490    947.8910 307.5819351  +6.3031309     1265.899     2171.494     1982.441     77.81821     155.0813     310.5949      1.779     5.77     851.4775      54.7202     171.8353        16     1.378     0.949 -21.51   0
        50    641.2573    947.6161 307.6397309  +6.2986144     4284.761     7017.599     7314.255      77.2001     155.2049     310.1936      1.746     4.03     852.7563      54.7202     515.6627        31     1.513     1.069 -35.94   0
        51     22.0549    945.3720 307.8968610  +6.2788675     2015.775     3378.804     4016.027     77.57156     155.3283     310.3171      1.830     4.27     846.9968      54.7202      265.029        24     1.532     1.018 -52.01   0
        52    463.7170    946.0120 307.7134906  +6.2933620     1145.748     1940.276     2134.002     77.44794     155.0195     310.2862      1.742     5.16     853.7952      54.7202     184.9707        14     1.546     0.740 -25.47   0
        53    872.7328    944.0195 307.5437514  +6.3077955     648.3676     1327.474     1171.729     77.44794     155.2666      310.348      2.077     5.79     850.5395      54.7202     94.79358         8     1.487     0.635 -11.46   0
        54    566.0065    940.0353 307.6712250  +6.2992387     1558.601     2434.417     1971.245     77.07589     155.0195     310.2245      1.596     4.06     853.3382      54.7202     219.2341        18     1.425     0.824 -39.81   0
        55    289.7728    940.8480 307.7858753  +6.2896891      773.833     1189.847      1461.85     77.44794     155.3283     310.3788      1.537     4.19     851.6544      54.7202      127.333        10     1.117     0.629 -45.15   0
        56    995.9982    939.2842 307.4927331  +6.3138417     596.7366     1282.394      1644.85     77.07589     154.8959     310.1318      2.263     6.59     846.4866      54.7202     105.6469         8     1.254     0.971 -68.79   0
        57    604.9398    936.6261 307.6551755  +6.3019429     1164.522     1608.297     1651.595     77.44794     155.2666     310.3171      1.481     4.83     852.5693      54.7202     169.4704        12     1.224     0.764 -45.20   0
        58     54.6111    936.9714 307.8836285  +6.2834259     585.2586     1041.767     1289.052     77.32412     155.0813     310.2862      2.072     4.65     847.0713      54.7202      89.6781         7     1.013     0.605 -32.15   0
        59     48.8510    936.5175 307.8860349  +6.2834204     524.8298     918.9869     1486.934     77.81821     155.2666     310.5023      1.825     3.49      847.053      54.7202     89.41583         5     1.317     0.268 -54.43   0
        60    284.9503    934.3625 307.7880947  +6.2922057     1460.571     2507.749      2803.91     77.57156     155.1431     310.2862      1.849     5.46     851.2371      54.7202     183.0735        15     1.349     0.796 -39.06   0
        61    552.7128    932.3104 307.6770022  +6.3019853     550.2411     1026.406     1013.097     77.57156      155.698      310.564      2.120     3.72     853.3535      54.7202     128.1415         5     0.978     0.407 -45.34   0
        62    889.4195    926.8094 307.5373971  +6.3154554     6144.813     10704.08     10652.17     77.44794     155.0195     310.2862      1.876     4.19     849.8853      54.7202     657.8231        41     1.592     1.269 -41.65   0
        63    751.9515    929.9979 307.5943633  +6.3095713     908.1035     1258.145     1340.406      77.2001     154.8959     310.0391      1.560     5.05     851.6885      54.7202      134.745         9     0.912     0.790 -43.77   0
        64    128.0088    928.3483 307.8534487  +6.2894424     663.8978     967.4549     1521.883     77.32412     155.1431     310.1627      1.464     5.64     847.8862      54.7202     121.2403         9     1.230     0.730 -35.55   0
        65    425.1383    924.0232 307.7302426  +6.3011541     2059.704     3313.329     3219.359     77.44794     155.2049      310.348      1.631     4.15     853.1274      54.7202     293.2614        18     1.348     0.849 -41.76   0
        66    326.9374    922.4738 307.7710625  +6.2985164     9510.452     14968.05     15272.63     78.06408     155.2666     310.4406      1.671     3.78     851.8147      54.7202     1248.519        41     1.565     1.114 -39.36   0
        67    247.0084    921.4503 307.8042790  +6.2962692     7122.406      11162.3     11512.85     77.32412     155.1431     310.1318      1.649     3.87     849.8694      54.7202     943.5201        33     1.561     0.968 -34.05   0
        68    759.2786    915.5557 307.5918032  +6.3157778     725.6101     1074.974     1337.037     77.69498     155.2666     310.4715      1.661     5.02     851.4783      54.7202     102.3524         8     1.109     0.741 -28.69   0
        69    575.2739    915.5780 307.6681951  +6.3096453     1219.177     1826.241     1892.068     77.44794     155.0813     310.3788      1.646     3.87     852.6111      54.7202     196.2638        14     1.249     0.776 -39.60   0
        70    905.2599    911.9835 307.5313146  +6.3221028     948.8763     1460.353     1577.745     77.32412     155.2049     310.1936      1.769     5.07     849.1977      54.7202     146.5646        13     1.356     0.733 -40.33   0
        71    862.2495    910.8637 307.5492088  +6.3211369     609.1505     1106.216     1224.619     77.69498     155.2049     310.5023      2.069     5.09     850.2338      54.7202     104.0888         6     1.175     0.622 -25.63   0
        72    403.7547    910.4608 307.7395742  +6.3060403      591.153     1075.478     1189.383     77.69498     155.2049     310.5023      2.156     6.42     852.3492      54.7202     82.06525        11     1.703     0.680 -35.63   0
        73    741.7401    904.8197 307.5994430  +6.3196274     1526.317      2686.71     3187.827     77.44794     155.1431     310.3171      1.797     4.11      851.669      54.7202     218.6817        20     1.345     0.999 -42.19   0
        74    565.1548    905.7644 307.6727243  +6.3133601     622.6555     997.7629     1060.788     77.57156     155.2049      310.348      1.822     4.55     852.5153      54.7202     78.70044         8     1.117     0.526 -55.01   0
        75    605.5167    901.7560 307.6561013  +6.3163594     700.8412     1229.097     1200.337     77.81821     155.2666     310.4406      1.961     5.80     852.0564      54.7202     105.0737        10     1.256     0.755 -45.09   0
        76    617.5212    901.2372 307.6511348  +6.3169733     678.5797     930.3384     745.4772     77.69498     155.3283     310.4406      1.366     5.10     851.9991      54.7202     107.0755         8     1.050     0.700 -56.28   0
        77    972.8699    900.4860 307.5036272  +6.3290939     1062.674     1570.067     2212.497     77.94124     155.5132     310.4715      1.647     4.45     846.9295      54.7202     141.1671        11     1.042     0.884  -5.00   0
