#   1 NUMBER                 Running object number                                     
#   2 X_IMAGE                Object position along x                                    [pixel]
#   3 Y_IMAGE                Object position along y                                    [pixel]
#   4 ALPHA_J2000            Right ascension of barycenter (J2000)                      [deg]
#   5 DELTA_J2000            Declination of barycenter (J2000)                          [deg]
#   6 FLUX_APER              Flux vector within fixed circular aperture(s)              [count]
#   9 FLUXERR_APER           RMS error vector for aperture flux(es)                     [count]
#  12 FLUX_RADIUS            Fraction-of-light radii                                    [pixel]
#  13 FWHM_IMAGE             FWHM assuming a gaussian core                              [pixel]
#  14 BACKGROUND             Background at centroid position                            [count]
#  15 THRESHOLD              Detection threshold above background                       [count]
#  16 FLUX_MAX               Peak flux above background                                 [count]
#  17 ISOAREA_IMAGE          Isophotal area above Analysis threshold                    [pixel**2]
#  18 A_IMAGE                Profile RMS along major axis                               [pixel]
#  19 B_IMAGE                Profile RMS along minor axis                               [pixel]
#  20 THETA_IMAGE            Position angle (CCW/x)                                     [deg]
#  21 FLAGS                  Extraction flags                                          
         1    215.9484     36.8945 307.8487133  +6.6876094     1026.326     1535.207      1013.19      81.5631     162.9319     326.1553      1.538     5.88     922.8489      57.4445     136.3045        15     1.389     0.777  48.89   0
         2    752.4751     18.0101 307.6263916  +6.7134144     4935.896     7628.716     8213.916     81.30376     162.6075     325.7017      1.623     4.45     898.0099      57.4445     843.4672        26     1.492     0.907  42.63   0
         3    239.4845     13.0188 307.8397450  +6.6982550     10461.49     16890.97     17499.83     81.30376     162.6724     325.8638      1.725     4.40     922.1587      57.4445     1460.776        40     1.643     1.036  49.83   0
         4     14.4953     10.8290 307.9333132  +6.6915776     18913.48     30034.07     31171.56     81.82162     162.7373     325.8638      1.731     4.44     924.8083      57.4445     2704.663        48     1.684     1.043  51.59  16
         5    900.6333     10.4928 307.5650729  +6.7214728     728.3507     1174.846     1825.125     81.82162     162.8671      325.961      1.964     4.66     894.7899      57.4445     112.2263         8     1.258     0.490  44.77   0
         6    755.9604      9.6106 307.6252274  +6.7169976     1567.414      2398.28     2772.845     81.04358     162.8022     325.6368      1.583     4.66     897.5714      57.4445     232.9042        15     1.436     0.677  43.13  16
         7    332.4879      8.1517 307.8012620  +6.7033923      1264.51     2214.218     2656.948     81.69246     162.8671     325.0526      1.902     6.23     917.5978      57.4445     179.5049        15     1.577     0.693  52.26  16
         8    490.5591      2.9322 307.7357497  +6.7108569     8366.604      12631.4     12745.13      81.5631     151.2351     270.7483      1.619     4.41     902.9684      57.4445     1287.229        32     1.494     0.995  45.48  24
         9    461.4093   1012.1426 307.7136423  +6.2933661     1198.557     1836.003     1952.236     81.04359     162.9319     325.6044      1.612     4.14        943.2      57.4445     191.8478        13     1.291     0.749  48.09   0
        10    943.5957   1023.6964 307.5130244  +6.3047363      1747.53     2165.214     2522.365     70.29855     128.6757      244.387      1.191     2.56     930.7685      57.4445     425.4139         9     1.068     0.454   4.25  24
        11     20.0678   1011.0670 307.8969346  +6.2789716     2178.664     3596.867     3732.169     81.69246     163.0614     325.9286      1.760     4.59     945.8661      57.4445     341.0284        22     1.515     0.893  55.73   0
        12    870.7543   1009.8783 307.5437386  +6.3080063     874.8595     1425.539     1588.118      81.5631     162.9967     325.8961      1.684     5.14     933.5884      57.4445      118.835        10     1.454     0.514  45.78   0
        13    942.1863   1007.7923 307.5141460  +6.3112533     723.5414      1145.91     1140.648     81.30376     162.7373     325.7341      1.837     5.30     930.4708      57.4445     95.81055         8     1.211     0.655  70.76   0
        14    563.7199   1006.1363 307.6713620  +6.2992757     1690.527     2575.774     1891.761     81.95058     163.0614     325.8638      1.646     4.76     942.0991      57.4445     233.6335        13     1.340     0.635  53.74   0
        15    995.7975   1006.1833 307.4919374  +6.3137070     824.0031     1494.773     1768.548     81.30376     162.5426     325.7017      2.130     4.84     930.9812      57.4445     147.7491         7     0.986     0.672 -85.91   0
        16    603.2526   1002.7527 307.6550607  +6.3019969     1127.125      1666.82     1622.056     81.82162     162.9319     325.9286      1.554     4.68      940.624      57.4445     184.1876        15     1.356     0.837  47.35   0
        17     52.8449   1002.8967 307.8836032  +6.2834476     735.2439     1188.447     1408.738     81.69246     162.8671     326.0581      1.951     5.28     945.6957      57.4445     115.3125         8     1.212     0.650  47.62   0
        18    282.6711   1000.1960 307.7882658  +6.2922948     1485.989     2494.802     3291.968     81.17377     162.6075     325.7341      2.071     5.39     944.9025      57.4445     269.2147        15     1.441     0.780  39.80   0
        19    749.9850    996.5031 307.5943407  +6.3094887     823.6355     1092.371     1406.722      81.5631     162.7373     325.6693      1.472     5.31     936.6308      57.4445     119.5033         9     1.336     0.596  43.65   0
        20    887.3417    992.8593 307.5374247  +6.3155847     6425.826     10891.94     11038.25     81.69246     162.9319     325.9286      1.824     4.41      932.454      57.4445     872.0385        35     1.642     1.064  48.48   0
        21    125.2698    994.4896 307.8538170  +6.2893559     620.7234     866.1276      505.679     81.69246     163.2556     325.8961      1.277     3.27      945.073      57.4445     100.3582         5     0.738     0.448 -22.25   0
        22     97.4870    992.1566 307.8654323  +6.2893834     485.6882     605.3442     598.3192     81.69246     162.8671     325.9286      1.378     4.65     945.4612      57.4445     72.04694         6     1.013     0.605  22.89   0
        23    423.1947    989.8673 307.7302655  +6.3012771     2054.443     3344.596     2899.145     81.17377     162.6075     325.7017      1.727     4.36      943.021      57.4445     329.5126        21     1.524     0.844  57.16   0
        24    324.8570    988.3743 307.7711500  +6.2985913     9568.385     15026.24      15717.6     81.30376     162.9967     325.7341      1.668     4.27     944.8442      57.4445     1367.422        34     1.532     0.987  51.24   0
        25    244.9937    987.2516 307.8043502  +6.2963706     6912.947     11037.73     12045.03     81.17377     162.8022     325.5396      1.681     4.19      944.627      57.4445      1058.97        34     1.567     1.024  50.67   0
        26    163.5443    986.0413 307.8382116  +6.2941306     549.3472     838.4004     777.2722      81.5631     162.9319     325.9286      1.466     4.80      944.519      57.4445     85.42657         5     1.061     0.616 -13.71   0
        27    757.5036    981.8376 307.5917140  +6.3157930     783.4683     1183.743      1997.02     81.69246     162.8671     326.0581      2.275     6.10     936.0455      57.4445     122.2537        10     1.606     0.887  57.99   0
        28    573.1984    981.9201 307.6682457  +6.3095879     1077.352     1566.639     979.5254     80.91319     162.4126     325.6693      1.633     4.92      941.103      57.4445     206.0576        11     1.448     0.569  35.38   0
        29    135.6441    977.7687 307.8500776  +6.2966059     601.8422     786.2113     663.4991     81.30376     163.0614     325.7665      1.536     4.42     944.7705      57.4445     92.59973         6     1.160     0.478  42.84   0
        30    859.4581    976.6648 307.5495504  +6.3213369     648.9969     977.8049      1107.16     81.82162     162.9319     325.9286      1.746     5.41     933.4444      57.4445     91.96753         9     1.436     0.575  34.55   0
        31    739.4463    970.9735 307.5995797  +6.3196727     1639.738     2613.826     2709.632     81.30376     163.0614      325.799      1.651     4.56     936.3901      57.4445     273.1679        13     1.286     0.683  52.49   0
        32    903.2155    978.4033 307.5313205  +6.3220814     968.5865     1698.393     1892.522     81.30376     162.6075     325.7341      2.002     6.70     931.4484      57.4445     122.5876        14     1.537     0.820  37.63   0
        33    970.8105    967.1295 307.5036302  +6.3289916     1080.012     1786.957     2741.547     81.17377     162.6724     325.7341      2.312     5.52      929.249      57.4445     154.3836        16     1.546     0.829  59.47   0
        34    340.0710    968.2932 307.7655137  +6.3073900     525.4704     870.8858     732.4095      81.5631     163.0614     325.9286      1.695     4.25     944.5649      57.4445     104.7193         6     1.097     0.468  67.54   0
        35    603.8653    967.4766 307.6559999  +6.3165765     839.7593     1297.459     1205.161     81.82162     162.9967     325.8638      1.733     5.66     939.6933      57.4445     117.7661        11     1.088     0.830  50.49   0
        36    524.4911    966.6608 307.6889883  +6.3142529     1214.715     1729.727     1822.845      81.5631     163.0614      325.961      1.736     5.44      941.879      57.4445      209.545        15     1.455     0.762  61.90   0
        37    657.9208    964.2114 307.6336630  +6.3197347      2337.29      3813.74     4123.359     81.30376     162.6724     325.7341      1.730     4.76     937.9532      57.4445     333.6899        20     1.496     0.851  56.78   0
        38    947.9811    962.5110 307.5132665  +6.3301356     553.6487     1065.232     1413.509     81.43353     162.7373      325.799      2.249     5.42     929.6293      57.4445     75.05511         7     1.497     0.553  31.26   0
        39     72.1167    959.8260 307.8770662  +6.3018721     2093.032     3388.124     3646.745     81.69246     162.7373     325.8314      1.683     4.35     944.7792      57.4445     304.1299        19     1.474     0.884  64.13   0
        40     54.6074    960.3593 307.8843184  +6.3010622      2801.99     4514.924     4817.112     81.04359     162.7373      325.572      1.757     4.52     944.7792      57.4445     410.6743        22     1.516     0.913  66.07   0
        41    818.9264    960.4416 307.5669297  +6.3266778     739.6102     1202.667     765.7286      81.5631     163.0614     325.9286      1.880     5.61     934.0583      57.4445     137.3046        10     1.442     0.614  45.26   0
        42    198.1418    959.3757 307.8247515  +6.3062996      2217.92     3498.578     3355.214     81.30376     162.9967     325.7665      1.705     4.13      944.519      57.4445     356.8271        21     1.501     0.851  46.27   0
        43    936.3690    959.8153 307.5181797  +6.3308604     611.3303     1027.158     1016.565     81.30376     162.7373     325.8314      1.753     3.41     929.8741      57.4445     85.91516         5     0.752     0.447 -72.45   0
        44    337.4627    955.4868 307.7670313  +6.3125878     904.1731     1250.269     1123.365     81.82162     163.1909     325.9286      1.566     5.13     944.4071      57.4445     122.6088         9     1.168     0.638  37.12   0
        45    232.5151    956.3661 307.8105805  +6.3086977     767.3434     1087.293     398.1688     81.69247     162.8671     325.8638      1.469     4.11     944.5391      57.4445     153.3771         6     1.052     0.458  37.97   0
        46    790.7806    954.9265 307.5788042  +6.3280129     628.8983     1245.884     1041.455     81.30376     162.9319     325.8314      1.828     3.45     934.6782      57.4445      94.6842         5     0.759     0.459  74.30   2
        47    652.5408    953.4482 307.6362612  +6.3239968     6998.616     10861.26     11056.03     81.69247     162.9967      325.961      1.710     4.69     937.9175      57.4445     1104.626        30     1.575     0.913  49.00   0
        48    890.4087    949.8348 307.5376028  +6.3334445     2609.213      4101.71     4236.387     81.17377     162.8022     325.7017      1.714     3.88     931.7242      57.4445     425.2826        23     1.533     0.885  52.70   0
        49     12.4607    951.7206 307.9021128  +6.3032075     1291.697     2125.276     1843.291     81.82162     162.9967     325.8961      1.755     5.44     944.6087      57.4445     185.4564        12     1.234     0.676  47.50   0
        50    442.2864    950.8646 307.7236596  +6.3180148     616.0555     1023.672     1156.202     81.69246     163.1909     325.9286      1.664     4.16      942.683      57.4445     105.1812         6     1.416     0.349  44.98   0
        51     25.6174    950.2477 307.8966999  +6.3042587     1021.117     1464.459     1585.447     81.17377     162.9319     325.6693      1.575     5.40     944.5661      57.4445     181.0145        10     1.326     0.696  47.18   0
        52    335.5368    946.5488 307.7681342  +6.3162119     16223.29     24952.03     26276.97     81.69247     162.9319     325.8638      1.702     4.44       944.31      57.4445     2566.491        41     1.635     0.978  51.09   0
        53     70.1454    947.4851 307.8783045  +6.3068988     1324.578     2192.165     2215.795     81.69246     162.9967     326.0581      1.679     4.68     944.5021      57.4445     229.5651        16     1.439     0.827  59.70   0
        54    206.3478    946.1638 307.8217929  +6.3120283     1147.235     2009.373     1943.832      81.5631     162.9967     325.9286      1.884     5.25      944.519      57.4445     157.9149        14     1.252     0.867  46.30   0
        55    413.4926    937.9539 307.7360541  +6.3223769     949.0615     1419.176     1359.185     81.69246     162.9319     326.0258      1.603     5.89      943.022      57.4445     142.5386        13     1.533     0.638  58.13   0
        56    665.1926    938.7502 307.6315043  +6.3304866     560.4681      1113.29     1616.512     81.17377     162.7373     325.5396      1.683     3.45     937.3558      57.4445     91.70624         5     0.977     0.351  44.40   0
        57     99.0174    937.1538 307.8666671  +6.3121348     1753.973     2537.624     2407.842     81.17377     162.8671     325.6368      1.532     4.08     944.2962      57.4445     295.0533        16     1.338     0.799  56.64   0
        58    494.0129    934.5656 307.7027318  +6.3264770     657.2277     1021.187     1081.569     81.17377     162.8022     325.7665      1.657     4.28     941.6812      57.4445     105.0217         6     1.029     0.626  51.89   0
        59    666.8877    933.8578 307.6309659  +6.3325626     754.0152      1504.71     1878.746     81.69246     162.9319     326.0258      1.999     4.96     937.2275      57.4445     140.8843         7     1.350     0.515  45.66   0
        60    880.6969    931.3568 307.5422594  +6.3407463     1829.822     2638.262     2345.965     81.69246     162.9319     326.0581      1.602     3.91     931.8365      57.4445     295.3972        17     1.379     0.772  53.75   0
        61    851.3825    931.0463 307.5544437  +6.3398949     1961.881     3087.781     2911.472     81.17377     162.8671     325.6368      1.694     4.11     932.8652      57.4445     340.7248        19     1.539     0.857  56.78   0
        62    814.8089    930.3180 307.5696568  +6.3389729     2947.862     4696.414      5228.54     81.30376     162.6075     325.7341      1.683     4.56     933.8315      57.4445      415.437        22     1.584     0.822  46.64   0
        63     82.4860    930.8135 307.8737472  +6.3141948     2476.056     3638.882     3948.823     81.30376     162.8022      325.799      1.586     4.48     944.1611      57.4445     395.7151        19     1.437     0.796  56.77   0
        64    330.2796    928.5661 307.7709275  +6.3234569     815.6984     1182.962     1511.116      81.5631     162.9967     325.9286      1.569     5.91     944.1351      57.4445      146.649        11     1.515     0.648  60.13   0
        65    550.6763    921.8082 307.6796332  +6.3336422     332161.9     517762.2     542646.6     81.30376     162.4776     325.6693      1.682     5.04     940.0372      57.4445     49656.48       161     1.794     1.200  52.56   4
        66    638.4095    924.9474 307.6430936  +6.3352864     949.9762      1548.86     1205.443     81.04358     162.8671     325.6368      1.755     5.36     937.7746      57.4445     168.8096        13     1.494     0.656  68.53   0
        67    394.9117    924.4037 307.7442294  +6.3273454     7608.537     11853.31     12259.43     81.17377     162.6724      325.572      1.662     4.29     943.1235      57.4445     1116.359        27     1.524     0.879  51.15   0
        68    338.1063    922.7802 307.7678736  +6.3261078     12493.79     19384.22      20731.2      81.5631     162.8022     325.7341      1.658     4.23     943.9166      57.4445     1878.658        38     1.586     0.990  54.26   0
        69    889.1310    918.0304 307.5392065  +6.3465283     5003.628     8167.506     9211.561      81.5631     162.9967     325.8638      1.709     4.26     931.2299      57.4445     699.6013        31     1.624     0.966  53.32   0
        70    656.5237    919.1006 307.6357689  +6.3383061     3521.637     5314.099     5478.966     81.17377     163.1262     325.8961      1.660     4.36     937.1461      57.4445     546.3405        24     1.501     0.897  50.84   0
        71    728.3126    915.5334 307.6060768  +6.3421815     768.0867     1289.151     1514.055     81.69246     163.1909     325.9286      2.183     6.07     935.3663      57.4445     129.4332        10     1.460     0.709  76.64   0
        72    631.4409    913.2159 307.6463843  +6.3398948     3188.761      4955.58     5674.937     81.17377     162.7373     325.6693      1.744     4.22     937.6279      57.4445     512.0151        27     1.656     0.894  54.09   0
        73   1022.3541    912.1341 307.4840786  +6.3534100     4381.152     6838.385     7256.953     81.69246     147.9884     266.5821      1.679     4.23     924.9263      57.4445     622.6835        26     1.468     0.993  58.10  24
        74    819.9193    912.4428 307.5681381  +6.3465213     1610.527     2638.346     2766.215     81.69246     162.9967     325.8638      1.672     4.76     933.2222      57.4445     252.7267        17     1.537     0.734  54.63   0
        75    621.8487    912.1270 307.6504046  +6.3400229     1030.058     1545.218     2027.151     81.69246     163.0614     325.9286      1.679     4.89      937.821      57.4445     164.8387        10     1.301     0.596  43.31   0
        76    947.1185    911.4402 307.5153471  +6.3511851     773.8427     1260.699     1210.402     81.69246     163.0614     325.8314      1.752     6.23     928.6577      57.4445     140.4534         8     1.187     1.062   9.01   0
        77    624.3264    907.7850 307.6495226  +6.3418979     2056.252     3287.653     4353.894     81.17377     162.7373      325.799      1.812     4.12     937.6639      57.4445     338.2582        18     1.484     0.730  49.81   0
