#   1 NUMBER                 Running object number                                     
#   2 X_IMAGE                Object position along x                                    [pixel]
#   3 Y_IMAGE                Object position along y                                    [pixel]
#   4 ALPHA_J2000            Right ascension of barycenter (J2000)                      [deg]
#   5 DELTA_J2000            Declination of barycenter (J2000)                          [deg]
#   6 FLUX_APER              Flux vector within fixed circular aperture(s)              [count]
#   9 FLUXERR_APER           RMS error vector for aperture flux(es)                     [count]
#  12 FLUX_RADIUS            Fraction-of-light radii                                    [pixel]
#  13 FWHM_IMAGE             FWHM assuming a gaussian core                              [pixel]
#  14 BACKGROUND             Background at centroid position                            [count]
#  15 THRESHOLD              Detection threshold above background                       [count]
#  16 FLUX_MAX               Peak flux above background                                 [count]
#  17 ISOAREA_IMAGE          Isophotal area above Analysis threshold                    [pixel**2]
#  18 A_IMAGE                Profile RMS along major axis                               [pixel]
#  19 B_IMAGE                Profile RMS along minor axis                               [pixel]
#  20 THETA_IMAGE            Position angle (CCW/x)                                     [deg]
#  21 FLAGS                  Extraction flags                                          
         1    194.4247     16.4722 307.8553525  +6.6676479     832.2077     1282.967     665.3605     77.91198     156.0727     312.2385      1.757     5.91     834.0491     55.04807     110.1292        12     1.460     0.674  66.97   0
         2    171.6538     13.7221 307.8649044  +6.6680138     10998.22     16602.34     17067.92     78.40824     156.1969     312.3317      1.628     4.07     833.9041     55.04807     1462.324        36     1.559     0.951  57.68   0
         3    917.3030     11.4880 307.5552228  +6.6940298     4286.082      6391.89     6518.325     78.28447     156.6309     312.3317      1.618     4.10     821.4744     55.04807     633.9625        26     1.484     0.870  61.14   0
         4    515.9352     11.9014 307.7219488  +6.6803757     3022.347     4460.014     4998.092     78.28447      156.259     312.3317      1.566     4.14     825.3108     55.04807      402.934        20     1.433     0.779  53.60   0
         5    718.0909     10.1214 307.6380283  +6.6879086     1982.396     2883.434      2994.05     78.03634      156.445     312.3627      1.517     4.53     824.3604     55.04807     294.9733        18     1.541     0.702  56.94  16
         6    454.1246     10.2216 307.7476826  +6.6789876     1885.407      2731.88     3058.857     77.91198     156.0727     312.2385      1.576     3.57     826.4203     55.04807     269.2526        16     1.293     0.736  55.38   0
         7    982.0215      7.7796 307.5284604  +6.6977293     2086.925      3448.52     3284.286     78.03634     156.1348     309.7441      1.702     3.98     818.4221     55.04807     338.3323        21     1.411     0.993  76.65  16
         8    701.5024      4.3230 307.6451146  +6.6897446     7580.565     11462.75     11309.42     77.91198     155.9484     277.8614      1.607     4.26      824.288     55.04807     1128.216        29     1.487     0.869  52.68  16
         9    621.7607      3.4609 307.6782706  +6.6874201     3999.034     5964.116      5787.67     78.28447     150.1188     266.9326      1.609     4.24     824.8748     55.04807     535.6527        23     1.411     0.910  54.73  24
        10    323.6061      3.1117 307.8021413  +6.6775227     1053.471     1579.821     1989.355     77.78741     146.4568     261.9085      1.645     4.40     833.6258     55.04807     168.9864        13     1.275     0.663  53.47  24
        11    422.4550      1.3651 307.7611371  +6.6815762     2788.369     3470.046     3411.141     68.36607     124.4817     235.4719      1.063     2.57     827.4722     55.04807     717.0479        14     1.216     0.609   3.69  24
        12    377.0750      1.7366 307.7799761  +6.6798933     636.5264     818.8108     804.1648     73.02951     130.1185     241.4496      1.342     3.56     831.0708     55.04807     131.4001         5     1.097     0.333  43.03  24
        13     23.3876      1.2358 307.9269150  +6.6681547     2412.414     2774.853     2912.147      66.4966     122.5187     233.1544      0.997     2.41     833.5223     55.04807      672.185         9     1.008     0.424   0.79  24
        14    535.4220    987.9549 307.6810166  +6.2781521     8779.681     13324.87     14761.38     77.91198     156.1969     312.1454      1.645     4.15     857.6003     55.04807     1130.297        35     1.569     0.958  54.88   3
        15    971.4744   1023.0096 307.4988353  +6.2783157     528.3245     772.8938     1447.705     74.99478     133.3573     245.3934      1.609     4.54     852.2933     55.04807     84.11011         7     0.987     0.594  30.35  24
        16    883.2838   1023.6507 307.5354219  +6.2750966     750.6635     856.1749     783.0752     68.50776     124.4038     235.2247      0.921     2.31     854.9935     55.04807       191.83         5     0.657     0.477   0.07  24
        17    709.9166   1020.6095 307.6074881  +6.2705365     7303.018     11617.69      12257.3     77.91198     155.7617     278.5933      1.698     4.09     857.0381     55.04807     927.3901        32     1.539     1.004  59.92  24
        18    576.5989   1023.0645 307.6627444  +6.2650445     59122.14     71756.38     74332.53     74.21492     132.3354     244.4035      1.259     3.19     858.0738     55.04807     9688.362        53     1.332     0.950  14.62  24
        19    424.6616   1020.7263 307.7258895  +6.2608984     4106.011     6373.561     7323.172     78.40824     155.5748     277.4423      1.721     4.18     858.6823     55.04807       563.99        28     1.553     0.882  61.39  24
        20    206.5351   1022.8757 307.8163551  +6.2526603     2093.397      2865.76     3125.634     76.40386     135.4496     247.5181      1.506     3.75     856.6453     55.04807     275.9932        15     1.116     0.843  36.36  24
        21    508.6437    996.9943 307.6918282  +6.2735203     1183.774     1772.485     1429.674     77.66266     155.8862       311.99      1.538     3.93     857.9614     55.04807     168.4794        15     1.278     0.743  51.16   0
        22    288.2513    994.5047 307.7833935  +6.2671264     15555.52     23583.85      24938.4      78.1605     156.1348      312.549      1.654     4.07     859.0861     55.04807     2016.524        46     1.574     1.046  56.94   2
        23    292.1615    991.2532 307.7818800  +6.2686002     1185.724     1908.268     2075.586     78.28447      156.259     312.3006      1.787     5.45     859.0088     55.04807     139.9292        11     1.203     0.697  74.87   3
        24    742.6745    995.2151 307.5947423  +6.2821182     8126.056     12626.32     13369.29     77.78742     155.9484     312.1764      1.656     3.98     855.3513     55.04807     1091.078        30     1.495     0.956  56.38   0
        25    804.0566    994.5861 307.5692834  +6.2844373     1095.126     1534.435     1388.946     77.66266     156.0727       311.99      1.627     5.62      854.423     55.04807     156.5554        13     1.314     0.745  40.81   0
        26    412.8286    994.7858 307.7316742  +6.2712073     1028.945     1680.758     2128.339     77.91198     156.0105     312.2075      1.720     5.60     858.2667     55.04807     148.5561        13     1.429     0.813  31.58   0
        27    259.4060    991.7258 307.7954602  +6.2673008     1088.318     1595.034     1447.236     77.91198     155.7617     312.2075      1.648     4.89     857.8643     55.04807     142.9141        13     1.218     0.850  40.83   0
        28    904.1592    988.7626 307.5279250  +6.2901971     8452.347     14042.59     14926.61     78.03634     156.1969     312.1764      1.773     4.20     853.8118     55.04807     1063.149        40     1.625     1.090  54.90   0
        29    877.7313    984.8467 307.5390268  +6.2909278     12329.39     20233.85     21752.04     78.28447     156.1348     312.2696      1.768     4.06     854.0238     55.04807     1542.525        51     1.671     1.223  51.70   0
        30    999.3933    984.3560 307.4885394  +6.2952058     4679.705      7802.71     8207.846     77.78742     155.9484       311.99      1.784     4.45     850.5793     55.04807      544.989        32     1.628     1.041  48.65   0
        31    590.5196    985.3723 307.6582325  +6.2810706     1600.098     2435.292     2833.057     78.16051     156.0105     312.3006      1.740     4.47     857.6961     55.04807     219.7136        16     1.333     0.781  48.81   0
        32    521.9269    983.8297 307.6867570  +6.2794010     4464.903     7025.812     7896.359      78.1605     156.1969     312.2696      1.735     4.18      857.666     55.04807     607.4709        27     1.571     0.957  47.20   0
        33    631.5451    983.1402 307.6412778  +6.2833706     1590.096     2090.257     2161.122     78.40824     156.1969     312.2696      1.516     3.60     857.5419     55.04807     222.5567        15     1.209     0.772  60.98   0
        34     56.3137    982.2445 307.8800780  +6.2643593     906.9657     1293.839     1291.179     78.28447     156.0727     312.3006      1.619     5.55     854.5604     55.04807     123.6357        11     1.273     0.681  64.52   0
        35    474.9328    980.1060 307.7063893  +6.2793571     2322.197     3414.394     3729.676      78.1605      156.383     312.3006      1.538     3.80     857.9327     55.04807     318.8411        18     1.290     0.807  46.93   0
        36    383.4199    978.6734 307.7444238  +6.2768676     494.0013     669.8921     684.6885     77.91198     156.1348     312.2385      1.376     3.50     858.3313     55.04807     73.46863         5     1.085     0.325  68.98   0
        37    909.4626    972.4503 307.5262698  +6.2971081     44249.43     69822.85      74487.2     78.28447     156.1348     312.3627      1.752     4.24     853.2266     55.04807     5552.776        76     1.741     1.202  56.87   0
        38    314.5168    973.9116 307.7731850  +6.2765117     597.0239      881.379     932.3647     78.03634      156.383     312.3317      1.409     3.68     858.5298     55.04807     130.9194         5     1.104     0.418  74.49   0
        39    216.6076    970.5754 307.8139380  +6.2745873     1786.915     2736.687     2435.379     77.78742     156.0727     312.1454      1.681     4.20     856.2516     55.04807     239.1986        19     1.421     0.897  55.41   0
        40    615.7435    968.8906 307.6483157  +6.2887215     930.3292     1321.295     1047.603      78.1605     156.0727     312.3938      1.504     4.96     857.4511     55.04807     133.2981        11     1.317     0.582  56.58   0
        41    104.5464    969.2945 307.8604954  +6.2713337     734.5435     914.1315     693.7994      78.1605     156.1348      312.549      1.373     5.25       855.03     55.04807     108.6545         8     0.998     0.779  73.11   0
        42    807.3575    966.0699 307.5688692  +6.2963187     2427.667     3476.887     3497.042      78.1605     156.1969     312.3627      1.539     3.95     853.7659     55.04807     305.1385        17     1.297     0.797  59.68   0
        43    755.6102    963.9941 307.5904199  +6.2954395     6813.765     10831.13     12013.92     77.78741     156.0105     312.1764      1.754     4.06     854.5822     55.04807     906.1912        34     1.586     0.996  51.38   0
        44    542.4725    963.4808 307.6789126  +6.2884913      1092.64     1485.084     1303.267     78.53181      156.445     312.3317      1.464     4.39     857.2996     55.04807      153.265        12     1.173     0.724  48.24   0
        45    224.9198    963.1373 307.8107386  +6.2779379     1461.538     2013.092     1636.258     78.40824      156.259     312.3006      1.483     5.35     856.2498     55.04807     213.2759        12     1.274     0.635  65.44   0
        46    189.3625    962.5280 307.8255184  +6.2769897     919.7995     1356.364     1354.707     78.16051     156.1969     312.3627      1.869     4.75     855.9115     55.04807     152.3539        10     1.345     0.587  62.52   0
        47     49.8333    960.9390 307.8834875  +6.2729342     2728.647      4129.93     3946.433     78.03634      156.259     312.2385      1.590     3.99     854.3721     55.04807     379.5848        21     1.398     0.863  60.32   0
        48    943.7976    959.2330 307.5124592  +6.3037142     6550.379     10700.69     11222.81      77.5377     156.0105     312.0832      1.747     4.25     852.0572     55.04807     765.7906        35     1.580     1.042  57.32   0
        49    626.3522    953.2250 307.6444381  +6.2955442     733.9329     1005.285     785.6967     77.91198     156.1969     312.2075      1.568     5.20     856.9755     55.04807     114.6929        10     1.139     0.670  48.45   0
        50    917.5569    950.8935 307.5236317  +6.3062774     2085.354     3310.633     2995.732     78.28447     156.1969     312.4248      1.667     4.64     852.4122     55.04807     291.2738        20     1.504     0.866  60.56   0
        51    638.2370    946.7524 307.6397220  +6.2986152     4739.033     6875.732         7281      78.1605     156.1969     312.2385      1.593     4.39     856.5768     55.04807     660.5931        23     1.463     0.822  54.74   0
        52    250.4516    946.8428 307.8006901  +6.2855247     4592.925     6765.903      6997.92     78.28447     156.1969     312.3317      1.620     4.15     856.7263     55.04807     599.4409        26     1.496     0.907  54.95   0
        53    777.0691    947.1746 307.5820761  +6.3031022     1183.326     1957.041     2456.221     77.91198     156.0727     312.2385      1.612     4.01     853.8381     55.04807     216.2697        12     1.411     0.595  57.14   0
        54    987.2637    946.2794 307.4948489  +6.3105168      633.498     920.0637     976.4145     78.53181      156.259     312.3006      1.490     5.66      850.726     55.04807     93.28143         6     1.200     0.751 -58.08   0
        55    460.4072    945.1346 307.7135953  +6.2933032     1211.923     1644.516     1060.048     77.78742     155.9484     312.1454      1.410     4.15     857.2893     55.04807     197.6558        11     1.182     0.649  52.09   0
        56     19.1800    944.1726 307.8967773  +6.2788186     2124.311     3267.978     3292.109     77.91198     156.0105     312.2075      1.595     3.95     854.1617     55.04807     296.9684        18     1.348     0.833  55.42   0
        57    870.1373    943.5000 307.5435645  +6.3077401     1036.373     1460.101     1345.629     78.03634     156.1969     312.3317      1.542     4.93     853.1288     55.04807     154.9303        11     1.234     0.807  51.32   0
        58    961.7941    941.4696 307.5055831  +6.3116493     507.1166     556.7932     784.6453     77.78742      155.824     312.1454      1.246     4.71     851.1933     55.04807     84.09955         6     0.938     0.671 -82.02   0
        59    286.2920    940.6774 307.7860208  +6.2892780     1020.451     1393.391      2189.94     78.03634      156.445     312.3317      1.736     5.68     857.4675     55.04807      159.076        11     1.066     0.852  85.49   0
        60    994.1116    939.3298 307.4922387  +6.3136147     886.8358     1452.085     1851.731     78.28447      156.445     312.3006      1.756     5.76     850.5293     55.04807     154.9896        11     1.247     0.816  66.64   0
        61    199.9503    954.7559 307.8213857  +6.2805550     637.7683     930.8392     682.8862     78.28447     156.0727     312.3317      1.727     5.31     855.9408     55.04807     86.88843         8     1.226     0.649  48.12   0
        62    562.8810    939.1625 307.6712583  +6.2992154     1824.273     2657.254     2671.413     78.28447      156.259     312.2385      1.560     4.97     857.0829     55.04807     249.2305        15     1.395     0.671  56.72   0
        63    602.1014    935.6713 307.6550946  +6.3019749      1384.14     2203.566     1851.487      78.1605      156.383     312.2696      1.681     4.71     857.0792     55.04807      211.833        14     1.319     0.840  62.11   0
        64     51.8621    935.8821 307.8834917  +6.2833451     759.8208     977.7286      1173.62     78.40823     156.1969     312.2696      1.630     5.67     854.2574     55.04807     103.4753        11     1.190     0.761  41.11   0
        65    281.8350    933.4564 307.7881142  +6.2921083     1507.545     2156.723     2543.443      78.1605     156.1969     312.3317      1.646     4.48     857.1553     55.04807     204.9507        15     1.301     0.755  48.10   0
        66    549.9288    931.3576 307.6768973  +6.3020015     564.7964     652.8041      282.804      78.1605     156.1969     312.3627      1.296     4.27     856.9946     55.04807     107.0895         5     1.096     0.474  60.81   0
        67    748.7314    929.5530 307.5944308  +6.3094249     856.0945      1163.08     1093.488     78.28447     156.1348     312.2696      1.558     4.90     854.1243     55.04807      152.425        11     1.121     0.896  27.05   0
        68    886.5330    926.1234 307.5373403  +6.3154623     7277.663     11062.18      11607.6     78.40823      156.259     312.2696      1.640     3.99     852.3246     55.04807     922.4813        35     1.609     0.967  55.30   0
        69    422.3076    923.1545 307.7301504  +6.3010932     2233.075     3385.144     3734.659     78.28447     156.1348     312.4248      1.631     4.25      856.928     55.04807     321.0181        20     1.389     0.882  53.20   0
        70    324.0064    921.4777 307.7710124  +6.2984741     10241.09     14938.75     15668.42     77.91198     155.6994     312.0832      1.563     3.73     857.1788     55.04807     1299.156        34     1.468     0.963  56.55   0
        71    591.4106    923.2873 307.6599487  +6.3067273     584.0818     891.7947     643.6116     77.91198     155.9484     312.1454      1.728     4.99     856.7994     55.04807     76.12036         6     0.970     0.727  18.27   0
        72    244.0173    920.4086 307.8042521  +6.2962187     7534.634     11270.77     11675.36     78.03634     155.9484     312.1454      1.614     3.96     856.2437     55.04807     983.0012        32     1.514     0.923  60.15   0
        73    572.0463    914.7339 307.6682746  +6.3096068     1205.034     1657.956     1356.916     78.28447     156.1348     312.3006      1.495     4.14     856.5919     55.04807     174.8424        13     1.340     0.669  48.52   0
        74    756.6792    914.6486 307.5916315  +6.3158438     773.4027     1086.349     917.2891     78.28447      156.259     312.2696      1.507     5.32     853.6563     55.04807     120.5087        10     1.273     0.628  68.49   0
        75    901.9878    911.3375 307.5314198  +6.3220835     1049.418     1793.477     1911.319     77.78741     156.0105     312.0521      1.751     4.60      851.694     55.04807     138.6868        11     1.152     0.677  52.52   0
        76    858.4228    909.7002 307.5495602  +6.3212991       758.95     1283.822     1101.653     78.53181     155.9484     312.0832      1.891     4.94      852.484     55.04807      123.261         9     1.137     0.607  53.67   0
        77    400.9644    908.7150 307.7394963  +6.3063347     678.6839     955.1215     855.3495     78.28447     156.1348     312.2696      1.541     4.92     856.8202     55.04807     98.47046         6     1.194     0.574  57.89   0
