#   1 NUMBER                 Running object number                                     
#   2 X_IMAGE                Object position along x                                    [pixel]
#   3 Y_IMAGE                Object position along y                                    [pixel]
#   4 ALPHA_J2000            Right ascension of barycenter (J2000)                      [deg]
#   5 DELTA_J2000            Declination of barycenter (J2000)                          [deg]
#   6 FLUX_APER              Flux vector within fixed circular aperture(s)              [count]
#   9 FLUXERR_APER           RMS error vector for aperture flux(es)                     [count]
#  12 FLUX_RADIUS            Fraction-of-light radii                                    [pixel]
#  13 FWHM_IMAGE             FWHM assuming a gaussian core                              [pixel]
#  14 BACKGROUND             Background at centroid position                            [count]
#  15 THRESHOLD              Detection threshold above background                       [count]
#  16 FLUX_MAX               Peak flux above background                                 [count]
#  17 ISOAREA_IMAGE          Isophotal area above Analysis threshold                    [pixel**2]
#  18 A_IMAGE                Profile RMS along major axis                               [pixel]
#  19 B_IMAGE                Profile RMS along minor axis                               [pixel]
#  20 THETA_IMAGE            Position angle (CCW/x)                                     [deg]
#  21 FLAGS                  Extraction flags                                          
         1    423.0137     19.3415 307.7615192  +6.6823450     6947.378     9862.001     10497.23     77.30196     155.4096     310.5719      1.494     3.60     829.0959      54.7924     1172.705        26     1.401     0.834  51.12   0
         2     23.9527     19.0010 307.9273381  +6.6691259     9195.574     13337.84     13936.28     77.30196     155.1002     310.4172      1.491     3.37      833.764      54.7924      1419.03        32     1.457     0.902  46.51   0
         3    414.5987     14.7721 307.7651690  +6.6839503     886.7977     1231.205     1443.808     77.42613     155.2241     310.6337      1.408     4.98     829.6382      54.7924     147.6348         9     1.286     0.547  54.26   0
         4    319.6075     14.2793 307.8046548  +6.6809784     14275.96     20276.03     21553.14     77.55012     154.9763     310.6337      1.521     3.90     834.2863      54.7924     2299.685        34     1.458     0.887  45.21   0
         5     93.1052     14.5519 307.8987562  +6.6732817     2756.549      3778.37     3884.686     77.79749     155.3478     310.9738      1.437     3.45     833.4384      54.7924     447.1292        19     1.283     0.781  48.87   0
         6     84.4928     13.4942 307.9023701  +6.6734297     1701.429     2459.298     2452.786     77.92088      155.965     310.8192      1.567     4.03     833.3685      54.7924     271.8552        17     1.299     0.844  46.87   0
         7    787.9678     12.6775 307.6100974  +6.6972656     919.8276     1272.477     1493.053     77.79749     155.4714     310.7883      1.509     4.09     822.9399      54.7924     160.6025         7     1.076     0.444  45.27   0
         8    454.0490     12.7185 307.7488459  +6.6861160     614.0182      989.712     724.8417     77.92088     155.4714      310.881      1.572     4.78     827.3878      54.7924      97.7962         7     1.359     0.476  42.99   0
         9    385.7711     12.1375 307.7772354  +6.6840747     2532.945     3832.582     3753.138      77.6739     155.4714     310.7883      1.534     3.91     831.7416      54.7924     355.6379        19     1.399     0.787  48.89   0
        10    646.5668      7.6964 307.6690197  +6.6946126     12149.04     17016.89     17802.25     78.04408     155.3478     307.9625      1.516     3.63      824.025      54.7924     2003.268        33     1.454     0.866  48.65  16
        11     64.6973      8.8463 307.9107513  +6.6746848     696.6299     948.1507     571.3943     77.92088     155.4096     311.0046      1.401     5.35     833.1091      54.7924     137.7114         9     1.162     0.696  70.83   0
        12    980.9135      9.1745 307.5300392  +6.7051267     799.2162     1241.238     775.7372     78.04407     155.2859     310.6956      1.489     4.42     821.0186      54.7924     115.7275         8     0.877     0.634  43.71   0
        13    811.3670      7.2279 307.6005565  +6.7002941     1804.748     2577.374     2765.064     77.42613     155.2241     304.8585      1.583     4.57     822.4546      54.7924     264.4818        16     1.391     0.741  57.36  16
        14    524.2871      7.4094 307.7198389  +6.6906528     1545.382     2316.534     2460.377     77.55012     155.1622     306.2106      1.644     3.63     825.9565      54.7924     263.3584        16     1.253     0.845  56.68  16
        15    246.5961      4.7433 307.8353115  +6.6824726     7210.628     10352.65     10702.36     77.30196     155.2859      281.426      1.524     3.53     834.4217      54.7924       1127.8        31     1.443     1.003  37.21  18
        16    250.2657      2.3300 307.8338679  +6.6835917     846.8963     1144.145     1601.167     77.30196     137.4317      249.507      1.452     3.14     834.4195      54.7924     154.5782         7     0.908     0.517  45.30  19
        17    881.4450      5.0375 307.5715100  +6.7035293     1650.941      2154.87      2673.75      77.6739     155.4714     284.9542      1.416     3.42     822.5065      54.7924     235.3948        13     1.152     0.726  51.82  16
        18    667.9833      2.3249 307.6603004  +6.6975440     9000.152     11959.56     12693.84     76.80322     136.9415      249.353      1.428     3.64     823.9023      54.7924      1372.63        25     1.342     0.844  43.30  27
        19    672.2756      1.2352 307.6585533  +6.6981369      4855.94     5689.927     6189.544     66.47742      122.343     232.4438      0.938     2.56      823.882      54.7924     1430.038        12     1.023     0.520   8.45  27
        20    638.2008      3.1185 307.6726492  +6.6962237     10102.34     14017.47     14888.57     77.17757     145.5788      260.692      1.462     3.66     823.9228      54.7924     1636.374        29     1.400     0.856  47.08  24
        21    408.0486      3.1938 307.7682790  +6.6885116     8933.927      12630.6     12684.82     77.42613     146.7618     261.6852      1.480     3.63     830.3342      54.7924      1428.36        28     1.402     0.851  49.03  24
        22    949.8137      4.0552 307.5431332  +6.7062072      737.301     986.4102     1498.801     77.30196      153.669     273.1103      1.549     4.03     821.6203      54.7924      101.472         8     0.963     0.611  26.38  16
        23    723.7285      2.1277 307.6371434  +6.6994825     2069.175     2575.953     2780.845     76.17522     134.9629     246.3684      1.347     3.79     823.6582      54.7924     353.0494        13     1.206     0.645  38.94  24
        24    150.3173      2.0524 307.8754056  +6.6803594     616.9247     1015.838     762.0033     75.41472     133.8909     245.4308      1.352     3.90      833.267      54.7924     126.9774         6     1.402     0.311  45.96  24
        25    226.6511    982.9431 307.8107467  +6.2779489      1378.35     2114.841     1842.126     77.92088     155.4714     310.8502      1.666     4.03     855.0912      54.7924     172.8865        15     1.334     0.815  40.56   0
        26    544.0622    982.5815 307.6789750  +6.2886977     840.4345     1428.767     2166.087     77.55012     155.4096     310.7265      2.024     5.26     857.4653      54.7924     121.4878        10     1.238     0.631  52.45   0
        27    191.7520    982.6866 307.8252444  +6.2768873     923.5367     1405.029     1420.484     77.92088     155.4096     310.8811      1.653     5.27     854.8179      54.7924     144.4999        12     1.340     0.852  29.28   0
        28     51.6766    980.9893 307.8834562  +6.2728984     2659.518     4302.237     3726.669     77.55012     155.1002     310.6956      1.717     4.07     853.1792      54.7924     306.1464        26     1.364     1.124  42.18   0
        29    945.5084    978.6339 307.5124257  +6.3036861     5855.762     10518.01     11037.87     78.04408     155.3478      310.881      1.921     4.43     851.8099      54.7924     656.2687        36     1.657     1.183  47.14   0
        30    919.1555    970.2549 307.5236469  +6.3062703     2006.549     3450.181     3530.336     77.92088     155.4714      310.881      1.778     4.22     852.4578      54.7924     241.5978        26     1.578     0.993  58.04   0
        31    252.1674    966.7231 307.8006971  +6.2854987     4368.238     6858.411     6967.308     77.79749     155.4714     310.7883      1.650     3.77     855.3866      54.7924     610.0974        28     1.466     0.996  42.88   0
        32    778.5487    966.8705 307.5821411  +6.3029936     1068.806       1895.6     1965.573     77.79749     155.4096     310.8811      1.978     6.53     854.9389      54.7924     156.2265        19     1.725     0.922  49.53   0
        33    640.0723    966.3026 307.6396562  +6.2986184     4472.091     7119.099     6811.061      77.6739      155.595     310.8192      1.710     3.84     855.8075      54.7924     534.8153        34     1.612     1.032  41.37   0
        34     20.7989    964.1481 307.8968417  +6.2788166     2094.833     3404.161     3392.058     77.30196     155.1002     310.4172      1.676     3.96     851.7764      54.7924     272.7526        21     1.393     0.949  54.13   0
        35    990.2168    964.8688 307.4943207  +6.3108538     596.5794     992.3356     1659.675     77.42613     155.3478     310.7574      1.497     3.37     848.8634      54.7924     94.07764         5     0.976     0.336  46.10   0
        36    871.4713    962.9006 307.5436911  +6.3077223     842.8206     1454.546     1508.357      77.6739      155.595     310.8502      1.815     7.05     852.4896      54.7924     116.6321        14     1.530     0.926  49.12   0
        37    462.1400    964.7115 307.7135865  +6.2933431      1146.71     1800.064     2081.726     77.79749      155.595     310.9429      1.615     4.72     857.0925      54.7924     161.4183        14     1.244     0.755  37.70   0
        38    564.5233    958.9254 307.6712709  +6.2991467     1720.437     2554.749     2364.905     78.16707     155.7184      310.912      1.592     4.09     856.7439      54.7924     218.5403        18     1.314     0.918  68.43   0
        39    288.3017    960.3379 307.7859089  +6.2893430     935.1611     1345.174      1428.23      77.6739      155.595      310.912      1.562     5.66     855.8825      54.7924     121.9786        12     1.212     0.745  45.05   0
        40    963.0494    960.6523 307.5057415  +6.3116927     462.5924      612.132     65.20316     78.04407     155.3478     310.8192      1.567     4.68     850.1847      54.7924     88.77008         5     1.353     0.460   5.60   0
        41    943.2001    959.8061 307.5140114  +6.3113830     751.5056     1252.908     1264.093     77.30196     155.1622     310.6647      1.784     5.86      851.207      54.7924     92.17542        10     1.118     0.863  33.21   0
        42    996.1642    957.5388 307.4920953  +6.3140776     653.0447     1256.515     1722.235     77.92088     155.4714     310.8192      2.129     4.01     848.3495      54.7924     91.30939         6     1.012     0.461  57.72   0
        43     53.9463    956.0610 307.8833519  +6.2832661     934.0466     1087.849     1566.438     77.92088     155.4096     310.8192      1.402     4.22     852.0306      54.7924     143.4162        12     1.211     0.735  61.45   0
        44    603.6338    954.9898 307.6551637  +6.3020751     1343.106     1996.449     1796.343     77.42613     155.2859     310.6956      1.545     3.78     856.0441      54.7924       199.36        13     1.134     0.784  30.46   0
        45    283.6998    953.2195 307.7880584  +6.2921280     1427.379     2125.849     2668.976     77.92088     155.3478     310.6337      1.641     4.31     855.5698      54.7924      204.334        14     1.334     0.675  47.42   0
        46    750.7417    949.0350 307.5942822  +6.3094322     916.9016     1482.156     1206.401     77.79749     155.4714     310.8192      1.567     5.41     855.0759      54.7924     146.2158        13     1.602     0.667  51.54   0
        47    888.2228    945.6434 307.5373110  +6.3154040     6318.083     10906.12     11207.27     77.42613     155.3478     310.6647      1.840     4.27     851.6695      54.7924      750.694        39     1.670     1.150  50.43   0
        48    593.3427    943.1253 307.6598333  +6.3066307      544.981     760.3739     1099.443     77.92088     155.4096     310.8192      1.735     5.14     856.1842      54.7924     102.2589         7     1.527     0.489  46.15   0
        49    424.0385    942.9202 307.7301359  +6.3010683      2048.78     2922.679     2511.523     77.79749     155.5332     310.8192      1.536     4.10     855.9919      54.7924     289.3279        18     1.328     0.853  48.17   0
        50    325.7371    941.3581 307.7710026  +6.2984301      9726.33     14656.56     15894.63     77.92088     155.4096      310.912      1.649     3.60     855.4191      54.7924     1304.628        39     1.555     1.034  46.54   0
        51    245.7544    940.1723 307.8042505  +6.2962461      6998.51     11024.95     11731.39     77.42613     155.5332     310.7574      1.683     3.74     854.7034      54.7924     917.1494        35     1.548     1.043  52.83   0
        52    573.9769    934.5411 307.6681612  +6.3095294     1090.419     1624.278     1766.717     77.55012     155.4714     310.7265      1.615     4.31     856.3843      54.7924     149.4656        12     1.263     0.618  45.86   0
        53    903.8242    930.4160 307.5313406  +6.3222095     950.6949     1480.716     1733.986      77.6739     155.3478     310.7883      1.664     5.05     850.8545      54.7924     127.9288        11     1.197     0.782  67.68   0
        54    136.8683    930.1241 307.8497960  +6.2967513     556.1463       875.73     691.3326     78.04407      155.595     310.8502      1.639     5.46     852.5378      54.7924     80.62152         6     1.334     0.631  75.53   0
        55    859.5093    929.1420 307.5497837  +6.3212628     786.0529     1565.564     1357.177     77.79749     155.4714     310.9738      2.135     5.89     851.3914      54.7924     114.0082        11     1.225     0.861  57.27   0
        56    402.9901    929.0406 307.7393401  +6.3060960     719.7267     791.2531     1087.965     77.30196     155.2859     310.5719      1.367     4.56     855.3516      54.7924      108.838         7     0.880     0.671  48.37   0
        57    971.5211    925.8430 307.5033834  +6.3263460     624.2206     1266.231     1795.646     77.79749     155.4714      310.881      2.202     4.47     848.6215      54.7924      101.713         7     0.884     0.642  20.24   0
        58    740.2025    923.7886 307.5995012  +6.3195050     1654.182     2566.344     2835.124     77.55012     155.1622     310.6647      1.716     4.70     854.9727      54.7924     194.0433        18     1.303     0.973  38.14   0
        59    563.9510    924.2753 307.6726674  +6.3134336     905.9959     1265.706      786.972     77.79749     155.5332      310.881      1.483     4.43      856.321      54.7924     146.0499        11     1.262     0.626  28.66   0
        60    604.6340    920.7161 307.6558943  +6.3162590     797.4164     1079.458     770.1454     77.92088     155.3478     310.8192      1.518     5.75     855.8647      54.7924     108.7968        10     1.095     0.850  20.56   0
        61    525.3295    919.6244 307.6888591  +6.3140660     1341.328     2099.386     1925.518     77.55012     155.3478     310.7883      1.702     4.22     856.4551      54.7924     196.7667        15     1.225     0.850  48.99   0
        62    971.2456    919.1702 307.5037201  +6.3290919     1129.976     1900.831     2623.815     77.55012      155.595     310.7265      1.957     6.73     848.6174      54.7924     124.6079        17     1.523     0.910  45.66   0
        63    616.6027    920.4719 307.6509329  +6.3167587     537.1376     808.9548     167.0617     77.42613     155.1002     310.6956      1.527     4.19     855.7215      54.7924     89.71588         6     1.080     0.463  11.03   0
        64    658.9367    917.1829 307.6334650  +6.3195269     2517.288     3836.004      3926.99     77.42613     155.4096     310.6956      1.612     3.85     855.2122      54.7924     371.4324        21     1.312     0.912  47.52   0
        65     55.3144    913.3596 307.8842194  +6.3009413      3077.33     4941.525     4873.946     77.92088     155.4096     310.8192      1.749     3.73     850.4061      54.7924      431.725        27     1.556     0.964  53.77   0
        66    819.8048    913.2952 307.5667986  +6.3264855      757.572     1049.502     967.8804      77.6739     155.1622     310.6337      1.632     4.98     852.7108      54.7924     119.9641         9     1.289     0.545  36.34   0
        67    198.9055    912.3629 307.8246352  +6.3061603     2288.946     3506.284     3076.664     78.04407     155.3478     310.9738      1.652     3.85     853.3221      54.7924     307.3046        21     1.450     0.896  43.25   0
        68     73.0199    912.7738 307.8768880  +6.3017764     1949.927     2865.743     2717.656     77.42613     155.2859     310.7574      1.548     4.00     850.7183      54.7924     270.0642        18     1.372     0.794  43.46   0
        69    937.1289    912.0561 307.5181235  +6.3308962     712.1693     1166.985     871.4148     77.92088     155.4096     310.8192      1.519     5.06     850.0532      54.7924     107.9253         9     1.224     0.592  62.50   0
        70    337.7483    908.3013 307.7671238  +6.3124794     964.7652     1368.924     1999.625     77.79749     155.4714     311.0664      1.429     2.68     854.6175      54.7924     168.6393         8     0.908     0.576  72.39   0
        71    653.4349    906.3468 307.6361116  +6.3238175     7113.152     10723.71      11376.6     77.79749     155.4714     310.8502      1.653     3.72     855.1228      54.7924     1039.447        31     1.482     0.980  45.99   0
        72    232.5444    908.5344 307.8107969  +6.3088663      716.645     983.6207     1097.774     78.04408     155.3478     310.8502      1.532     3.73     853.7784      54.7924     126.1392         6     0.928     0.431  17.84   0
        73    790.6498    906.4648 307.5791325  +6.3283360     602.9007     929.9055     948.2355     77.79749     155.4096     310.8502      1.546     3.88     853.4911      54.7924     92.99164         6     0.903     0.477  88.77   0
        74     13.4505    904.6604 307.9018932  +6.3031299     1234.394     1731.004     1767.566     77.92088     155.4096     310.8502      1.551     4.25     849.5281      54.7924     184.3898        12     1.079     0.790  54.11   0
        75    891.0919    902.2672 307.5375658  +6.3334084     2728.339     4456.421     4565.979     77.79749      155.595      310.881      1.734     3.78     850.6835      54.7924     351.6299        26     1.474     1.037  48.07   0
        76    442.9670    903.7322 307.7235891  +6.3178795     575.2987     821.8652      591.134     77.79749     155.4714     310.8502      1.439     2.44     855.2944      54.7924     115.2086         5     0.772     0.466  57.95   0
        77     26.3354    903.0772 307.8965968  +6.3042154     1005.149     1443.973     1504.068     78.16707     155.4714     310.8502      1.515     4.74     849.7042      54.7924     156.2325        10     1.327     0.660  48.76   0
