#   1 NUMBER                 Running object number                                     
#   2 X_IMAGE                Object position along x                                    [pixel]
#   3 Y_IMAGE                Object position along y                                    [pixel]
#   4 ALPHA_J2000            Right ascension of barycenter (J2000)                      [deg]
#   5 DELTA_J2000            Declination of barycenter (J2000)                          [deg]
#   6 FLUX_APER              Flux vector within fixed circular aperture(s)              [count]
#   9 FLUXERR_APER           RMS error vector for aperture flux(es)                     [count]
#  12 FLUX_RADIUS            Fraction-of-light radii                                    [pixel]
#  13 FWHM_IMAGE             FWHM assuming a gaussian core                              [pixel]
#  14 BACKGROUND             Background at centroid position                            [count]
#  15 THRESHOLD              Detection threshold above background                       [count]
#  16 FLUX_MAX               Peak flux above background                                 [count]
#  17 ISOAREA_IMAGE          Isophotal area above Analysis threshold                    [pixel**2]
#  18 A_IMAGE                Profile RMS along major axis                               [pixel]
#  19 B_IMAGE                Profile RMS along minor axis                               [pixel]
#  20 THETA_IMAGE            Position angle (CCW/x)                                     [deg]
#  21 FLAGS                  Extraction flags                                          
         1    453.6823     27.6376 307.7554894  +6.6694377     11125.26     29742.02     35929.86      90.8904     181.3488     362.5535      2.669     6.58     1144.945     63.91231     1130.281        83     2.264     1.810  56.57   0
         2    274.3512     28.0907 307.8300197  +6.6632070     4444.397     12040.53     14396.75      90.8904     181.1325     362.7698      2.651     7.17     1167.016     63.91231     443.7461        59     2.184     1.616  61.60   0
         3    634.5130     26.1013 307.6803697  +6.6761548     1829.761     4675.424      5905.79      90.8904     181.8527     362.6617      2.788     8.46      1138.94     63.91231     210.4181        38     2.044     1.449  73.18   0
         4    951.5916     17.6450 307.5488369  +6.6902836      759.954     1594.063     1559.651     90.31332     181.2046      362.265      1.880     5.73     1128.162     63.91231     123.8738         8     1.596     0.580  78.33   0
         5    703.4603     16.8348 307.6520159  +6.6822955     1092.005     2408.789     2841.742      90.8904     181.3488     362.5535      2.272     6.77     1136.095     63.91231     179.2643        14     1.621     0.794  79.91   0
         6    191.8647     10.1050 307.8649080  +6.6678460     5027.973     13981.47     16894.49     90.74648      181.493     362.6256      2.681     7.12     1166.445     63.91231     518.8455        61     2.218     1.684  61.11  16
         7    535.6694      7.8067 307.7220679  +6.6803815     1600.017     4014.374     4833.946     90.31332     180.8436      359.803      2.513     6.30     1141.342     63.91231     211.7412        25     1.693     1.098 -53.50  18
         8    937.2995      7.3777 307.5551188  +6.6940423     2981.264       5859.1     6350.917      90.8904     181.0603      356.665      2.127     5.21     1129.063     63.91231     385.4565        37     1.868     1.271  54.11  16
         9    738.1257      6.3936 307.6379519  +6.6877688     1184.251     2539.883     2825.313     90.45793     180.8436     348.0963      2.272     6.65     1132.577     63.91231     192.0243        19     1.424     1.212  79.47  16
        10    474.7888      7.1903 307.7473965  +6.6785871     913.0774     2299.665     2766.332     90.60232     181.1325     355.4168      2.680     7.74     1142.546     63.91231     119.1492        13     1.594     1.053  39.83  16
        11   1002.0354      3.5498 307.5283333  +6.6977903     1265.258     2497.913     2404.577     90.74648     175.0404     311.1368      2.090     6.85     1121.179     63.91231       179.79        19     1.612     1.161  58.56  24
        12    721.8886      2.0278 307.6448469  +6.6890255     3341.203     5314.696     5572.775     88.11559     155.5894     285.8702      1.701     5.26     1133.453     63.91231     519.5067        23     1.509     1.029   7.33  24
        13    642.0215      1.6798 307.6780603  +6.6864862     1270.849     1990.271     2263.026     83.54686     150.0293     279.2083      1.651     5.87     1137.875     63.91231     199.5946        12     1.310     0.741  -7.95  24
        14    558.7325    991.8690 307.6797617  +6.2750134     3278.928     6261.895     7407.874      90.8904      181.493     362.5896      2.078     5.30     1200.602     63.91231     378.0603        33     1.784     1.210  72.97   3
        15    806.0963   1022.9406 307.5759811  +6.2704925     4340.995      6526.65     6666.728      87.8184     156.1764     286.4641      1.583     5.37     1200.129     63.91231     748.0565        24     1.577     0.858  20.95  24
        16    594.0710   1024.0000 307.6640158  +6.2629396     14100.38     16976.71     17850.45     73.38513     137.6713     266.2191      1.097     3.11     1201.607     63.91231     4375.471        11     1.290     0.358   5.39  27
        17    597.4999   1020.0112 307.6627240  +6.2647011     56062.37     106770.5     118958.5     90.60232     180.9159      331.517      2.063     4.86      1201.49     63.91231     6475.279        87     2.028     1.460  54.93  18
        18    555.8405    983.8750 307.6812286  +6.2782155      6097.37     12213.24     14051.77     90.74648     181.3488     362.6256      2.177     5.04     1200.436     63.91231     768.7333        49     1.945     1.370  60.83   3
        19    763.0443    990.9805 307.5949235  +6.2822398     6233.131     11536.87     12313.15     90.31332     181.2046     362.4093      1.957     4.54     1198.623     63.91231     795.6224        39     1.853     1.137  53.63   0
        20    528.9177    993.1126 307.6921048  +6.2734980     887.5508     1427.115      925.118     90.60232      181.565     362.6617      1.765     6.07     1201.032     63.91231     125.3757        10     1.113     0.931  14.43   0
        21    308.8703    990.4775 307.7835934  +6.2671802     11357.48     22310.99     25699.59     91.17757     181.6369     362.5535      2.175     5.01     1204.453     63.91231     1103.402        69     1.894     1.666  57.72   0
        22    824.9133    991.0389 307.5692218  +6.2842901     917.5021     1469.956     981.2775      90.8904     181.2767     362.5896      1.723     5.51     1196.949     63.91231     132.0134         9     1.151     0.838  36.47   0
        23    433.4769    990.4476 307.7318369  +6.2713880     857.0094     1515.647     1667.034     90.74648     181.4209     362.5535      1.913     6.38     1202.409     63.91231     103.3865         9     1.320     0.866  40.22   0
        24    280.0263    987.7241 307.7956658  +6.2673447     650.4852     1299.063     1574.661     90.60232     181.2767     362.5535      2.264     6.57      1204.56     63.91231     85.48743        10     1.648     0.734  64.66   0
        25    924.4028    984.3275 307.5281168  +6.2903935     7521.229     13196.77     13580.81     90.31332     180.8436     362.4093      1.861     4.57     1193.932     63.91231     1100.124        38     1.767     1.113  60.28   0
        26   1019.6926    979.9673 307.4886777  +6.2953826     4414.519     7480.127     7886.198      91.0341     181.2046     335.9429      1.765     4.57     1190.612     63.91231     651.1248        33     1.783     1.026  58.54  16
        27    898.0720    980.4717 307.5391822  +6.2911030     10803.96     18999.11     20969.28     91.17757      181.493     362.4814      1.966     4.43     1194.022     63.91231     1400.561        56     1.892     1.397  47.65   0
        28    611.0018    980.7923 307.6584179  +6.2813413     846.6396     1631.251     1841.033     90.16846     180.9881     362.3371      1.949     5.09     1200.008     63.91231     126.1876         8     1.147     0.640 -76.19   0
        29    542.3154    979.7044 307.6869852  +6.2794823     3117.422     5995.423     7136.485      90.8904     181.7808     362.6977      2.166     5.01     1200.486     63.91231     335.9956        34     1.692     1.253  50.42   0
        30    651.9507    979.5263 307.6414504  +6.2832390     1053.146      1644.24     1794.611      90.8904     181.4209     362.6256      1.824     5.51     1199.122     63.91231     149.5414        10     1.089     0.788  48.58   0
        31    495.3844    976.3399 307.7065912  +6.2792930       1537.2     2809.805      1940.06     90.31332     181.2768     362.3011      1.896     5.19     1201.443     63.91231     187.7537        21     1.458     1.082  86.28   0
        32    929.7279    968.0968 307.5264420  +6.2972707     37013.48     65923.75     71585.96     90.74648      181.493     362.5535      1.915     4.45     1192.605     63.91231     5264.327        70     1.919     1.240  57.74   0
        33      3.1186    968.2282 307.9113313  +6.2660469      2529.32     4583.582     5198.974     90.74648     170.2708     304.2548      1.961     5.96     1202.172     63.91231     296.5995        24     1.753     0.989  67.68  24
        34    237.4762    966.8798 307.8140341  +6.2745133     1297.577     2484.868      2548.69     91.17757     181.6369     362.7337      2.054     6.42     1204.184     63.91231     179.5052        19     1.572     0.944  62.29   0
        35    827.8310    962.1806 307.5689661  +6.2962987     1984.625     3510.041     3425.821     90.31332     181.1325     362.4453      1.937     4.71     1194.668     63.91231     307.8623        24     1.657     0.996  73.84   0
        36    775.9390    959.8162 307.5906004  +6.2955347      5218.67     9886.099     10769.03     90.31332     181.2767     362.3732      2.035     4.67     1196.114     63.91231     657.3834        38     1.818     1.192  62.99   0
        37    246.4429    960.1509 307.8105339  +6.2775927     1005.398     1876.342     2693.119      90.8904     181.2767     362.5175      2.176     4.68     1204.028     63.91231     142.5221         9     0.956     0.651 -10.34   2
        38     70.6305    957.2276 307.8836574  +6.2728674     1958.418     3658.158     4176.077     90.31332     181.0603     362.3371      1.970     6.41     1202.796     63.91231      214.931        24     1.659     1.093  65.43   0
        39    210.2637    958.6671 307.8256111  +6.2769853     719.4587      1318.61     1057.755      90.8904     181.3488     362.6256      2.001     5.42     1203.907     63.91231     124.0879         5     0.973     0.851 -76.16   0
        40    964.1561    954.9035 307.5125769  +6.3038687     5998.515     10428.01     11019.07      90.8904     181.2767     362.7698      1.865     4.47     1190.773     63.91231     740.7667        38     1.777     1.121  54.16   0
        41    937.9386    946.6793 307.5237401  +6.3063854     1822.313     3068.007     3521.833      91.0341     181.4209     362.5896      1.801     5.43     1190.827     63.91231      237.224        20     1.709     0.906  47.73   0
        42    797.1315    943.2472 307.5823462  +6.3030839      937.041     1754.841     1417.631      90.8904     181.2767     362.5535      1.936     6.90      1194.39     63.91231     116.6377        13     1.540     0.867  67.07   0
        43    658.7397    942.6779 307.6398534  +6.2986753     3446.912     6267.096     6284.945      91.0341     181.4209     362.5535      1.929     4.59     1197.164     63.91231     389.1649        32     1.673     1.132  72.09   0
        44    271.0123    942.8941 307.8009036  +6.2855430     3134.806     5968.422      6703.34     90.60232     181.0603     362.3732      2.038     5.01     1203.593     63.91231     347.7191        32     1.688     1.176  61.17   0
        45   1008.3615    942.1931 307.4946340  +6.3105942     649.4149     1050.829     1088.429     90.02338     180.9881      362.265      2.020     5.21     1188.999     63.91231     90.33789         6     1.063     0.722  79.23   0
        46     39.9664    940.4199 307.8969552  +6.2787684     1730.115     3124.198     3148.369     90.31332     181.1325     362.3732      1.971     6.32     1202.361     63.91231     199.3295        18     1.640     0.839  57.05   0
        47    890.9988    938.9624 307.5434949  +6.3079983     663.1524     1370.072     1191.693     89.87807     181.1325     362.3371      1.915     4.73     1191.078     63.91231     88.65747         5     1.446     0.438  72.77   0
        48    584.0326    935.3736 307.6711291  +6.2991807     1247.019     2534.528     2253.148     90.31332     181.0603     362.3732      2.027     5.40     1198.781     63.91231     154.0571        19     1.384     1.100 -15.03   0
        49   1014.7733    934.4870 307.4922253  +6.3139893     773.0366     1326.537     1585.756      91.0341     181.1325     362.4453      2.156     5.46     1188.449     63.91231     128.1047         9     1.353     0.621 -72.80   0
        50    622.7733    931.8203 307.6551543  +6.3019487      903.351     1654.139     1663.768     90.31332     181.1325     362.4814      1.997     5.59     1197.713     63.91231     125.8175        11     1.237     0.713  87.80   0
        51    302.3541    930.2017 307.7883077  +6.2918375     1113.702     2200.553     3575.047     90.16846     180.9881     362.1567      2.967     6.93     1203.141     63.91231     135.9758        13     1.407     0.956 -52.74   0
        52    906.7009    921.8516 307.5375386  +6.3155865     5891.015     10687.84     11379.42      90.8904     181.3488     362.8418      1.953     4.41     1189.814     63.91231     794.5072        38     1.832     1.152  55.33   0
        53    442.8923    919.1506 307.7302976  +6.3011306     1473.851     3084.008     3197.893     90.74648     181.1325     362.7698      2.265     5.84     1201.145     63.91231      186.741        23     1.509     1.105  49.14   0
        54    344.4583    917.5535 307.7712394  +6.2984760      6635.11     13579.47     15257.55      90.8904     181.3488     362.7337      2.164     5.49     1202.734     63.91231     625.8872        50     1.937     1.377  60.08   0
        55    264.4948    916.4349 307.8044925  +6.2962435     5020.287     10067.96     11624.61      91.0341     181.2046     362.6977      2.206     5.18     1203.222     63.91231     546.5568        42     1.891     1.262  57.23   0
        56    922.9595    906.9523 307.5312777  +6.3222805     837.6917     1401.057     1511.419     90.74648     181.3488     362.4453      1.699     5.57     1189.042     63.91231     125.7987         9     1.345     0.649  49.13   0
        57    758.7811    900.4080 307.5996976  +6.3194787     1278.186     2387.452     2723.406     90.45793     180.9881     362.4093      2.294     6.53     1192.071     63.91231     182.7748        16     1.676     0.713 -89.14   0
        58    318.0798    902.2812 307.7827054  +6.3038906       1986.7     2109.966     1709.302      91.0341     181.6369     362.7698      0.705     2.57     1202.774     63.91231     808.6769         5     0.724     0.366  83.66   0
        59    544.9333    896.2897 307.6886696  +6.3139975     728.1713     1115.694     742.3421      91.0341      181.493     362.5535      1.716     6.49     1198.552     63.91231     111.7379        10     1.376     0.860  74.53   0
        60    990.1362    895.8235 307.5037391  +6.3291227     1161.724     1998.286       3288.8     90.45793     181.3488     362.4453      2.125     5.18     1186.769     63.91231     164.0555        14     1.360     0.771  58.69   0
        61    623.0338    896.1899 307.6562292  +6.3166630     665.4839     1016.536      1075.18     90.31332     181.1325     362.4093      1.506     4.55     1195.861     63.91231      92.3241         6     1.368     0.430  72.92   0
        62    677.3575    893.2997 307.6337582  +6.3196801     1963.054     3514.511     3753.609      90.8904     181.2046     362.8418      1.923     5.31     1194.666     63.91231     224.0144        24     1.616     1.084  48.97   0
        63     74.4115    889.7397 307.8843401  +6.3008479     2096.793     4086.495     4311.462     90.16846     181.2046      362.265      2.029     6.27     1202.094     63.91231     228.3136        27     1.793     1.016  60.42   0
        64    217.9094    888.8183 307.8247640  +6.3060707     1643.298     3225.031      3120.15     90.60232     181.0603     362.4814      2.010     7.28     1202.975     63.91231     197.4006        21     1.623     1.059  74.68   0
        65     91.7226    888.6403 307.8771861  +6.3018862     1389.616     3024.999     3679.181     90.74648     181.3488     362.6256      2.268     8.13     1202.075     63.91231     164.4386        23     1.749     1.056  56.21   0
        66    955.8221    889.1495 307.5182150  +6.3307287     637.2337     931.7132     787.4868     90.31332     181.4209     362.4453      1.345     3.05      1187.48     63.91231     107.3228         6     0.753     0.557 -43.86   0
        67    838.2443    889.2667 307.5670562  +6.3267416     720.8986     1029.832     947.5487      90.8904     181.2768     362.6256      1.681     3.81     1189.872     63.91231     127.2897         5     1.027     0.405  45.35   0
        68    672.0967    882.5048 307.6363019  +6.3239589     4932.147     9952.488     11629.65      90.8904     181.9964     362.4093      2.232     4.93     1194.528     63.91231     581.4377        45     1.850     1.367  61.88   0
        69    810.7149    883.3949 307.5786872  +6.3282422     549.0799     971.5303     1473.777     90.31332     180.9881      362.265      1.965     3.62     1189.951     63.91231     110.3201         5     0.818     0.679  45.65   0
        70     32.5499    880.8060 307.9020269  +6.3031210     923.2142     1735.683     1487.633     90.31332     181.1325     362.1567      1.976     7.76     1202.079     63.91231     103.8464        16     1.589     1.061  41.48   0
        71    909.6714    878.5257 307.5377391  +6.3335680     2345.172     4189.623     4189.954     91.17758      181.493     362.6256      1.885     4.58     1188.339     63.91231     296.5878        25     1.554     1.096  57.76   0
        72    355.1466    875.7791 307.7681905  +6.3160771      10712.4      23052.2     26139.71     90.31332     181.3488     362.3732      2.236     5.44     1202.063     63.91231     1058.952        60     2.004     1.471  60.34   0
        73     45.3397    878.9069 307.8967777  +6.3043369     789.4373     1466.964     1393.079     90.74648     181.2767     362.6256      1.909     6.56     1202.044     63.91231     103.5189         9     1.487     0.812  37.45   0
        74     90.2336    876.6714 307.8782042  +6.3067756     987.7361      1824.62     1678.996     90.74648     181.3488     362.6617      1.958     6.32     1201.911     63.91231     118.0363        14     1.178     0.953  50.58   0
        75    226.5430    874.5850 307.8216522  +6.3122361     802.5861     1407.775     1480.376     90.16846     181.2768     362.2289      1.901     5.02     1202.911     63.91231     112.2386         7     1.045     0.682  72.44   0
        76    118.8423    866.1767 307.8666708  +6.3120727      1022.69     2278.991     2419.488     90.45793     181.2046     362.3371      2.343     7.98     1201.728     63.91231     131.8027        20     2.033     0.876  67.44   0
        77    900.2172    860.2453 307.5422721  +6.3407963     1713.165     2827.182     3087.627     90.31332     181.2046     362.3011      1.735     5.27     1187.666     63.91231     198.8854        23     1.573     1.036  61.23   0
