#   1 NUMBER                 Running object number                                     
#   2 X_IMAGE                Object position along x                                    [pixel]
#   3 Y_IMAGE                Object position along y                                    [pixel]
#   4 ALPHA_J2000            Right ascension of barycenter (J2000)                      [deg]
#   5 DELTA_J2000            Declination of barycenter (J2000)                          [deg]
#   6 FLUX_APER              Flux vector within fixed circular aperture(s)              [count]
#   9 FLUXERR_APER           RMS error vector for aperture flux(es)                     [count]
#  12 FLUX_RADIUS            Fraction-of-light radii                                    [pixel]
#  13 FWHM_IMAGE             FWHM assuming a gaussian core                              [pixel]
#  14 BACKGROUND             Background at centroid position                            [count]
#  15 THRESHOLD              Detection threshold above background                       [count]
#  16 FLUX_MAX               Peak flux above background                                 [count]
#  17 ISOAREA_IMAGE          Isophotal area above Analysis threshold                    [pixel**2]
#  18 A_IMAGE                Profile RMS along major axis                               [pixel]
#  19 B_IMAGE                Profile RMS along minor axis                               [pixel]
#  20 THETA_IMAGE            Position angle (CCW/x)                                     [deg]
#  21 FLAGS                  Extraction flags                                          
         1    729.9911     21.6807 307.6450885  +6.6897936     8198.395     11108.83     10334.27     77.97177     155.9435      312.416      1.440     3.94     830.3544     55.09031     1422.046        26     1.394     0.791  55.89   0
         2    450.3779     17.1467 307.7614030  +6.6823121     6857.679      9771.94     9785.757     77.84712     156.3168     312.3538      1.464     3.62     829.8275     55.09031     1101.578        30     1.510     0.814  53.48   0
         3     51.3904     16.7910 307.9271627  +6.6690658     9435.795     13596.63     13943.16     77.84712     156.1303     312.4471      1.528     3.69     827.5771     55.09031     1358.612        31     1.453     0.894  54.73   0
         4    697.2708     15.9859 307.6588721  +6.6910512      1069.04     1234.237     1025.099     77.84711     156.1925     312.4471      1.306     3.80      830.322     55.09031     171.1885        10     1.091     0.587  64.77   0
         5    346.9839     12.1390 307.8045237  +6.6809137     14501.78     20435.78     21050.42     77.84712     156.2546     312.3538      1.466     3.64     835.9651     55.09031     2202.895        32     1.443     0.856  57.61   0
         6    120.4904     12.4638 307.8986031  +6.6731754     2887.496     4102.207     4896.032     78.34455      156.503     312.6024      1.514     3.72     829.0517     55.09031     454.7131        20     1.477     0.736  48.11   0
         7    111.6506     11.2223 307.9023170  +6.6733907     1657.481     2299.719     2836.177     77.84712     156.3789      312.416      1.578     4.75      828.853     55.09031     246.6596        15     1.369     0.708  56.47   0
         8    815.2218     10.3286 307.6100576  +6.6973251     929.1828     1273.732     1211.996     77.97178     156.1925     312.5092      1.489     4.39     828.0449     55.09031     148.2913         8     1.089     0.504  55.29   0
         9    481.5062     10.3553 307.7486983  +6.6861580     730.5621     860.3965     589.6173     78.22049     156.2546     312.6646      1.396     3.67     827.7725     55.09031      121.634         6     1.007     0.384  69.88   0
        10    413.2194     10.1155 307.7770751  +6.6839694     2522.872     3521.496     3163.057     77.97177     156.0058     312.5092      1.446     3.74     831.9788     55.09031     386.6624        17     1.307     0.698  52.84   0
        11   1008.2102      6.6698 307.5300000  +6.7052692     661.6574     885.3408     955.0698     77.84712     156.1303     302.3048      1.338     5.56     823.3672     55.09031     104.0784         9     1.263     0.689  70.72  16
        12    673.9470      5.5774 307.6689093  +6.6945683        12328     17050.97     17602.86     77.84711     156.3168     292.1761      1.442     3.90      830.269     55.09031     2087.879        29     1.427     0.811  57.18  16
        13     92.6989      7.4003 307.9103180  +6.6743311     624.8585     995.3688     740.7133     77.84712     155.9435     307.6546      1.831     4.15     828.2502     55.09031     125.3979         7     1.113     0.613  44.80  18
        14    838.5269      5.0409 307.6005515  +6.7002854     1861.606     2739.564     3424.706     78.22049     156.3789     286.7407      1.498     3.64     827.8575     55.09031     305.2824        15     1.305     0.673  57.05  16
        15    551.5654      5.2408 307.7197637  +6.6906144     1650.124     2249.944     2295.382     78.09623     156.3168     288.5975      1.505     3.54     827.6069     55.09031     246.8762        15     1.269     0.692  57.73  16
        16    908.7731      2.8167 307.5714409  +6.7035463     1735.196     2518.776     3159.348     77.97177     143.6918     257.9262      1.556     4.21     827.6016     55.09031     322.9438        15     1.360     0.674  58.04  24
        17    435.7404      1.8230 307.7679965  +6.6881470     7411.178     8659.751     9202.887     73.61517      131.554     243.0376      1.171     2.59     830.4473     55.09031     1358.799        20     1.056     0.806  26.73  24
        18    273.9128      2.6342 307.8351979  +6.6823857     7153.369     9740.648     10376.48     78.34455     141.7182     255.6191      1.474     4.09     835.0156     55.09031     1128.837        26     1.349     0.889  46.98  26
        19    796.0143      2.3759 307.6183025  +6.6999668     702.6136     1065.027     1651.301     77.72226     138.3195     251.4823      1.505     4.80     827.9285     55.09031     98.30139         9     1.173     0.557  63.15  24
        20    696.0480      1.4442 307.6598652  +6.6970129     4610.132     5218.709     5468.769     69.68435     126.0497     237.0087      0.945     2.03     830.1768     55.09031     1414.835        17     1.223     0.593   8.10  24
        21    665.9785      1.8051 307.6723457  +6.6958591     7968.376     9246.839     9801.131     73.35085     130.9621     242.5976      1.140     2.63     829.9636     55.09031     1603.892        18     1.064     0.702  35.50  24
        22    343.5947    990.5612 307.7731995  +6.2769259     489.7977     463.7205      87.6377     77.47195     156.0681     312.2916      1.058     4.08     859.3184     55.09031     86.79822         5     1.177     0.404  37.03   0
        23    753.2756   1023.4929 307.6020377  +6.2770304     577.7086     746.0894     632.0884     70.37775     127.1238     238.0718      1.270     4.29     859.9518     55.09031      110.197         7     0.999     0.611  24.42  24
        24    384.7838   1022.7396 307.7550265  +6.2650228     1816.498     2263.728      2270.24     76.96888     137.2623     249.5828      1.405     4.63     860.2131     55.09031      235.579        12     1.093     0.753  57.36  24
        25    245.8541    988.3874 307.8138445  +6.2745469     1687.428     2602.183     3100.833     77.72227     156.2546     312.2605      1.724     5.04     857.7289     55.09031     220.4977        18     1.533     0.831  70.25   0
        26     11.0984    989.7739 307.9112430  +6.2660928     3264.981     4954.841     4923.445     78.46841     156.0681     312.5092      1.612     3.91     855.3574     55.09031     410.0403        23     1.369     0.951  53.97   0
        27    644.5043    986.1393 307.6484351  +6.2888182     1045.567     1636.474      1543.05     78.09623     156.3168     312.6335      1.699     5.71      859.522     55.09031     134.6588        12     1.304     0.705  52.98   0
        28    133.6530    986.6378 307.8604773  +6.2715042     549.1525     1038.096     1252.822     78.22049     156.3789     312.5403      2.115     5.38     855.1364     55.09031     94.97571         9     1.443     0.566  69.21   0
        29    784.4992    981.5453 307.5904723  +6.2953880      6633.17     10507.19     11220.71     78.22049     156.3168     312.8199      1.749     3.98     859.0309     55.09031      825.249        35     1.566     1.141  65.17   0
        30    836.2748    983.5243 307.5689126  +6.2962979     2230.433     3552.304     3600.045     78.59209     156.5651     312.6335      1.725     5.00     858.0715     55.09031     266.2433        23     1.592     0.913  54.87   0
        31    254.1113    980.7533 307.8106724  +6.2779750     1446.751      2206.09     2429.292     78.34455     156.1925     312.6646      1.601     5.68     857.6599     55.09031     189.2761        17     1.549     0.848  42.44   0
        32    571.1380    980.8506 307.6790674  +6.2885495     927.4044     1446.506     1465.807     78.34455     156.2546     312.6024      1.780     4.37     859.9117     55.09031     138.0698        12     1.234     0.744  66.77   0
        33    218.6400    980.4418 307.8254070  +6.2769139      911.877     1293.006     1302.147     78.09623     156.3168      312.416      1.262     3.03     856.9238     55.09031     146.8253         7     0.924     0.476  10.21   0
        34     78.6888    978.5693 307.8835628  +6.2729889     2888.219     4358.829     4581.009     78.46841     156.1303     312.4782      1.657     3.56     855.0162     55.09031     392.9108        24     1.430     1.007  64.45   0
        35    972.6837    976.5356 307.5125165  +6.3037281     6209.728     10685.75     10933.41     78.46841      156.441     312.6024      1.861     4.25     856.1918     55.09031     761.3461        38     1.650     1.159  47.27   0
        36    228.8229    972.7833 307.8214364  +6.2804168     614.6193     1087.138     1136.222     78.09623     156.1925     312.4782      1.714     2.88     856.9213     55.09031      92.8205         6     0.737     0.564  47.43   0
        37    655.2979    970.9727 307.6444598  +6.2954394     769.9631     1051.571     719.3582     78.46841     156.0681     312.5092      1.533     5.08     859.4446     55.09031     110.4841         7     1.054     0.692  74.75   0
        38    946.5148    968.2586 307.5236553  +6.3062734     1953.892     3252.334     3585.802     78.34455     156.3168     312.6335      1.876     4.52      856.616     55.09031     226.9606        24     1.477     1.032  57.10   0
        39      4.1775    966.6463 307.9148914  +6.2754066     1025.728      1684.42     1469.239     77.97177      155.257     276.2174      1.684     4.65     854.2084     55.09031     153.8266        11     1.199     0.746  46.91  16
        40    667.2344    964.2102 307.6397299  +6.2986296     4685.586     7325.849     7526.215     77.84712     156.0681     312.3538      1.627     3.78     859.4025     55.09031     601.2524        29     1.471     0.992  53.51   0
        41    279.4168    964.4282 307.8007141  +6.2855622     4803.979     7084.219     7022.008     77.97178     156.0681     312.4471      1.604     3.54     857.8154     55.09031     627.9987        27     1.409     0.970  56.49   0
        42    805.8838    964.5753 307.5821595  +6.3031065      1445.37     2120.525     2462.534     78.22049     156.0681     312.5092      1.598     3.76     858.3639     55.09031     182.8933        13     1.003     0.871 -84.24   0
        43   1016.5464    963.8527 307.4947283  +6.3104239     719.4111     1214.823     1709.328     78.59209     156.1925     312.5714      1.654     4.10     855.4109     55.09031     108.4477         7     0.982     0.489 -83.86  16
        44    489.5179    962.6884 307.7135558  +6.2933170     1057.145     1423.578     1210.866     78.09623      156.503     312.6335      1.444     3.80     859.9629     55.09031     159.1198        11     1.148     0.647  48.65   0
        45     48.0045    961.8998 307.8968584  +6.2788388     2194.231     3245.647     3382.939     78.09623     156.0058     312.1983      1.523     3.46     854.4284     55.09031     287.3195        20     1.263     0.933  48.59   0
        46    898.9803    960.6379 307.5436422  +6.3078355     864.1602      1252.23      1413.29     77.97177     156.1303     312.2294      1.512     5.71     857.0562     55.09031     158.9531        10     1.564     0.605  37.24   0
        47    315.0435    958.3742 307.7861275  +6.2892554      888.288     1210.647     1204.496     77.97177     156.3789     312.4471      1.555     4.94     858.3629     55.09031     121.7463        10     1.136     0.709  50.89   0
        48   1023.7203    954.9468 307.4920458  +6.3143390     533.5643     1190.444     1371.212     67.56149     123.4023     234.3716      2.395     5.44     855.3387     55.09031     91.56464         6     1.275     0.654  58.93  26
        49    990.5737    958.2781 307.5056960  +6.3118605     491.5203     852.7646     772.5168     78.22049     156.2546     312.5092      1.761     4.45     855.8455     55.09031     100.3931         5     1.231     0.457  31.26   0
        50    591.8542    956.7372 307.6712718  +6.2991958     1912.107     2749.464     2691.224     78.34455     156.2546     312.5092      1.556     3.83     859.5034     55.09031     279.0797        15     1.258     0.724  61.57   0
        51    971.3413    957.6113 307.5137024  +6.3114954     591.5462     1019.554     189.5176     77.72227     156.1925     312.2605      1.767     3.97     856.1618     55.09031     116.2277         6     0.928     0.487  -1.37   0
        52    630.9819    953.3847 307.6551404  +6.3018873     1291.937     1984.157     2001.039     78.09623     156.0058     312.4782      1.612     4.63     859.3719     55.09031     179.9795        15     1.236     0.867  24.64   0
        53     80.6335    954.0308 307.8835780  +6.2831831      684.609     964.4731      1623.99     77.84711     156.0681     312.2916      3.822     5.66     854.6718     55.09031     83.16718         9     1.163     0.777  11.72   0
        54    311.0370    950.8646 307.7880418  +6.2922210     1590.743     2311.222     2272.399     78.22049     156.3168     312.6024      1.588     4.06      858.205     55.09031     197.7612        18     1.261     0.920  56.18   0
        55    578.9248    949.6111 307.6768768  +6.3017052     704.8398     897.1393     994.6418     77.97177     156.0058     312.3538      1.356     4.74     859.5057     55.09031     108.1133         7     0.954     0.667  -6.41   0
        56    915.3679    943.3970 307.5374121  +6.3154986     6795.071      11222.1     11884.03     77.59721     156.1303     312.3227      1.794     3.91     856.7926     55.09031     800.4839        38     1.597     1.178  58.91   0
        57    777.9284    946.5270 307.5943656  +6.3096242     854.8436     1386.303     1147.256     78.59209      156.441     312.5714      1.605     6.41     858.3348     55.09031     106.7284        11     1.257     0.919  25.82   0
        58    153.9399    945.0762 307.8534483  +6.2893410      694.059     1060.812     932.9191     78.46841     156.3789     312.5092      1.688     4.97     855.1132     55.09031     111.0009         9     1.096     0.774 -60.56   0
        59    451.3171    940.6630 307.7301493  +6.3011305     2315.491     3322.677     3514.861     78.46841     156.3168     312.5092      1.576     3.40     859.2502     55.09031     327.5343        19     1.236     0.884  58.99   0
        60    620.2919    940.3323 307.6600133  +6.3069180     573.2469     764.3732     801.3203     78.22049      156.441     312.5714      1.730     3.86     859.3233     55.09031     99.93744         6     0.953     0.448  84.86   0
        61    352.8681    939.0575 307.7710717  +6.2984965     10090.68     14692.17     15628.94     78.46841     156.2546     312.5092      1.531     3.61     858.6021     55.09031     1420.498        35     1.461     0.960  56.12   0
        62    273.0244    938.0531 307.8042500  +6.2962351     7344.414     10774.85     11361.17     77.84712     156.3168     312.3849      1.526     3.52     857.1656     55.09031     1002.616        31     1.438     0.954  55.14   0
        63    601.1432    932.4827 307.6682244  +6.3095184     1318.033     1671.859     1593.401     78.34455     156.3168     312.6335      1.523     4.53      859.306     55.09031     169.7155        15     1.255     0.812  58.32   0
        64    785.5399    931.5064 307.5917057  +6.3160787     576.3528     767.8683     1082.913     78.22049     156.3168     312.6024      1.215     3.77     857.8719     55.09031     107.3135         6     0.991     0.413  71.93   0
        65    930.8994    928.3545 307.5314641  +6.3222256      994.488     1464.728     1620.978     78.34455     156.2546     312.7578      1.573     5.17     856.4982     55.09031     144.3638        10     0.978     0.774  52.22   0
        66    429.4956    926.8248 307.7396702  +6.3061123     670.2207      826.041     1012.229     78.46841     156.0681      312.416      1.230     3.00     858.6614     55.09031     125.1867         7     0.853     0.599  -6.55   0
        67    997.4782    924.6436 307.5039467  +6.3259747     1403.279     1867.116     1957.429     78.22049     156.3168     312.5714      0.880     4.22     855.6229     55.09031     966.7547         7     0.962     0.529 -50.30   0
        68    767.3091    921.5573 307.5996054  +6.3195773      1885.37     2627.573     3313.509     78.34455     156.3168     312.6335      1.663     4.20     858.0764     55.09031     232.5615        15     1.271     0.790  62.41   0
        69    591.1119    922.3027 307.6727283  +6.3133853     727.9374     1125.042      884.622     78.34455     156.7511     312.5714      1.644     3.40     859.2473     55.09031     148.5737         8     1.026     0.582  61.86   0
        70    860.1926    921.4327 307.5610486  +6.3227266     519.5578     916.4365     1057.789     77.84712     156.1925     312.3538      1.624     4.79     857.1353     55.09031     122.7051         6     1.294     0.622  18.08   0
        71    631.7300    918.3206 307.6559987  +6.3163865     837.0358     1246.172     1427.384     78.59209     156.5651     312.5092      1.556     4.66     859.1725     55.09031     110.6017         7     0.990     0.622  51.13   0
        72     17.7972    918.5914 307.9108497  +6.2957002     1100.679     1450.325     1177.026     77.72227     156.0058     312.3849      1.545     5.50     852.0666     55.09031     146.0201        12     1.058     0.827  56.34   0
        73    999.0322    917.1337 307.5035509  +6.3291265     1146.954     1783.402     2219.655     78.22049     156.3789     312.4782      1.582     4.58     855.2958     55.09031     164.7332        14     1.273     0.754  49.74   0
        74    643.3119    918.0795 307.6511985  +6.3168730      678.652     667.6839     288.6632     78.09623     156.5651     312.6646      1.298     5.29     859.1481     55.09031     113.4404         8     1.151     0.686  51.31   0
        75    552.5420    917.3899 307.6889041  +6.3141238     1337.765     1765.956     2039.587     77.72227     156.2546     312.2605      1.453     3.94     859.2178     55.09031     216.4288        13     1.210     0.758  60.75   0
        76    686.0569    915.0102 307.6335553  +6.3195677     2620.467      3979.16     4650.471     77.72227     156.3168     312.2605      1.661     3.77     858.9341     55.09031     411.7228        22     1.605     0.812  54.67   0
        77     82.4566    911.0148 307.8842630  +6.3010003     2953.911      4962.28     5066.868     77.72226     156.2546     312.2294      1.797     3.58      853.459     55.09031     412.3849        31     1.493     1.197  44.78   0
