#   1 NUMBER                 Running object number                                     
#   2 X_IMAGE                Object position along x                                    [pixel]
#   3 Y_IMAGE                Object position along y                                    [pixel]
#   4 ALPHA_J2000            Right ascension of barycenter (J2000)                      [deg]
#   5 DELTA_J2000            Declination of barycenter (J2000)                          [deg]
#   6 FLUX_APER              Flux vector within fixed circular aperture(s)              [count]
#   9 FLUXERR_APER           RMS error vector for aperture flux(es)                     [count]
#  12 FLUX_RADIUS            Fraction-of-light radii                                    [pixel]
#  13 FWHM_IMAGE             FWHM assuming a gaussian core                              [pixel]
#  14 BACKGROUND             Background at centroid position                            [count]
#  15 THRESHOLD              Detection threshold above background                       [count]
#  16 FLUX_MAX               Peak flux above background                                 [count]
#  17 ISOAREA_IMAGE          Isophotal area above Analysis threshold                    [pixel**2]
#  18 A_IMAGE                Profile RMS along major axis                               [pixel]
#  19 B_IMAGE                Profile RMS along minor axis                               [pixel]
#  20 THETA_IMAGE            Position angle (CCW/x)                                     [deg]
#  21 FLAGS                  Extraction flags                                          
         1    177.6366     32.8032 307.8575212  +6.7023191      4010.32     11202.82     14482.05     91.62366     184.6504     369.4111      2.789     8.00       1223.5     65.15359     445.8231        62     2.246     1.897 -55.89   2
         2    283.3117     23.0867 307.8138624  +6.7098485     1103.391     2431.146     2160.661     92.36198     185.3113     369.7787      2.170     8.29     1222.446     65.15359     127.4397        18     2.035     0.944  66.73   2
         3    286.6644     21.2922 307.8125274  +6.7107005     1035.256     1838.437     1301.698     92.65566     185.0913     369.7052      1.815     7.45     1222.426     65.15359     142.4933        15     1.666     0.932  74.72   3
         4    766.6346     20.3060 307.6127640  +6.7270499     2869.117     7759.597     9302.034     92.80215      184.724     369.7419      2.632     6.48      1190.97     65.15359     301.4247        47     1.887     1.647 -63.34   0
         5    378.3125     14.6430 307.7746025  +6.7164939     1131.925     2747.868     4156.204     92.65566      184.724     369.6685      2.804     4.48     1209.288     65.15359     141.9437        10     1.053     0.899 -30.70   3
         6    381.9810     15.9706 307.7730307  +6.7160683     1526.782      3785.79     5982.202     92.21479     184.6504     369.5582      3.191     8.20     1208.813     65.15359     204.4001        24     2.003     0.938 -63.00   2
         7    868.1699     11.3560 307.5707971  +6.7341044      2068.88      5438.26     6266.302     92.21479      184.871     369.4847      2.586     9.98     1188.656     65.15359      265.016        41     2.193     1.498  85.65  19
         8    868.3306      4.8144 307.5709499  +6.7368084     1542.067     3591.203      4113.79     92.06736      184.724     335.9804      2.318     8.34     1188.386     65.15359     159.0452        26     1.845     1.263  -8.47  19
         9     49.9715     11.8664 307.9113693  +6.7066971     879.0985     1843.486      2350.42     92.36198     184.7975     369.5582      2.363     7.26     1225.114     65.15359     114.3125        12     1.321     1.117  88.62   0
        10    501.5710      7.3875 307.7235387  +6.7235850     8487.215     27888.78     33696.34     92.06737     184.5768     363.8162      2.779     7.25      1199.41     65.15359      866.382        82     2.180     2.015 -71.55  16
        11    176.3403      9.3079 307.8588552  +6.7119684     562.3642     1553.594     2311.478     92.50893     184.7975     369.7787      2.913     4.26     1222.757     65.15359     87.92188         5     1.061     0.487   3.08   2
        12    642.0074      5.4971 307.6651419  +6.7290274      831.258     2195.356     2766.942     92.36198     184.4296     344.4845      2.809     9.75     1192.664     65.15359     123.9623        13     2.469     1.073  66.65  18
        13    796.5732      1.7590 307.6009243  +6.7356931     14663.86     22741.53     23808.58     85.96326     154.1816     286.0592      1.671     5.44     1190.387     65.15359     2079.747        33     1.856     0.863  -0.50  24
        14    870.0546    983.3562 307.5373991  +6.3331623     2320.803     4038.033     4466.929     92.65565      184.871     369.6317      1.812     4.41      1254.73     65.15359     278.8889        21     1.361     1.043 -79.61   0
        15    867.1981   1023.7527 307.5372330  +6.3164019     1226.042     1504.853     1536.344     78.87623     144.9166     276.0053      1.236     3.65     1258.365     65.15359     299.0869         8     1.140     0.431   0.49  24
        16    403.1092   1023.1325 307.7302865  +6.3012710     1380.007      2295.71      1921.06     87.83904     156.1948     288.4708      1.631     5.00     1261.282     65.15359     194.7385        14     1.395     0.705 -14.13  24
        17    304.8358   1021.8348 307.7712046  +6.2985390     6904.009     12884.47     13402.35     92.36198     174.1247     310.8202      1.942     4.60     1261.008     65.15359     723.8591        39     1.540     1.395  -7.04  24
        18    224.9078   1021.1463 307.8044715  +6.2961633     4954.733     10306.97     10532.35     92.50893     181.3846     322.1936      2.106     4.94     1260.328     65.15359     505.1259        41     1.593     1.484 -53.77  24
        19      5.9065    984.3001 307.8968024  +6.3040652     810.8865     1156.484     992.5799     92.65566     185.4579     349.4955      1.590     5.98     1259.127     65.15359      115.882         8     1.314     0.766  34.55  16
        20    315.5208    980.5175 307.7681533  +6.3159397     10953.98     23328.63     26060.39     92.80215     185.1647     369.7787      2.189     5.00     1260.273     65.15359     1085.132        59     1.764     1.613 -61.68   0
        21     50.2408    981.6344 307.8784531  +6.3066438     1053.501     2032.201     2248.614     92.36198      184.871     369.4111      2.193     6.26     1259.084     65.15359     127.9231        11     1.064     1.034  37.26   0
        22    187.0822    979.0748 307.8216239  +6.3122601     921.5343     1812.165     1734.874     92.94841      185.238     369.7052      1.912     6.54     1259.191     65.15359     117.9419         9     1.243     0.965  41.71   0
        23     78.9966    971.2833 307.8668428  +6.3118728      1184.17     2374.594     2265.239     92.06736     184.4296      369.264      1.948     6.69     1258.643     65.15359     129.7139        15     1.408     1.025  -8.23   0
        24    860.3395    964.6714 307.5420667  +6.3405495     1651.375     3025.268     2827.303     92.80215      184.871     369.7052      1.889     6.21     1253.401     65.15359     225.1627        21     1.504     1.090 -50.98   0
        25     62.2044    964.8638 307.8740440  +6.3139613      1732.64     3666.537     4194.271      91.7718     184.5768     369.4111      2.200     5.67     1258.315     65.15359     208.9648        25     1.447     1.269 -34.53   0
        26    794.5029    963.8076 307.5694816  +6.3387272     2406.222     4533.605     4531.992     92.36198     184.4296     369.3376      1.933     4.76     1254.693     65.15359      273.375        30     1.579     1.214 -62.12   0
        27    830.9206    964.1097 307.5543229  +6.3398079     1622.573     2716.436     2706.018     92.36198     185.0913     369.7052      1.721     4.36     1253.955     65.15359     199.2324        19     1.285     1.032 -45.09   0
        28    530.5010    955.4830 307.6795759  +6.3334106     222176.6     474755.2     517613.7     92.65566     185.4579     369.7419      2.189     5.00     1257.844     65.15359     22576.66       161     1.946     1.722 -61.21   0
        29    374.8507    958.2126 307.7442272  +6.3271144     4955.742     11067.17     12445.23      91.9197      184.724      369.264      2.250     5.34     1259.613     65.15359     542.5713        46     1.708     1.530 -70.84   0
        30    317.9866    956.5505 307.7679357  +6.3259092     8239.882     18066.96     20282.05      91.9197     184.7975     369.3008      2.237     5.01     1259.842     65.15359     871.9553        56     1.808     1.588 -77.64   0
        31    617.9645    958.7578 307.6430846  +6.3349614     810.8265     1429.881     684.9659     92.36198      184.871     369.4479      1.498     5.68     1256.683     65.15359      121.923         9     1.333     0.682 -22.33   0
        32    636.2772    952.7904 307.6356678  +6.3380305     2377.954     4970.471     5344.993     92.21479     184.3559     369.4111      2.127     5.46     1256.013     65.15359     263.3871        31     1.618     1.303 -41.02   0
        33    868.7499    951.2872 307.5390170  +6.3463495     4405.981     7838.195      8617.89     92.65566      184.724     369.7419      1.900     4.12     1251.999     65.15359     492.8119        34     1.559     1.258 -59.78   0
        34    707.2078    948.5803 307.6063046  +6.3421183      389.549     808.0144     393.1059     92.21479     184.5768     369.4111      2.224     5.29     1254.818     65.15359     78.56018         5     1.288     0.614 -27.05   0
        35    611.0312    946.7584 307.6463719  +6.3396819     2165.692     4742.709     5163.411     92.06736      184.724     369.4111      2.138     5.48     1256.241     65.15359     247.4795        32     1.660     1.304 -81.26   0
        36   1002.0821    945.4320 307.4837502  +6.3531726     4369.037     7131.346     6734.438     92.50893      184.724     369.5582      1.701     3.99     1249.826     65.15359      569.703        31     1.559     1.061 -65.12   0
        37    799.7068    945.6975 307.5679246  +6.3463709      1350.73     2569.418     2418.209     92.65566     185.5311     369.5582      1.947     6.51     1253.631     65.15359     171.1572        19     1.383     1.114 -44.23   0
        38    926.3355    944.3544 307.5152953  +6.3511140     771.0714     1306.127     1288.043     92.65566     184.7975     369.6317      1.746     5.16     1250.454     65.15359     110.3362         7     1.234     0.609 -37.47   0
        39    603.7346    942.0255 307.6495662  +6.3413924      1422.27     3632.457     5138.121     92.21479     184.7975     369.4847      2.715     9.09     1256.132     65.15359     176.7152        29     1.954     1.181 -56.06   0
        40    887.5475    939.2874 307.5316000  +6.3519219     2723.848     4719.583     4475.197     92.65566      184.724     369.7787      1.885     4.37     1250.675     65.15359     352.3433        25     1.466     1.112 -59.31   0
        41    298.3572    939.8279 307.7766643  +6.3321551     785.1448      1364.04     827.0522     92.21479     184.9444     369.4847      1.685     4.84     1259.538     65.15359       115.21         7     1.098     0.605   1.34   0
        42    346.0174    935.3037 307.7569924  +6.3356067     1774.411      4038.84     4660.295     92.50893     184.6504     369.4111      2.333     7.74     1259.448     65.15359     190.0223        31     1.697     1.451 -21.05   0
        43    481.8971    925.3096 307.7008086  +6.3442451     1760.914     4108.009     4235.228     92.65566     185.3846     369.6317      2.326     6.08      1257.97     65.15359     218.5605        28     1.577     1.280 -69.60   0
        44    528.9034    921.2339 307.6813927  +6.3474872     3746.467     8342.837     10459.24     92.80215      184.724     369.8154      2.461     5.46     1256.837     65.15359     413.6456        44     1.793     1.497 -47.64   2
        45    826.7637    923.7684 307.5574052  +6.3563135     843.3312     1559.577      2126.81     92.21479     184.5768     369.3376      2.121     4.55     1251.456     65.15359     124.1781         7     0.945     0.623 -38.67   0
        46    546.5655    921.6888 307.6740306  +6.3478857      484.052     1029.097     1389.714     92.80215     184.7975     369.6317      1.574     3.91     1256.509     65.15359     101.9971         5     1.423     0.308 -44.53   0
        47    863.8190    919.5606 307.5421320  +6.3592755     960.7239     2216.768     2245.644     92.21479     184.6504     369.3376      2.283     5.38     1250.033     65.15359     151.7842        12     1.403     0.880  87.51   2
        48     88.7594    919.7324 307.8645241  +6.3334651     997.0984     1992.604     2039.808     92.50893     184.7975     369.7052      2.029     7.08     1256.721     65.15359     117.3647        13     1.402     1.002 -31.16   0
        49    499.5682    915.2419 307.6937969  +6.3489853     11932.89     27324.59     29915.06     92.06737      184.724     369.4479      2.282     5.35     1257.186     65.15359     1146.279        58     1.837     1.601 -49.62   0
        50    447.1990    919.1803 307.7154482  +6.3456213      751.403     1445.902     1116.079     92.21479     184.3559     369.3008      2.016     4.01     1257.824     65.15359     104.2529         5     0.989     0.466  44.56   0
        51    912.9695    913.3038 307.5218958  +6.3634824     3196.265       5538.5     6057.743     92.80215     184.5768     369.7052      1.853     4.38     1249.323     65.15359     403.7692        28     1.574     1.102 -67.11   0
        52    292.5321    903.9117 307.7802984  +6.3467784     1870.238     4558.002     4771.302     92.80215     185.0913     369.6685      2.359     7.55      1258.62     65.15359     186.9971        36     1.770     1.512 -24.42   0
        53     10.0942    905.5003 307.8977254  +6.3367128     1076.807     2149.509     2252.345     92.65565     185.4579     369.4479      2.082     7.83     1255.677     65.15359     140.2085        14     1.366     1.254 -24.77   0
        54    757.6694    899.5339 307.5869605  +6.3640243     39550.96     78419.94     83954.91     92.65566     184.9444     369.6317      2.067     4.61     1252.049     65.15359     4480.083        74     1.796     1.519 -56.81   0
        55    214.9488    897.6607 307.8127809  +6.3467749     3205.916      7710.62     10067.28     92.65565     184.7975     369.6317      2.823     6.03      1257.96     65.15359     341.0656        50     1.974     1.631 -86.39   1
        56    685.8432    893.9436 307.6170269  +6.3639511     14237.89     31138.66      34931.2     92.50893      184.871     369.6685      2.263     5.09     1252.726     65.15359     1600.537        59     1.891     1.530 -62.15   3
        57    679.6683    890.6876 307.6197049  +6.3650897     57677.14       124312     136106.1     92.80215     185.1647     369.6685      2.204     5.06     1252.685     65.15359     6210.373        88     1.883     1.640 -60.11   3
        58    882.9488    894.6586 307.5350092  +6.3701818      6773.19     12386.77     13392.41     92.65565      184.871     369.6317      1.925     4.24     1249.384     65.15359     790.4062        40     1.580     1.316 -56.82   0
        59    324.6595    891.8784 307.7673403  +6.3528114      12187.3     29409.44     32606.83     92.80215      184.871     369.5582      2.382     5.57     1258.093     65.15359     1222.637        67     1.898     1.724 -62.17   0
        60    386.4772    889.6885 307.7416999  +6.3557704     12609.08     30653.47     34410.87     92.65566      185.238     369.7052      2.394     5.83     1257.486     65.15359     1301.332        72     1.961     1.729 -66.47   0
        61    374.6292    891.7435 307.7465590  +6.3545287     935.8436     1963.938     1858.201     92.21479     184.9444     369.5214      2.102     5.78     1257.678     65.15359     119.0728        12     1.350     0.823  85.16   0
        62    923.2952    888.2222 307.5184410  +6.3741714     1637.336     2949.218     2492.137     92.65566     184.6504     369.4479      1.895     6.01     1248.875     65.15359     223.3735        21     1.599     1.158 -72.84   0
        63    214.5111    876.4362 307.8136793  +6.3555163     786193.4      2460320      2862635     92.65566     184.7975     369.6317      2.715     5.34     1257.305     65.15359     63828.13       478     2.406     2.138 -77.75   4
        64    879.8305    886.0619 307.5365946  +6.3736254     5149.107      9715.06     10474.73     92.36198     184.9444     369.5582      1.972     4.25      1249.27     65.15359     671.5007        39     1.629     1.299 -53.71   0
        65    620.4214    885.3879 307.6445288  +6.3653119     4026.797     8640.295     9289.771     92.21479     184.5768     369.4847      2.164     5.36     1253.874     65.15359      438.225        37     1.658     1.411 -62.99   0
        66    408.1989    885.2590 307.7328135  +6.3583197     741.8479      1537.75     1387.861      91.9197     184.5768      369.264      2.518     5.69       1257.1     65.15359     114.1263         7     1.459     0.626  53.95   0
        67    409.9796    882.1937 307.7321760  +6.3596435     928.3845     1706.822     1797.352     92.21479     184.5768     369.4111      1.789     3.78     1256.997     65.15359     140.0869         6     0.945     0.433  35.92   0
        68    847.8417    876.7790 307.5502131  +6.3763969     352.3733     745.2411     1116.287     92.21479     184.6504     369.4479      2.973     4.55     1249.426     65.15359     78.50757         5     1.317     0.447 -29.10   0
        69    655.2665    875.5606 307.6303640  +6.3705216     1602.964     3388.916     3539.162     92.50893     184.7975     369.7419      2.161     6.24     1252.741     65.15359     175.1635        23     1.619     1.096 -41.47   0
        70    389.4209    872.3192 307.7410606  +6.3630339     30894.29     74536.41      84326.7     92.36198     184.5032     369.5949      2.392     5.53     1256.889     65.15359     3014.081        92     1.965     1.796 -59.69   0
        71    507.1440    871.2767 307.6921252  +6.3673748     4156.643     9789.076     10743.83     92.65566      184.871     369.5949      2.309     5.48     1255.204     65.15359     429.6047        45     1.710     1.614 -41.82   0
        72    423.8420    869.8446 307.7268255  +6.3651988     2432.848     6071.006     7883.092     92.50893      184.871     369.4479      2.676    10.09     1256.521     65.15359     287.5454        46     2.173     1.691  58.63   2
        73    421.3263    862.8724 307.7281068  +6.3679915     1215.821     2782.178     3209.923     92.94841     185.0179     369.6685      2.350     8.23     1256.279     65.15359     139.4316        19     1.597     1.184 -22.90   2
        74    752.2373    867.7416 307.5902875  +6.3769606     8001.216     16424.56      16783.9     92.65566     184.9444     369.6685      2.113     4.82     1250.877     65.15359     856.9547        49     1.720     1.499 -48.52   0
        75    774.1644    861.6152 307.5813715  +6.3802142     846.9095     1740.824     1522.041     92.21479     184.6504     369.4111      2.063     7.73     1249.782     65.15359      127.991        10     1.415     1.182   0.28   0
        76    110.2019    860.1585 307.8576179  +6.3587565     6571.258      16116.3     18867.81      91.9197     184.5032     369.3008      2.402     5.46     1255.871     65.15359     776.7151        58     1.860     1.704 -49.98   3
        77    102.4691    857.1197 307.8609372  +6.3597523     1815.739     4484.943     6844.266     92.94841     185.1646     369.5949      3.142    11.14     1255.583     65.15359     216.2528        38     2.262     1.529  81.19   3
