#   1 NUMBER                 Running object number                                     
#   2 X_IMAGE                Object position along x                                    [pixel]
#   3 Y_IMAGE                Object position along y                                    [pixel]
#   4 ALPHA_J2000            Right ascension of barycenter (J2000)                      [deg]
#   5 DELTA_J2000            Declination of barycenter (J2000)                          [deg]
#   6 FLUX_APER              Flux vector within fixed circular aperture(s)              [count]
#   9 FLUXERR_APER           RMS error vector for aperture flux(es)                     [count]
#  12 FLUX_RADIUS            Fraction-of-light radii                                    [pixel]
#  13 FWHM_IMAGE             FWHM assuming a gaussian core                              [pixel]
#  14 BACKGROUND             Background at centroid position                            [count]
#  15 THRESHOLD              Detection threshold above background                       [count]
#  16 FLUX_MAX               Peak flux above background                                 [count]
#  17 ISOAREA_IMAGE          Isophotal area above Analysis threshold                    [pixel**2]
#  18 A_IMAGE                Profile RMS along major axis                               [pixel]
#  19 B_IMAGE                Profile RMS along minor axis                               [pixel]
#  20 THETA_IMAGE            Position angle (CCW/x)                                     [deg]
#  21 FLAGS                  Extraction flags                                          
         1      1.8612     75.6443 307.9353207  +6.6321137     388775.6     593250.2     632272.4     73.68913     131.2648     242.3493      1.663    10.49     832.6615     54.75454     62920.27       234     2.218     1.383 -86.77  28
         2    619.8687     18.7715 307.6804417  +6.6762214     3332.955     5553.896     6789.123     77.62024      155.364     310.5736      1.916     4.71     817.4086     54.75454     528.2292        28     2.028     0.863  71.79   0
         3    438.8187     19.9301 307.7556339  +6.6697137     25544.36     34821.64     36322.75     77.49654     155.2405     310.5736      1.428     2.85     821.3907     54.75454     3788.841        50     1.283     1.144  63.27   0
         4    259.4196     20.3706 307.8301622  +6.6635462     10500.53     14078.81     15063.11     77.49654     155.1787     310.5119      1.442     2.87     827.0658     54.75454     1536.773        34     1.214     1.092  62.67   0
         5    916.7181     19.6655 307.5570598  +6.6857132     2132.276     3083.934     3602.887     78.11308     155.6108     310.6972      1.622     3.47     816.6559     54.75454     302.0782        18     1.147     0.965  66.43   0
         6     24.7856     20.0485 307.9276638  +6.6558338     2507.073     3655.844     3627.689     77.24855     155.3023     310.3264      1.474     3.00     826.8616     54.75454     346.4049        20     1.147     1.004 -89.10   0
         7    247.2789     17.0275 307.8353188  +6.6645209      3447.05     4726.196     5347.596     77.74374     155.3023     310.6354      1.428     2.91     826.8809     54.75454     560.3766        22     1.180     0.990  89.42   0
         8    300.3626     14.9797 307.8133305  +6.6671389     1190.482     1402.125     1324.818     77.49654     155.1168     310.3882      1.249     3.35     827.5323     54.75454     186.5869        10     0.952     0.721 -56.79   0
         9    937.1246      9.8656 307.5489063  +6.6904361     988.9999     1377.777     1858.675     77.99016      155.364     310.5736      1.455     3.76     816.0064     54.75454      135.658         8     0.838     0.661  44.13   0
        10    688.6004      9.3737 307.6521950  +6.6823873     2095.407     2902.115     3523.019     77.49654      155.055       310.45      1.567     2.93     816.4076     54.75454     297.7521        15     1.091     0.802  75.18   0
        11     93.5023      9.5283 307.8994654  +6.6624767     580.3433     663.0654     376.7216     77.74374     155.4875     310.6354      1.199     3.64     825.2674     54.75454     89.28314         6     0.951     0.402 -69.82   0
        12    199.6910      5.4615 307.8554799  +6.6677061     829.2031     922.6714     1130.648     77.86705     155.4875     289.5019      1.388     3.67     825.8781     54.75454     113.8413         7     0.838     0.665  74.62  16
        13    254.1645      4.6556 307.8328725  +6.6698587       876.17     1241.599     1350.914     77.74374      155.364     280.4801      1.527     3.23     826.8667     54.75454     137.5841         9     0.897     0.680  68.16  16
        14    176.8891      2.5313 307.8650526  +6.6681538      12302.6     15956.99     16502.72     77.99016     139.8976      252.242      1.411     2.92     825.3578     54.75454     1815.955        31     1.177     1.087  29.88  24
        15    922.5953      1.3988 307.5552258  +6.6934500     1785.743     2099.658      2066.54     68.00153     123.9728     234.5438      1.072     2.83      815.823     54.75454     409.2504         9     1.049     0.561   4.40  24
        16    521.1313      1.4607 307.7220485  +6.6800816     2008.139     2239.771     2796.352     69.39801     125.4345     235.9305      1.040     2.79      817.751     54.75454     483.5648        11     0.981     0.615  11.65  24
        17    514.4166    985.6119 307.6919629  +6.2735309      1106.57     1658.547       1701.4     77.62025      155.055     310.5428      1.581     4.65     850.8909     54.75454     138.8558        13     1.155     0.898 -84.47   0
        18    756.5851   1022.3795 307.5901883  +6.2664008      694.537     1076.284     1149.991     77.62025     140.6499     253.5319      1.663     4.98     847.4715     54.75454     114.7917         8     1.104     0.797 -22.51  24
        19    572.0621   1008.2896 307.6672718  +6.2660859     3936.789     6517.997     8195.645     77.86705     155.4875     310.6972      2.129     3.59     851.3257     54.75454     515.9702        40     2.038     1.561  51.37   3
        20    581.0693   1019.8495 307.6631464  +6.2616128     148344.7     239796.1     253489.9     77.86705     155.3023     286.0012      1.742     3.37     851.5839     54.75454     18334.99       106     1.619     1.461  51.99  19
        21    582.8295   1012.5970 307.6626575  +6.2646657     69779.23     112113.4     119943.4     77.37265     155.1787       310.45      1.743     3.35      851.369     54.75454     8432.746        81     1.592     1.397  53.31   3
        22    398.2310   1022.6699 307.7389648  +6.2543617      694.436     942.5381     1014.142     77.12426      137.197     249.2962      1.497     4.38     850.1603     54.75454     101.9627         7     0.852     0.641  29.96  24
        23    214.9965   1022.6309 307.8150411  +6.2482671     3513.757     4863.477      5053.56     76.99976     137.4066      249.796      1.526     3.24     849.8391     54.75454     448.3769        21     1.161     1.015  -9.97  24
        24    544.0938    984.4411 307.6796799  +6.2750019     4166.529     6421.281     7030.497     77.99016     155.3023     310.7281      1.675     3.38     850.7939     54.75454     570.0735        30     1.322     1.143  68.62   0
        25    294.3653    983.1224 307.7834107  +6.2672270     14857.71     23201.87     25134.13     77.74374     155.4258     310.6663      1.708     3.31     849.0365     54.75454     2079.553        59     1.692     1.362 -41.64   0
        26    809.7625    982.7726 307.5694270  +6.2845188      1150.73     1868.994     1691.092     77.49654     155.1168      310.481      1.651     5.30     846.7679     54.75454     129.7133        19     1.306     1.063  -1.05   0
        27    418.4402    983.5973 307.7318796  +6.2711669     960.3075      1310.47     1111.603     77.12426     155.1168     310.3882      1.472     4.10     849.5932     54.75454     151.5319         9     0.992     0.654  62.93   0
        28    265.3670    980.7677 307.7955293  +6.2672318     876.5226     1348.937     1255.495     77.37265     155.1168     310.3882      1.503     5.05     848.8311     54.75454      118.929        11     1.175     0.704 -76.14   0
        29    909.9702    977.1646 307.5280054  +6.2901580     7564.847     13859.72     15187.37     77.49654     155.1168       310.45      1.951     4.10     846.1926     54.75454     821.7708        48     1.647     1.391  71.82   0
        30    541.2850    976.6201 307.6811071  +6.2781375     8254.986     12714.54     13783.21     77.49654     155.1168     310.5736      1.666     3.27     850.5786     54.75454      1046.84        40     1.397     1.232  80.88   0
        31    883.5645    973.3093 307.5390978  +6.2908742     10844.53     19578.98     21926.21     77.99016     155.3023     310.6663      1.986     3.97     846.3928     54.75454     1205.846        58     1.609     1.533  47.66   0
        32   1005.3882    972.7072 307.4885336  +6.2951603      3949.88     7555.817     8033.712     77.62024     155.1168       310.45      1.983     4.57     843.5051     54.75454     430.3562        37     1.629     1.309  60.25   0
        33    596.3052    973.6260 307.6583621  +6.2812039     1305.794     2050.911     2048.421     77.99016     155.1168     310.5119      1.679     3.97     850.2195     54.75454     199.1712        14     1.206     0.867  83.31   0
        34    527.6960    972.3756 307.6868910  +6.2794378     4258.679     6675.664     7408.312     77.99016     155.1168     310.5119      1.723     3.44     850.4648     54.75454     522.9637        32     1.372     1.231  63.14   2
        35    532.3992    973.1832 307.6849113  +6.2792609      769.785     1062.489     1728.659     77.49654     154.9312     310.3264      1.416     3.62     850.4815     54.75454      102.493         7     0.769     0.653  73.74   3
        36    637.2678    971.5484 307.6414233  +6.2834237     1298.747     1910.813     1855.743     77.74374     155.2405     310.6045      1.575     3.42     849.7122     54.75454     176.6255        14     1.025     0.879 -80.88   0
        37     62.1816    971.3889 307.8802030  +6.2643182     975.5942     1377.765     1219.955     77.49654      155.055     310.5428      1.590     3.58      844.295     54.75454     136.4268        12     0.980     0.870   5.07   0
        38    480.9121    968.7360 307.7064375  +6.2793832     2195.926     3251.903     2677.226     77.86705     155.6108     310.6354      1.551     3.08     850.5552     54.75454     320.1776        21     1.178     1.039  50.31   0
        39    915.2875    960.8727 307.5263391  +6.2970609     38516.16     68113.97     73040.86     77.99016     155.6108     310.6354      1.914     3.85     845.9235     54.75454     4168.678        81     1.666     1.497  61.40   0
        40    222.3886    959.4010 307.8140888  +6.2746191     1742.135     2552.286     2502.423     77.49654      155.055       310.45      1.558     3.46     847.4072     54.75454     236.9647        16     1.092     0.981 -49.54   0
        41    110.4152    957.9983 307.8606261  +6.2714587     658.3995     904.9772     603.7602     77.49654     154.9931       310.45      1.415     4.00     844.7836     54.75454       113.65         6     0.955     0.479 -10.97   0
        42    620.9402    957.2781 307.6486785  +6.2887727     740.9164     1227.812     1159.969     77.99016      155.364     310.6045      1.696     4.72     849.6188     54.75454     98.43915         8     1.002     0.631  -7.03   0
        43    813.2549    954.6276 307.5689135  +6.2962551     2096.651     3427.901     3313.314     77.49654     155.4258      310.481      1.706     3.72     846.8401     54.75454     276.8704        23     1.214     1.183  41.62   0
        44    761.4808    952.4808 307.5904829  +6.2954229     6329.267     10560.95     11414.28     77.86705     155.6108     310.7898      1.834     3.68     847.5243     54.75454     768.3231        43     1.565     1.288  80.29   0
        45    548.4200    951.9495 307.6789678  +6.2885607     883.2714      1393.89     907.3855     77.37265     155.4258     310.5119      1.642     5.67     849.7606     54.75454     131.6631        11     1.138     0.795  62.92   0
        46    230.7888    951.6020 307.8108621  +6.2781194     1425.566     2010.238     2444.434     77.49654      155.055     310.4192      1.791     3.25     847.2816     54.75454     186.3167        13     0.981     0.855 -42.65   0
        47     55.7070    949.9587 307.8836098  +6.2729493     2701.366     4226.999      4392.75     77.99016     155.3023     310.7281      1.683     3.47     843.8141     54.75454     347.5115        23     1.233     1.108  74.45   0
        48    195.4787    951.1602 307.8255375  +6.2771231      861.991     1423.693     1529.705     77.74374      155.364     310.6354      1.650     2.88      846.209     54.75454     137.1001         8     0.861     0.632  34.16   0
        49    949.6333    947.5988 307.5125189  +6.3036799     5846.983      10614.4     11215.53     77.12426     155.1787     310.3882      1.919     4.02     844.8643     54.75454     622.6805        42     1.547     1.366  70.38   0
        50    205.8153    944.1440 307.8214808  +6.2803650     763.7306     1000.124     871.2043     77.24855     155.3023     310.3573      1.429     4.33     846.2975     54.75454     96.70233         8     0.845     0.669  47.45   0
        51    923.3367    939.3047 307.5237139  +6.3062327     1757.087     3161.878     3218.403     77.74374     155.4875     310.6663      1.805     4.92     845.5004     54.75454     210.5735        22     1.395     1.128  73.20   0
        52    631.5659    942.2705 307.6447669  +6.2953223     737.1066     1123.915     1119.861     77.74374      155.364     310.6972      1.627     4.58     849.2498     54.75454     98.98956         8     1.074     0.554  17.75   0
        53    256.3271    935.7021 307.8007908  +6.2855362     4516.458     6614.979     6550.384     77.49654     155.4875     310.6354      1.582     3.26     847.1842     54.75454     599.7161        29     1.281     1.109  62.25   0
        54    782.9111    935.8126 307.5821394  +6.3030163     1132.003     2075.562     2790.249     77.62024     155.1168     310.5428      2.029     6.22     847.2637     54.75454     165.0399        15     1.449     0.907  34.83   0
        55    644.1408    935.2493 307.6397796  +6.2986392      4691.61     7164.009     7505.307     77.86705      155.364     310.6972      1.634     3.22     849.0963     54.75454     627.8335        28     1.325     1.087  80.65   0
        56    466.3004    933.9384 307.7136665  +6.2932636     1215.906     1782.911     1748.913     77.62024     155.2405     310.7589      1.582     3.60     849.5994     54.75454     164.7949        14     1.149     0.811 -80.61   0
        57     24.9414    933.2792 307.8969427  +6.2788069     2151.815     3479.499     3715.161     77.99016      155.364     310.6045      1.751     3.70     842.8771     54.75454     295.6279        23     1.324     1.078  71.88   0
        58    875.8601    931.5693 307.5436850  +6.3078524     923.8784     1523.022     1078.408     77.62024      155.364     310.6045      1.831     6.54     846.1233     54.75454     113.3967        13     1.151     1.042  82.59   0
        59    292.2456    929.0643 307.7860993  +6.2894750     962.9062     1218.133     1237.275     77.86705     155.3023     310.6354      1.409     3.58     847.9106     54.75454     136.7303        10     0.990     0.793  50.16   0
        60    947.7617    928.7891 307.5139212  +6.3113840     699.3976     1229.231     1325.856     77.37265     155.1787     310.3573      2.119     4.82     844.6171     54.75454     87.14777         7     1.327     0.496 -45.72   0
        61    568.7185    927.8107 307.6713449  +6.2992023     1758.984     2475.616     2864.606     77.49654      155.055      310.481      1.492     3.28     849.0239     54.75454     222.0916        17     1.121     0.927  89.04   0
        62    999.8466    927.7158 307.4923291  +6.3135529     648.0662     1340.574      1846.43     77.86705      155.364     310.6663      2.427     4.78     842.8444     54.75454     101.6055         7     1.130     0.574 -22.91   0
        63     57.5025    925.1876 307.8836950  +6.2832363     861.2435     1453.338     2081.394     77.62024     155.1168     310.4192      2.311     3.67     843.3798     54.75454     141.3575         9     0.903     0.740  59.50   0
        64    608.0244    924.3365 307.6551399  +6.3019440     1291.668     1995.588     2225.308     77.49654      155.364     310.6045      1.660     4.33     848.9918     54.75454     167.6956        16     1.186     0.949  63.11   0
        65    287.7888    921.8503 307.7881912  +6.2923048     1548.267     2301.283     2504.268     77.24855     155.2405     310.3573      1.575     3.97     847.6906     54.75454     211.5471        16     1.233     0.918 -57.55   0
        66    754.7254    917.7726 307.5944437  +6.3095289     852.2518     1285.201     1642.525     77.74374     155.3023     310.6045      1.622     4.65     847.5191     54.75454     104.6973         8     0.958     0.642 -83.00   0
        67    892.4001    914.4197 307.5373874  +6.3154816     6559.999     11044.54     11465.52     77.37265     154.9312     310.3264      1.817     3.71     845.5786     54.75454     765.6642        40     1.498     1.277  87.53   0
        68    130.0329    916.0443 307.8538869  +6.2894353     466.9387     892.4882     1141.552     77.49654     155.3023     310.5118      1.466     5.11     844.4484     54.75454       76.987         6     1.231     0.600 -89.93   0
        69    428.3163    912.0058 307.7301709  +6.3010538     2136.134     3220.751     2981.691     77.37265      155.055     310.3882      1.576     3.58     848.6458     54.75454     291.9986        20     1.202     1.059  22.00   0
        70    329.8242    910.2503 307.7711255  +6.2984960     9769.331     14453.57     15267.29     77.49654      155.364     310.5428      1.578     3.04      847.589     54.75454     1359.178        38     1.304     1.205  70.79   0
        71    249.9126    909.2979 307.8043379  +6.2962235     7311.488     10958.89     11720.14     77.86705     155.7957     310.6663      1.619     3.11     846.3766     54.75454     1004.957        36     1.394     1.162  87.27   0
        72    578.1121    903.4600 307.6682568  +6.3095686     1151.211      1663.67     2019.779     77.86705     155.5492     310.7281      1.557     3.39      848.823     54.75454     175.9966        14     1.032     0.914  -2.83   0
        73    762.4134    902.7942 307.5917502  +6.3159684     553.0471     987.5099     1201.941     77.49654     155.1787     310.5119      2.189     5.16     847.2562     54.75454      78.5434         5     1.077     0.699 -10.08   0
        74    908.3970    899.4281 307.5312433  +6.3222018     972.6036     1780.097     1685.011     77.37265     155.1168       310.45      1.985     5.42     845.0288     54.75454     131.2882        14     1.346     0.868  75.95   0
        75    864.5893    897.6120 307.5494947  +6.3214988     679.8123     1089.361     472.2205     77.62025     155.1787     310.6045      1.686     5.59     845.7795     54.75454     89.67261         7     1.048     0.842 -11.82   0
        76    406.9639    897.9240 307.7395075  +6.3061564     495.5912      687.205     667.7526     77.74374     155.4258     310.6663      1.335     3.71     848.0425     54.75454     93.15601         5     0.657     0.603 -87.69   0
        77    744.3406    892.5825 307.5995949  +6.3195845      1654.11      2506.83     2416.632     77.49654     155.2405     310.3882      1.636     3.83     847.3833     54.75454     220.6484        19     1.200     1.070  63.03   0
