#   1 NUMBER                 Running object number                                     
#   2 X_IMAGE                Object position along x                                    [pixel]
#   3 Y_IMAGE                Object position along y                                    [pixel]
#   4 ALPHA_J2000            Right ascension of barycenter (J2000)                      [deg]
#   5 DELTA_J2000            Declination of barycenter (J2000)                          [deg]
#   6 FLUX_APER              Flux vector within fixed circular aperture(s)              [count]
#   9 FLUXERR_APER           RMS error vector for aperture flux(es)                     [count]
#  12 FLUX_RADIUS            Fraction-of-light radii                                    [pixel]
#  13 FWHM_IMAGE             FWHM assuming a gaussian core                              [pixel]
#  14 BACKGROUND             Background at centroid position                            [count]
#  15 THRESHOLD              Detection threshold above background                       [count]
#  16 FLUX_MAX               Peak flux above background                                 [count]
#  17 ISOAREA_IMAGE          Isophotal area above Analysis threshold                    [pixel**2]
#  18 A_IMAGE                Profile RMS along major axis                               [pixel]
#  19 B_IMAGE                Profile RMS along minor axis                               [pixel]
#  20 THETA_IMAGE            Position angle (CCW/x)                                     [deg]
#  21 FLAGS                  Extraction flags                                          
         1    629.4466     28.9177 307.6804210  +6.6762594     3224.813     5615.453      6561.27     77.81606     155.2623      310.432      1.993     5.34     822.6741     54.71869      501.566        33     1.913     1.063  77.53   0
         2    698.1669     19.7752 307.6521763  +6.6823342     1924.486     2693.028     2593.709     77.19798     155.0153     310.2159      1.491     3.83     821.9435     54.71869     281.8506        16     1.278     0.793 -79.13   0
         3    263.6615     14.7249 307.8328709  +6.6698489     823.7038     1486.519     1984.028     78.06193     155.2623      310.432      1.980     5.65      829.707     54.71869     119.5672        10     1.040     0.881 -86.88   0
         4    186.3548     12.4786 307.8650642  +6.6681771     11728.44     17023.76     17915.44     77.81606     155.2623     310.4012      1.576     3.23     830.3523     54.71869     1517.681        39     1.397     1.096 -73.30   0
         5    932.0590     10.2981 307.5553144  +6.6940631     4414.552     6294.005     6165.485     77.56942     155.2006     310.5555      1.527     3.22     818.6078     54.71869     661.1082        24     1.218     0.999 -80.60   0
         6    530.5229     10.7590 307.7221322  +6.6804429      3134.25     4581.605      4301.18     77.69284     155.2623     310.4937      1.536     3.27      821.923     54.71869     465.3317        23     1.275     0.976 -77.62   0
         7    732.8635      8.8075 307.6381287  +6.6880232     2004.865     2684.103     2704.879     77.19798     155.0153     310.2468      1.394     3.21     820.7264     54.71869      337.037        11     1.035     0.663 -77.52   0
         8    468.8864      9.1828 307.7477937  +6.6790271     1951.995     2781.844     2415.581      77.4458     155.0153     310.3703      1.459     3.22      822.056     54.71869     290.6149        16     1.148     0.832 -71.64   0
         9    996.7455      6.4700 307.5285654  +6.6978019     2152.779     3254.887     3179.514     77.69284     155.1388     298.7621      1.632     3.54     816.8578     54.71869     325.1946        20     1.352     0.821 -78.20  16
        10    827.8715      7.9446 307.5986827  +6.6915555     478.6372     638.6429     674.7285     77.69283     155.2006     308.6678      1.416     4.02     819.1974     54.71869     73.95673         6     0.981     0.470 -50.68   0
        11    792.2012      5.7756 307.6135762  +6.6912590     520.2128     524.3942       939.18      77.4458     154.9534     292.1466      1.047     3.37      819.348     54.71869     89.94781         6     0.755     0.557 -51.08  16
        12    716.1140      3.0408 307.6452816  +6.6898439     7961.149      11046.3     10999.13     77.81606     145.2511     259.6043      1.465     3.19     821.0557     54.71869     1146.495        30     1.300     1.020 -69.79  24
        13    636.4155      2.4465 307.6784154  +6.6874221     4136.936     5518.872     5436.234     77.32199     138.4286     250.6666      1.455     3.33     822.3541     54.71869     556.3989        22     1.160     0.984 -75.05  24
        14    338.3569      1.9599 307.8022682  +6.6776286     1072.673      1541.19     1997.178     74.28856     132.1975     243.4533      1.481     4.09     829.2957     54.71869     150.3555        10     1.043     0.749 -62.90  24
        15    391.6085      1.2922 307.7801663  +6.6796922     498.3507     679.6218     605.5779     66.81956     122.4917     232.7082      1.122     3.04     825.6807     54.71869     124.4951         5     0.934     0.397 -15.18  24
        16    757.5575    993.9043 307.5948216  +6.2821132     7945.024     12254.24     13082.31     77.81606     155.2006     310.5555      1.667     3.33     852.6664     54.71869     943.5753        39     1.534     1.139 -79.62   0
        17    898.9235   1023.1582 307.5351522  +6.2747548      1217.26     1629.115     1748.252      73.3802     130.8864     241.9136      1.394     3.57     852.0419     54.71869     177.2639        11     0.984     0.820 -16.67  24
        18    800.5474   1023.7517 307.5759738  +6.2712256     563.3959     520.1623     757.7538     66.81956     122.1784     232.2962      0.998     3.77     851.1177     54.71869      118.314         6     0.943     0.432  -0.23  24
        19    591.7745   1022.4014 307.6626910  +6.2648031     73123.64     99183.42     102635.6      77.4458     140.1482     252.9874      1.506     3.50     855.2756     54.71869     9317.614        63     1.343     1.208 -25.44  24
        20    221.5469   1022.0491 307.8163966  +6.2525355     2130.186     3254.407     3400.693     77.93909     144.2582     258.0867      1.614     3.66     856.1351     54.71869     262.8226        19     1.224     0.937 -62.54  24
        21    553.0462    994.4732 307.6797068  +6.2750379     4414.417     6724.517     7848.828     77.69283      155.324      310.432      1.727     3.46     855.4749     54.71869     587.8663        30     1.514     1.062 -66.72   0
        22    303.4725    993.1174 307.7833615  +6.2672314     15338.44     23467.51     25849.66     78.06193     155.5705     310.4629      1.701     9.74     855.3355     54.71869     2139.041        61     2.085     1.269 -41.76   0
        23    818.9642    993.6990 307.5693347  +6.2842493      1029.79     1798.063     2069.509     77.81606     155.1388     310.6172      1.925     6.88     851.0851     54.71869     119.9561        15     1.246     1.139 -30.84   0
        24    427.7696    993.7064 307.7317409  +6.2711575     1194.638     1784.372     1855.975     77.93909     155.0153     310.3703      1.588     3.97     855.6221     54.71869     166.9903        11     1.106     0.678  83.84   0
        25    129.8755    993.7080 307.8554070  +6.2611563     498.8903     831.4157     110.5717     77.81606     155.3857      310.432      1.705     5.27     852.4445     54.71869     88.36371         5     1.003     0.783 -76.94   0
        26    274.2996    990.6286 307.7955560  +6.2672798     1015.774     1594.873     1385.305     77.81606     155.0153     310.4012      1.683     3.42     855.2917     54.71869     138.1469        10     1.023     0.663 -77.53   0
        27    918.9074    987.4357 307.5280512  +6.2901712     8408.986     13892.49     14817.06     77.93909     155.1388     310.4937      1.795     3.69     850.8159     54.71869     1005.099        42     1.514     1.250 -80.56   0
        28    550.2180    986.7327 307.6811409  +6.2781391     8687.393     12965.88     14500.84      77.4458     155.2006     310.3394      1.620     3.26     855.3849     54.71869       1146.1        34     1.394     1.078 -76.95   0
        29    892.5144    983.6236 307.5391364  +6.2908646     11852.28     19846.07     21447.72     77.81606     155.0153     310.3085      1.839     3.78     850.7549     54.71869     1409.907        53     1.560     1.429 -65.95   0
        30     48.9370    986.3773 307.8892538  +6.2614608     406.8938     698.4603     279.0204      77.4458     155.2623     310.3394      1.926     4.19     852.3269     54.71869     77.64368         5     1.073     0.466  62.18   0
        31    605.2198    984.2897 307.6583886  +6.2809889     1344.506     2095.862     2812.697     77.69284     155.0153     310.2776      1.787     4.57     854.3053     54.71869     177.5773        15     1.310     0.784 -74.58   0
        32      1.9480    985.6288 307.9087851  +6.2601885     577.5024     638.5393     357.1827     74.03017      132.125     243.2958      1.393     4.89     852.3069     54.71869     82.54657         5     1.239     0.547 -50.04  24
        33   1014.2927    983.0267 307.4885973  +6.2951724     4214.865     7329.914      7726.55     77.93909     155.0153     310.2776      1.849     4.16     847.8214     54.71869     472.4821        34     1.460     1.251 -74.22  16
        34    536.5223    982.5434 307.6869675  +6.2794102     4390.923     6544.787     7946.037     77.81606     155.2623     310.4012      1.767     3.33     855.3983     54.71869     606.4642        28     1.410     1.134 -86.13   2
        35    645.9980    982.1589 307.6415307  +6.2832330     1366.969      1997.58     1924.261     77.19798     155.0153     310.1541      1.483     4.71     854.1069     54.71869     197.9496        14     1.316     0.794 -62.37   0
        36    801.6621    980.8746 307.5769476  +6.2889665     744.0822     1223.503     1701.806     78.06193     155.2623      310.432      1.772     5.69      851.075     54.71869     101.9447         9     1.600     0.569 -73.74   0
        37     71.4169    981.2297 307.8800956  +6.2643424     932.7834      1580.71     1578.628      77.4458     155.0153     310.3703      1.781     3.94     852.2673     54.71869     139.0076        10     1.139     0.767 -53.65   0
        38    489.6234    979.1968 307.7065501  +6.2792211     2237.588     3314.662     3747.122      77.4458     154.9534     310.2776      1.569     3.70     855.3568     54.71869     302.9482        21     1.375     0.890 -85.81   0
        39    398.5860    978.1104 307.7443809  +6.2766184     615.9465     1028.341     1067.215     77.56942     155.0771     310.3085      1.660     5.57     855.2734     54.71869     91.94159         6     1.107     0.845 -29.63   0
        40    924.2097    971.1854 307.5263937  +6.2970578      42012.5     69099.91     73530.89     77.56941     155.0153     310.3703      1.770     3.72     850.1866     54.71869     5296.141        77     1.652     1.360 -78.63   0
        41    231.4740    969.5746 307.8140438  +6.2745344     1816.135     2705.439     2592.872      77.4458     155.1388     310.3703      1.620     4.25     854.4823     54.71869     253.2432        14     1.319     0.725 -67.41   0
        42    119.3934    968.6678 307.8606031  +6.2711423     716.2253     937.1814     425.1737     77.32198     155.0153     310.2468      1.303     3.99      852.177     54.71869     118.3809         6     0.949     0.479 -83.43   0
        43    630.3903    967.4374 307.6485045  +6.2887892     853.5184     938.3279     606.8167     77.19798     155.0771     310.1232      1.415     4.94     853.8791     54.71869     161.6902        11     1.276     0.581 -48.90   0
        44    822.2283    964.9148 307.5689438  +6.2962431     2232.351     3495.581     3707.617     77.93909     154.9534     310.3085      1.638     3.66     850.8226     54.71869     300.1428        20     1.236     0.981 -79.50   0
        45    770.3909    962.8053 307.5905360  +6.2953826     6587.771      10464.9     11227.46     77.19798     155.0153     310.2776      1.721     3.49     851.8785     54.71869     809.3408        38     1.557     1.119 -77.23   0
        46    738.3671    963.7994 307.6037981  +6.2939020        414.2     672.9359     341.3057     77.07376     155.0771      310.185      1.437     3.38     852.7405     54.71869      78.5744         5     0.750     0.440 -71.08   0
        47    556.9944    962.3488 307.6791467  +6.2884338     1071.736     1456.389      1273.63     77.32198     155.0771     310.0923      1.499     5.46      854.738     54.71869     144.9109        11     1.173     0.717 -78.75   0
        48    239.9152    961.7908 307.8108018  +6.2780317     1498.505     2425.278     2362.678      77.4458     154.9534     310.2776      1.603     4.03     854.3068     54.71869       223.08        12     1.183     0.689 -70.97   0
        49    204.1497    961.4532 307.8256609  +6.2769696     825.8962     1217.902     954.0789     77.93909     155.2006     310.4629      1.574     5.17     853.4764     54.71869     110.6077         9     1.134     0.667 -84.15   0
        50    958.5294    958.0076 307.5125858  +6.3036436     6434.325     11027.14     11277.37     77.32198     154.8916     310.3394      1.829     3.77     848.5733     54.71869     762.0312        41     1.516     1.300 -70.16   0
        51     64.8017    959.7465 307.8835668  +6.2729896     2848.577     4397.834     4763.833     77.19798     155.0153     310.0305      1.618     3.49     851.9657     54.71869     385.5061        20     1.324     0.850 -67.24   0
        52    214.8494    953.9534 307.8214718  +6.2804256     805.8763     1125.669     750.1336     77.81606     155.1388     310.4937      1.371     3.80     853.5852     54.71869     124.6985         6     0.905     0.472 -57.44   0
        53    932.5115    949.8774 307.5236600  +6.3061327     2152.914     3624.716     3688.077     77.81606     155.5089     310.4937      1.759     4.52     849.1759     54.71869     287.7856        26     1.529     1.122 -75.14   0
        54    640.6103    951.9639 307.6447808  +6.2955200     721.0339     1074.528     748.6469     77.32198     155.0771     310.2159      1.414     3.29     853.5998     54.71869     128.2521         6     0.973     0.732 -87.06   0
        55    265.2648    945.6768 307.8008209  +6.2855360      4571.23     6699.267     7592.152     77.93909     155.2623      310.432      1.618     3.45     854.1976     54.71869     630.5458        28     1.324     1.054 -76.82   0
        56    792.0760    945.7812 307.5821034  +6.3031361     1387.551     2177.223      2364.45     77.32198     155.0153     310.3703      1.644     4.22     851.2351     54.71869     185.4033        17     1.332     0.903 -71.04   0
        57    653.0513    945.5294 307.6398316  +6.2985929     4876.765     7119.565     7354.906     77.69283     155.2006     310.4629      1.587     3.42     853.4838     54.71869     646.6905        27     1.348     1.017 -77.36   0
        58   1002.9112    945.3596 307.4945822  +6.3103456     600.7327     937.9442     1188.514     77.81606     155.2006     310.4629      1.481     3.84     846.3929     54.71869     95.95599         5     0.888     0.476   4.57   0
        59    475.2767    943.4946 307.7137064  +6.2934813     1286.781     1949.471      1710.33     77.56942     155.3857     310.4937      1.613     3.97     854.7469     54.71869     185.5341        17     1.231     0.904 -79.81   0
        60     33.8488    943.2316 307.8969739  +6.2787666     2162.357     3445.298     3739.507     77.56941     155.2623     310.3703      1.650     3.79     851.6309     54.71869      330.056        24     1.505     0.936 -74.99   0
        61    884.9510    942.2515 307.5436617  +6.3076945     936.5851     1350.532     1207.592     77.93909     155.1388     310.4012      1.587     4.40     849.5038     54.71869     124.0127        10     0.924     0.864  28.91   0
        62    956.4134    939.2729 307.5140911  +6.3113085     876.7966     1253.225     1131.786     77.32198     154.9534     310.2159      1.502     4.45     847.8699     54.71869     113.6967         9     0.944     0.703 -72.06   0
        63    301.2803    939.6259 307.7860727  +6.2892434     1010.559     1443.311      1628.89     77.69284     155.0771      310.432      1.506     4.29     854.5068     54.71869     148.1204        12     1.133     0.834  89.74   0
        64   1009.2493    937.1079 307.4922266  +6.3139640     846.5426     1713.833     2088.829     77.69283     155.1388     310.5863      2.291     7.47     845.7894     54.71869     112.5315        15     1.620     0.964 -70.55   0
        65    577.7977    938.0089 307.6713273  +6.2991799     1723.139     2657.192     2290.906     77.19798     154.9534     310.2468      1.540     2.90      853.894     54.71869     304.5262        15     1.082     0.846  87.16   0
        66     66.6637    935.4761 307.8836130  +6.2830728     828.1969     1160.005     1311.474     78.06193     155.2623     310.4012      1.183     4.22     851.6189     54.71869     191.9541         8     1.301     0.421 -68.63   0
        67    617.0611    934.2800 307.6551514  +6.3020336     1340.891     1848.913     2156.756     77.93909     155.2623      310.432      1.540     4.69     853.3019     54.71869     174.9342        12     1.095     0.788 -64.83   0
        68     61.3763    933.7862 307.8858651  +6.2835926     534.1373     766.1335     979.3751     77.56942     155.0771     310.3703      1.825     4.61     851.5834     54.71869     75.10638         5     0.834     0.724  14.04   0
        69    296.7521    932.0009 307.7882094  +6.2922396     1521.217     2084.568     2179.972     77.19798     154.8916     309.9996      1.487     3.40     854.3689     54.71869     243.7976        16     1.191     0.837 -79.30   0
        70    564.7482    930.4063 307.6770004  +6.3018820     680.7421       844.98     372.1534     77.32198     155.0771     310.0923      1.378     4.33     853.9468     54.71869      86.5639         7     0.976     0.547 -57.88   0
        71    763.5885    928.5834 307.5945073  +6.3092852     1024.727     1553.845     1178.894     77.56942     154.9534     310.3394      1.630     4.50     851.5856     54.71869     131.5536        11     1.002     0.809 -72.27   0
        72    901.2991    924.7612 307.5374597  +6.3154617     7048.191     10745.93     11091.65     77.81606     155.1388      310.648      1.655     3.53     848.8132     54.71869     875.0779        33     1.398     1.101 -75.18   0
        73    139.0356    925.5439 307.8539034  +6.2896074     610.1289     981.2927     1116.356     77.69283     155.2623     310.4629      1.442     3.32     851.7753     54.71869     89.88342         6     0.782     0.497   2.64   0
        74    437.2520    922.0002 307.7302157  +6.3010816     2251.143     3371.772     3630.413     77.07376     154.7678     309.9996      1.570     3.61     854.3376     54.71869     368.4257        18     1.262     0.884 -77.86   0
        75    338.8367    920.2833 307.7711321  +6.2984900     10187.52     14883.08     15334.23     77.81606     155.2006     310.3703      1.559     3.47     854.3394     54.71869     1510.967        38     1.419     1.071 -67.65   0
        76    606.0196    921.9293 307.6601502  +6.3067636     645.1363     771.6702     460.8107      77.4458     155.1388     310.3703      1.344     4.95     853.1613     54.71869     87.60449         7     1.079     0.644 -59.89   0
        77    258.9534    919.2247 307.8043322  +6.2962456     7475.403     10783.66     11743.07      77.4458     155.2623     310.3085      1.529     3.36     853.6082     54.71869     1099.684        29     1.321     1.043 -72.25   0
