#   1 NUMBER                 Running object number                                     
#   2 X_IMAGE                Object position along x                                    [pixel]
#   3 Y_IMAGE                Object position along y                                    [pixel]
#   4 ALPHA_J2000            Right ascension of barycenter (J2000)                      [deg]
#   5 DELTA_J2000            Declination of barycenter (J2000)                          [deg]
#   6 FLUX_APER              Flux vector within fixed circular aperture(s)              [count]
#   9 FLUXERR_APER           RMS error vector for aperture flux(es)                     [count]
#  12 FLUX_RADIUS            Fraction-of-light radii                                    [pixel]
#  13 FWHM_IMAGE             FWHM assuming a gaussian core                              [pixel]
#  14 BACKGROUND             Background at centroid position                            [count]
#  15 THRESHOLD              Detection threshold above background                       [count]
#  16 FLUX_MAX               Peak flux above background                                 [count]
#  17 ISOAREA_IMAGE          Isophotal area above Analysis threshold                    [pixel**2]
#  18 A_IMAGE                Profile RMS along major axis                               [pixel]
#  19 B_IMAGE                Profile RMS along minor axis                               [pixel]
#  20 THETA_IMAGE            Position angle (CCW/x)                                     [deg]
#  21 FLAGS                  Extraction flags                                          
         1     10.0542     97.4048 307.9359355  +6.6322114     721431.8      1629010      1815222     78.29137     157.2108     314.5157      2.285    12.59     855.6755     55.49371     61577.79       453     2.428     1.818 -41.29  28
         2    997.3804     18.4568 307.5282482  +6.6979022      1847.41     3169.447     3388.734     78.54272     157.3988      314.641      1.824     4.77     831.5618     55.49371     272.3417        20     1.611     0.815 -36.65   0
         3    716.7537     15.0211 307.6450029  +6.6899484     7016.925     11336.28     11843.46     78.54272     157.4614     314.6723      1.689     4.11     835.6193     55.49371     1003.403        32     1.614     0.945 -36.54   0
         4    636.8651     14.1647 307.6782360  +6.6876288     3635.569     5873.854     6642.637     78.79325     157.4614     314.8602      1.719     4.43     835.7991     55.49371     540.3909        24     1.573     0.825 -34.25   0
         5    338.8592     13.8664 307.8021041  +6.6777607     915.9491     1635.745     2157.618     79.04299     157.3988     314.8289      1.889     5.92     846.3109     55.49371     163.4207        13     1.535     0.741 -36.04   0
         6    437.1310     10.4522 307.7613755  +6.6824685     5897.881     9620.029     9568.881     78.79325     157.3362      314.735      1.726     4.68     839.5063     55.49371       784.85        34     1.678     0.970 -32.61  16
         7     38.0693      9.9894 307.9272445  +6.6692455     7861.854     13037.38     13771.64     78.41714     157.2735      314.641      1.749     4.56     846.6073     55.49371      1063.04        34     1.663     0.955 -33.77  16
         8    683.8797      9.2139 307.6588613  +6.6912463     806.2961     1267.603     1559.171     78.54272     157.2108     314.6097      1.547     4.38     835.7856     55.49371     131.5031         8     1.069     0.510 -52.20   0
         9    512.6879      7.4930 307.7300717  +6.6862239     811.4127     1340.114     1921.278     78.91822     157.8989     310.7331      1.698     4.66     836.4143     55.49371     129.1239         8     1.261     0.489 -44.82  16
        10    333.6865      5.3702 307.8045400  +6.6810949     12333.39      20028.2     21638.45     79.04299     157.2108     292.0973      1.765     4.41     846.2608     55.49371     1714.399        46     1.782     1.005 -34.77  24
        11    107.3228      5.5242 307.8986136  +6.6734209     2482.388     4093.441     4245.387     79.16757     157.7115     293.9135      1.794     4.66     846.8652     55.49371     387.3199        24     1.607     0.876 -30.02  16
        12    428.7999      6.0829 307.7649850  +6.6839931     856.5656     1278.715     1720.644     78.16541     156.9599     299.1312      1.587     5.07     839.9434     55.49371     122.6495        12     1.186     0.725 -20.24  16
        13     98.4334      4.6671 307.9023370  +6.6734755     1503.857     2230.849     2827.676     78.79325      157.524     284.3705      1.713     5.99     847.1885     55.49371     205.0838        17     1.619     0.748 -32.06  16
        14    467.7413      4.1001 307.7488667  +6.6861178     754.1384      1160.12     1230.256     78.66808     155.9521     277.4952      1.794     3.57     837.6134     55.49371     127.9053         8     1.052     0.716 -57.62  16
        15    801.9359      3.9767 307.6099682  +6.6973562     753.7936     1142.958     1103.012     78.54272     155.2555     275.7496      1.690     5.07     836.6549     55.49371     118.8649         9     1.361     0.567 -22.47  16
        16    399.9695      3.1850 307.7770650  +6.6842222     2163.809     3323.438     3141.805     78.54272     148.5076     265.1833      1.624     5.05     842.1755     55.49371     348.5137        19     1.479     0.806 -35.82  24
        17    994.1796      1.2775 307.5301531  +6.7048886     463.6498     629.6093     922.6376      67.6204     124.2266     235.8789      1.236     4.33     830.1851     55.49371     91.13184         7     1.199     0.444   2.81  24
        18    659.4561      1.1741 307.6692823  +6.6937485     1435.711     1692.719     1861.827     66.29582     122.5494     234.1598      0.952     2.36      835.484     55.49371     418.4203         8     1.055     0.369  -5.14  24
        19   1014.8939    994.9646 307.4883447  +6.2952922     3612.591     7266.339     7288.717     79.04299     157.3362     314.9228      2.085     4.94     865.3118     55.49371     412.0803        41     1.803     1.298 -30.07  16
        20    964.9690   1020.8026 307.5082164  +6.2829595      5254.68     10355.78     10561.27     78.29137     156.3938     278.4524      2.036     4.70     867.5451     55.49371      613.802        46     1.833     1.301 -35.50  24
        21    605.9661    995.9106 307.6581449  +6.2812455     1190.584     1953.732     2177.439     79.04299     157.3988     314.8289      1.635     5.86     872.1567     55.49371     187.7401        13     1.499     0.645 -35.55   0
        22    537.3580    994.6409 307.6866804  +6.2794732     3784.948     6473.757     7262.604     78.66808     157.4614     314.7036      1.896     4.50     872.1866     55.49371     471.9407        37     1.855     1.144 -16.32   0
        23    647.2369    993.7092 307.6410788  +6.2835351     1200.845     2146.731     2241.911     79.04299     157.3988     314.8602      1.735     6.08     871.5347     55.49371     165.9402        14     1.440     0.722 -27.97   0
        24     71.4760    993.5596 307.8801907  +6.2642842     678.5682     1302.288     1597.538     78.79325     157.4614     314.8602      2.182     6.78      867.657     55.49371       91.099        11     1.305     0.987 -25.91   0
        25    490.3199    991.1692 307.7063318  +6.2793311     1965.825     3399.367     3219.387     78.79325     157.4614     314.7976      1.802     4.46     872.4412     55.49371     291.4314        21     1.589     0.826 -37.45   0
        26    924.8693    983.1326 307.5261287  +6.2971759     36479.26      67031.4     73379.95     78.91822     157.5865     314.8289      1.998     4.52     867.5747     55.49371     4150.013        91     1.963     1.361 -33.88   0
        27    232.1541    981.4517 307.8138723  +6.2746838     1611.793     2606.673     2746.302     79.04299     157.3988     314.8915      1.822     4.55     869.9619     55.49371     231.8905        17     1.449     0.791 -35.69   0
        28    631.2427    979.6238 307.6481933  +6.2888158     783.9388      1315.22     1559.858     78.54272     157.3362     314.6723      1.910     5.99     871.5991     55.49371     106.8605        12     1.615     0.625 -45.58   0
        29    822.9474    976.9250 307.5686662  +6.2963374     2001.749     3369.858     3410.597     78.91822      157.524     314.8289      1.839     4.81     869.0366     55.49371     250.5181        20     1.491     0.903 -35.66   0
        30    770.9904    974.8708 307.5903136  +6.2954502     5891.124     10529.54     11856.94     78.41714     157.0854     314.6723      1.898     4.42     869.6591     55.49371     738.4928        40     1.712     1.173 -35.65   0
        31    240.4144    974.0193 307.8106920  +6.2780299     1352.105     2329.163     2247.473     78.54272     157.2108      314.735      1.831     5.31     870.0168     55.49371     187.5674        18     1.690     0.699 -42.02   0
        32    557.6122    974.3959 307.6789478  +6.2885102     911.1873     1562.029     1766.134     78.54272     157.1481     314.7036      2.028     6.06     871.9233     55.49371     134.5653        14     1.389     0.743 -37.62   0
        33    204.8164    973.3608 307.8254975  +6.2771061     805.3206     1444.507     2006.309     78.54272     157.3362     314.6097      1.864     5.64      869.319     55.49371     105.0656        11     1.252     0.754 -36.46   0
        34     65.4948    971.7843 307.8834084  +6.2730735     2241.929     3687.277     3319.301     78.66808     157.2735     314.6723      1.711     4.66     867.0336     55.49371     334.2075        21     1.636     0.779 -28.39   0
        35    959.2379    969.8905 307.5122971  +6.3037898     5594.242     10164.54     10407.33     79.04299     157.3988     314.8602      1.939     4.51     866.2861     55.49371     639.2748        43     1.816     1.177 -28.33   0
        36    215.0695    966.5929 307.8214673  +6.2802448     553.6805     838.4473     1235.771     78.41714     157.0854      314.735      1.559     5.22     869.3354     55.49371     102.0837         7     1.150     0.669 -60.85   0
        37    640.8997    963.8335 307.6447118  +6.2956585     696.2388     1353.134     1495.865     78.91822     157.3362     314.9853      1.897     6.45     871.2565     55.49371     128.5769        11     1.464     0.799 -44.94   0
        38    932.9413    961.6188 307.5234951  +6.3063281     1819.396     3235.884     3316.193     78.54272     157.3362     314.6097      1.834     4.59     866.7957     55.49371     231.0325        23     1.469     1.023 -33.00   0
        39    653.7158    957.5256 307.6396004  +6.2986916     4165.732     6976.768       6867.5     79.04299      157.774     314.8915      1.804     4.42     871.0184     55.49371     556.5988        32     1.681     0.986 -35.07   0
        40    792.4822    958.2646 307.5819433  +6.3030247     1134.154     1936.762     2039.132     79.04299     157.5865     314.8602      1.922     6.11     869.1544     55.49371     156.3553        13     1.415     0.743 -38.51   0
        41    265.8195    957.6949 307.8006906  +6.2856229     3932.084     6459.892     7025.676     78.79325     157.2735      314.641      1.763     4.44     870.2854     55.49371     561.6877        27     1.644     0.890 -32.64   0
        42    476.0887    955.9429 307.7134243  +6.2933988     1041.545      1769.33      1889.33     78.91822     157.3988      314.954      1.931     5.58     871.6851     55.49371     173.5041        13     1.559     0.659 -29.04   0
        43     34.7274    954.9606 307.8967525  +6.2789843     2011.098      3518.68     3963.618     78.79325     157.4614     314.8914      1.886     4.89     865.9478     55.49371     280.3052        24     1.566     0.993 -30.03   0
        44    884.9775    954.4413 307.5436556  +6.3076914     645.2205      1004.23     719.1556     78.54272     157.2735     314.6097      1.403     3.75     867.5629     55.49371      89.4007         6     0.815     0.496  -0.80   0
        45    957.2112    951.0922 307.5137668  +6.3114839     655.7958     1096.401     1374.015     78.66808     157.1481      314.641      1.686     5.94     865.8023     55.49371     93.96692         8     1.197     0.828 -42.58   0
        46    578.4385    949.8351 307.6711221  +6.2993481     1481.281     2672.318     2843.896     78.66808     157.3362      314.641      1.915     5.43     871.5981     55.49371     221.2108        20     1.780     0.809 -33.60   0
        47    301.6576    951.3456 307.7860206  +6.2894475     614.8864     975.1218     993.2821     79.04299     157.4614     314.8602      1.827     4.36     870.7931     55.49371     91.70532         7     1.340     0.403 -25.41   0
        48   1009.5315    949.1428 307.4921016  +6.3140331     739.2054     1300.645     1263.792     79.04299     157.3988     314.7663      2.219     4.76       864.28     55.49371     90.91235         8     0.951     0.677 -36.20   0
        49     67.1167    947.3422 307.8835585  +6.2832195     629.3829     1017.523     1306.282     78.91822     157.4614     314.8914      1.610     4.80     866.4286     55.49371      93.6015         6     1.227     0.532 -39.93   0
        50    617.7589    946.3561 307.6549083  +6.3021005     984.9901     1621.927     1648.537     78.66808     157.4614      314.735      1.858     5.81     871.2997     55.49371      128.899        13     1.572     0.604 -39.59   0
        51    297.4931    944.1068 307.7879936  +6.2922964     1319.538     2189.529     1858.181     78.91822     157.9613     314.7976      1.756     6.33     870.5404     55.49371     177.6591        16     1.668     0.675 -31.09   0
        52    764.5648    940.0086 307.5941490  +6.3096298     767.0222     1283.466     1628.104     78.41714     157.2735      314.641      1.985     5.11     869.2208     55.49371     104.6979         9     1.373     0.538 -27.94   0
        53    901.9789    936.7272 307.5371865  +6.3155728     6076.803     10812.03     11128.04     78.54272     157.2735     314.7663      1.896     4.43     866.8855     55.49371     779.4628        41     1.806     1.105 -30.58   0
        54    111.3325    935.8094 307.8655848  +6.2894681      598.412     736.7175     295.7761     78.41714     157.2735      314.735      1.519     5.69     867.2037     55.49371     86.99152         6     1.160     0.786  53.71   0
        55    437.7000    933.9461 307.7301059  +6.3011944     1903.353     3046.873     2883.361     78.66808     157.4614     315.0792      1.657     5.01     870.5627     55.49371     251.6381        18     1.543     0.725 -39.07   0
        56    339.4461    932.2938 307.7709674  +6.2985817     8972.102     14621.49     15812.03     78.79325     157.3988      314.954      1.790     4.35     870.6646     55.49371     1211.526        41     1.731     1.023 -33.14   0
        57    259.5510    931.2303 307.8041841  +6.2963391     6724.019     10986.33     10945.97     78.54272      157.524      314.735      1.746     4.42     869.4617     55.49371     865.7607        33     1.711     0.925 -33.92   0
        58    587.9427    925.6996 307.6679841  +6.3096315     1091.757     1685.406     1331.265     78.66808     157.4614     315.0479      1.625     4.49     871.2343     55.49371      189.908        15     1.377     0.794 -25.36   0
        59    771.7349    924.9942 307.5916736  +6.3160687     587.2349     938.4675     1118.782     78.41714     157.2108     314.6097      1.621     4.23     868.8544     55.49371      97.3269         5     0.854     0.597   0.65   0
        60    917.4115    921.8387 307.5312744  +6.3222350     862.7224     1615.656     1442.656     78.41714     157.2735      314.547      1.981     6.05     866.1251     55.49371     142.6345        11     1.323     0.777 -28.39   0
        61    220.9130    921.3792 307.8205620  +6.2991088     654.8069      955.023     1371.309     78.91822     157.2108     314.7036      1.655     5.44     868.6079     55.49371     90.15222        10     0.943     0.887  -4.08   0
        62    150.1704    921.8292 307.8499264  +6.2965459     491.8356     922.1888     900.8451     78.41714     157.2108     314.5784      1.929     4.26     867.5635     55.49371      88.3808         6     1.147     0.452 -26.24   0
        63    985.1498    916.8728 307.5033058  +6.3265445     765.8865     958.6347      1418.43     78.91822      157.524     314.8602      1.378     5.15     864.0881     55.49371     123.9402         8     1.035     0.723 -77.61   0
        64    753.9980    914.8931 307.5993784  +6.3196467     1423.521     2362.045     2894.799     78.41714     157.1481      314.547      1.827     4.81     869.0865     55.49371     204.1165        19     1.565     0.880 -36.40   0
        65    577.8707    915.6555 307.6725040  +6.3134415     657.6015     1215.843     1201.501     78.79325     157.3988     314.7976      1.710     5.47     871.1006     55.49371     111.5695         9     1.502     0.562 -17.65   0
        66    985.2272    910.7522 307.5034781  +6.3290742     1056.732     1948.475     1798.516     78.54272      157.524     314.7663      1.821     6.63     863.9167     55.49371      124.823        15     1.527     0.807 -50.53   0
        67    618.2293    910.9820 307.6558986  +6.3167218     716.2703     1264.858     1039.901     78.54272     157.2735     314.7663      1.962     7.06      870.866     55.49371     107.0032        11     1.711     0.815 -52.41   0
        68      4.7499    911.7878 307.9106574  +6.2958002     839.6517     1582.698     2147.244     78.29137     157.3988     285.1318      1.796     6.01     864.2114     55.49371     149.6348        12     1.726     0.588 -47.29  16
        69    628.8073    911.5281 307.6514869  +6.3168502     585.6228     949.0506     745.9543     78.41714     157.0227     314.7663      1.799     5.89     870.7562     55.49371     95.58087         6     1.414     0.690 -28.05   0
        70    539.0568    910.4556 307.6887989  +6.3142890     1014.204     1578.325     1594.034     79.04299      157.524     314.8602      1.695     5.13      870.991     55.49371     173.9384        13     1.443     0.664 -37.64   0
        71    672.4870    908.2726 307.6334544  +6.3196554     2386.968     3894.977     3820.235     79.04299     157.7115     314.8289      1.737     4.52     870.2338     55.49371     316.5398        25     1.575     0.949 -37.72   0
        72     68.9985    904.4123 307.8842239  +6.3010073     2532.002     4277.198     4335.222     78.54272     157.1481     314.6097      1.767     4.71     865.6034     55.49371     337.7479        22     1.622     0.882 -38.54   0
        73    832.9488    904.6131 307.5669311  +6.3265284     668.4504     1243.023      1068.05     78.29137     157.3988     314.5784      1.829     5.00     867.5049     55.49371     103.5077         7     1.147     0.618 -44.19   0
        74     86.6656    903.6284 307.8769131  +6.3019253     1784.027      3016.53     3589.074     78.66808     157.3988     314.7663      1.887     4.98     865.9795     55.49371     266.8768        18     1.489     0.807 -43.29   0
        75    950.7764    903.3514 307.5180343  +6.3309812     671.7357      1004.03     1564.495     78.54272     157.4614      314.735      2.061     4.26     864.7104     55.49371     111.6121         8     0.952     0.757  73.34   0
        76    212.6191    903.2569 307.8246164  +6.3063125     1983.688     3306.732     3271.738     78.41714     157.3988      314.641      1.745     5.21     868.4396     55.49371     277.8579        18     1.550     0.755 -28.48   0
        77    351.4739    899.4728 307.7670752  +6.3125363     802.6892     1349.848     2228.814     79.16757      157.649     314.8914      1.885     6.12     870.1497     55.49371     109.8956        12     1.381     0.763 -25.97   0
