#   1 NUMBER                 Running object number                                     
#   2 X_IMAGE                Object position along x                                    [pixel]
#   3 Y_IMAGE                Object position along y                                    [pixel]
#   4 ALPHA_J2000            Right ascension of barycenter (J2000)                      [deg]
#   5 DELTA_J2000            Declination of barycenter (J2000)                          [deg]
#   6 FLUX_APER              Flux vector within fixed circular aperture(s)              [count]
#   9 FLUXERR_APER           RMS error vector for aperture flux(es)                     [count]
#  12 FLUX_RADIUS            Fraction-of-light radii                                    [pixel]
#  13 FWHM_IMAGE             FWHM assuming a gaussian core                              [pixel]
#  14 BACKGROUND             Background at centroid position                            [count]
#  15 THRESHOLD              Detection threshold above background                       [count]
#  16 FLUX_MAX               Peak flux above background                                 [count]
#  17 ISOAREA_IMAGE          Isophotal area above Analysis threshold                    [pixel**2]
#  18 A_IMAGE                Profile RMS along major axis                               [pixel]
#  19 B_IMAGE                Profile RMS along minor axis                               [pixel]
#  20 THETA_IMAGE            Position angle (CCW/x)                                     [deg]
#  21 FLAGS                  Extraction flags                                          
         1     13.3227     68.5948 307.9361688  +6.6321549     737041.6      1610843      1741421     80.95067      161.772     324.3195      2.191     8.52     934.8657     57.19502     61298.41       416     2.202     1.743 -45.81  28
         2    104.1790     29.4737 307.8997420  +6.6513665     9316.216     14872.37     15697.71     80.95067     162.1597     324.4163      1.729     3.98     927.1003     57.19502     1304.579        44     1.669     1.118 -46.97   0
         3    646.8673     21.6266 307.6744793  +6.6728265     18849.63     28197.65     29415.46     80.95066     162.1597      324.384      1.590     3.62     905.8678     57.19502      2606.28        44     1.538     1.040 -39.34   0
         4    546.6186     17.7041 307.7162742  +6.6710880     5349.528     8063.148     8244.224     81.20889     162.1597     324.2549      1.637     3.96     907.6641     57.19502     755.7873        28     1.471     0.967 -37.60   0
         5    265.0130     17.8122 307.8333005  +6.6615915     1946.631     3128.709     3925.905     81.20888      161.966     324.4163      1.823     4.28     924.4787     57.19502     279.2881        21     1.479     0.912 -49.04   1
         6    272.8170     13.6447 307.8301986  +6.6635745     9257.097      14888.6     15942.28     80.95067     162.1597     324.2549      1.719     3.83     924.1805     57.19502     1282.887        40     1.604     1.092 -41.42   0
         7     14.0311     15.6507 307.9376729  +6.6540368     1155.115     1688.928     1141.363     81.20888     162.4178     324.4163      1.519     4.82     932.1246     57.19502     165.8005        13     1.216     0.796 -57.18   0
         8    633.1281     11.5074 307.6805309  +6.6765444     3311.774     5085.175     5067.044     81.20888     162.4178     324.5131      1.616     3.90     906.2571     57.19502     452.8892        25     1.368     1.158 -31.47   2
         9    452.2085     13.2609 307.7556601  +6.6697567     22498.84     35360.64     36561.48     80.69162     162.1597     324.2549      1.681     3.61      910.508     57.19502     3005.168        54     1.591     1.143 -39.60   0
        10     38.2592     13.2265 307.9276871  +6.6558541     2342.854     3543.906     3425.004     80.95067     162.3533     324.3195      1.616     3.74     930.4855     57.19502     323.2975        20     1.275     1.017 -41.37   0
        11    930.0711     13.2384 307.5570623  +6.6857575      2113.24      2889.88     2300.772     81.20888     162.2888     324.5453      1.466     4.31     900.4933     57.19502     328.7898        16     1.313     0.735 -39.37   0
        12    537.7315     13.4208 307.7201124  +6.6725585     739.1078     1046.913     964.8549     80.95067     162.2243      324.384      1.477     4.76     907.7487     57.19502     120.2054         8     1.234     0.521 -46.77   0
        13    332.7316     13.8830 307.8052915  +6.6654892     1065.591     1591.628     1393.438     81.59467     162.5466     324.5131      1.600     4.24     920.1528     57.19502     158.6897        10     1.149     0.722 -50.70   0
        14    260.7726     10.2837 307.8353178  +6.6645572     3202.257     4962.777     4943.861     81.20889     162.0306      324.384      1.631     3.93     924.5313     57.19502      424.136        25     1.469     0.961 -44.64   0
        15    313.9644      8.2795 307.8132805  +6.6671722     1033.752     1782.427     2058.571     81.20888     162.3533     324.0289      1.938     4.89     921.5956     57.19502     143.6359        14     1.222     1.011 -31.74  16
        16    951.0115      3.3878 307.5486909  +6.6905235     986.5725     1516.809      1388.15     81.20888     155.0312     276.0571      1.483     5.60     898.1281     57.19502     171.1373        11     1.605     0.550 -36.07  24
        17    701.9609      2.8989 307.6522146  +6.6824027      1892.94     2858.346     2521.817     81.33768     150.2303     269.3005      1.521     3.89     904.1223     57.19502     254.3973        15     1.267     0.737 -39.76  24
        18    106.8247      3.5839 307.8995212  +6.6621443     734.7923     820.2148     811.1321     81.07987     156.9772     278.9617      1.233     3.52     926.4446     57.19502     131.7495         5     0.760     0.470  14.32  16
        19    968.1320    992.0120 307.5083324  +6.2829076     7126.061     10613.84      10381.1     80.82125     162.1597      324.384      1.542     3.73     933.4717     57.19502     921.2878        28     1.418     0.985 -37.15   0
        20    810.4401   1022.1529 307.5728042  +6.2651995     15227.33     21630.28     22135.94     81.20888     149.7418     268.2489      1.527     3.79     939.1923     57.19502     2033.681        33     1.458     0.942 -32.18  24
        21     81.1060   1022.4001 307.8756500  +6.2406488     8228.174      11944.1     12757.68     80.82124     146.5622     264.4366      1.546     3.97     944.5853     57.19502     1179.763        31     1.496     0.922 -33.98  24
        22    722.7076    992.5114 307.6102347  +6.2745061     988.5532     1403.625     2059.561     81.33768     162.7397     324.5776      1.466     3.90     939.2305     57.19502     164.0035        10     1.135     0.657 -22.63   3
        23    727.7527    990.0492 307.6082225  +6.2756914     3202.122     4901.832     5393.235     81.33768     162.1597     324.5131      1.550     3.80     939.1216     57.19502     449.3609        24     1.489     0.851 -37.34   2
        24    451.0123    990.9943 307.7231116  +6.2660371     1064.267      1394.53     598.3431     80.95067     162.0952      324.384      1.391     3.63     944.8448     57.19502     161.1752        10     1.013     0.714 -46.01   0
        25    252.6111    991.7983 307.8054712  +6.2590480     1464.934     2040.769     2590.456     80.95067      161.966     324.2872      1.432     4.07     944.8251     57.19502     244.2864        14     1.234     0.788 -25.22   0
        26    743.7032    989.2883 307.6016243  +6.2765388     1201.925     1602.594     1881.253     81.33768     162.7397     324.5131      1.358     4.32     938.8876     57.19502     215.7274        11     1.302     0.594 -35.04   0
        27    374.6353    987.3276 307.7549516  +6.2649897     1998.127     2815.124     3127.434     81.20889     162.2888     324.4808      1.598     4.52     945.8573     57.19502     296.7861        17     1.492     0.727 -43.46   0
        28    984.4833    985.4982 307.5017608  +6.2861423     571.8333     672.1094     342.3205     81.33768     162.6754     324.5453      1.587     5.71     932.3453     57.19502     92.05902         7     1.151     0.797 -34.12   0
        29    712.7659    984.2297 307.6146421  +6.2775931        610.4     1000.167     1379.775     80.82125     162.0306     324.2872      1.625     3.79     939.2509     57.19502     107.8839         6     0.789     0.522 -47.31   0
        30    761.3434    977.1351 307.5947079  +6.2821462     8536.205     12070.19     12042.54     81.46628     162.2243     324.4808      1.518     3.54     938.4011     57.19502      1244.63        30     1.420     0.966 -38.41   0
        31    556.8986    977.7168 307.6795890  +6.2750666     4544.647     6703.531     7241.722     81.33768     162.6754     324.5776      1.545     3.57     943.3296     57.19502     669.5634        26     1.388     0.918 -40.29   0
        32    527.1504    978.9796 307.6918999  +6.2735489     1263.807     1758.296     1456.639     80.82125     162.3533     324.3518      1.399     3.70     943.7466     57.19502      213.996        12     1.192     0.681 -18.24   0
        33    431.3064    977.2794 307.7317579  +6.2710389     1116.408     1609.374     1804.402     81.07988     162.4822     324.5453      1.532     5.10     945.0332     57.19502     186.8064        10     1.314     0.652 -59.60   0
        34    307.1980    976.2590 307.7833296  +6.2672966     15968.72     23753.61     25868.51     80.69162      161.966     324.1904      1.603     4.06     945.7473     57.19502      2375.99        50     1.861     0.950 -37.78   0
        35      3.3837    977.6956 307.9094385  +6.2564899     790.3577     1365.575     1432.039     81.20889     155.0312     275.9813      1.771     4.75     946.0821     57.19502     121.6854         9     1.247     0.514 -39.80  16
        36    822.3490    976.4075 307.5693980  +6.2844848     1268.378     1901.032     1854.591     80.82125     162.0952     324.1258      1.608     3.91     937.3425     57.19502     191.4704        15     1.148     0.947 -61.70   0
        37    278.1257    974.0755 307.7954758  +6.2672221     961.6359     1354.346     1080.092     81.59467     162.5466     324.5776      1.363     5.21     945.4928     57.19502     132.2551        10     1.127     0.679 -21.96   0
        38    922.7509    970.5264 307.5279005  +6.2902647     9733.299     14378.64     14919.93     81.33768     162.3533     324.5131      1.595     3.52     934.6633     57.19502     1351.244        35     1.447     1.033 -34.99   0
        39    554.0939    969.8370 307.6810195  +6.2782261     9034.384     12801.45     13522.46     81.46628     162.1597     324.5776      1.502     3.51     943.1738     57.19502     1434.358        31     1.455     0.889 -38.96   0
        40    608.9918    967.3476 307.6583058  +6.2810918     1512.168     2519.061     2300.954     80.82124     162.1597     324.1904      1.648     5.10     941.5751     57.19502     211.6398        17     1.448     0.893 -57.60   0
        41      5.7470    969.1216 307.9087480  +6.2601093     699.9289     1056.166     1198.911     81.46628     162.2888     305.2307      1.415     3.55      946.155     57.19502      152.641         8     1.166     0.531 -44.87  16
        42    896.3991    966.7311 307.5389717  +6.2909523     13357.54     19896.78     20652.07     80.82125     161.8367     324.2872      1.625     3.79     935.3756     57.19502     1939.066        43     1.595     1.030 -33.80   0
        43   1018.0657    966.1953 307.4884628  +6.2952319     4943.388      7639.46      8335.13     80.82124      161.966     315.8823      1.630     3.65      929.621     57.19502     640.6475        30     1.522     0.989 -46.54  16
        44    540.7862    965.7234 307.6866846  +6.2794788     4540.441     6970.581      7505.27     80.95067      161.966     324.2872      1.687     4.05     943.3645     57.19502      734.549        32     1.686     1.093  -8.80   0
        45    649.9977    964.8381 307.6413616  +6.2835002     1531.031     2280.099     2860.645     80.43175     162.0306     324.2549      1.576     3.97     940.2028     57.19502     223.6801        14     1.284     0.681 -34.07   0
        46     75.3846    964.2325 307.8799973  +6.2644715     874.0652     1310.418     670.9847     80.95067     162.0306      324.384      1.396     4.33      945.507     57.19502     159.7716         9     1.357     0.429 -46.97   0
        47    805.4439    963.2830 307.5768601  +6.2893390     533.6125     818.6438     892.9352     81.33768     162.2888     324.4486      1.195     3.48     937.1095     57.19502     109.6685         5     0.781     0.449  70.53   0
        48    493.6992    962.0323 307.7063631  +6.2794254     2409.131     3495.019     3100.346     81.33768     162.1597     324.6099      1.534     3.59     943.8788     57.19502     366.9783        18     1.333     0.771 -43.69   0
        49    402.1297    960.7854 307.7444312  +6.2768705     499.2818     929.5521     841.5134     80.82124     162.2243      324.384      1.617     3.96     945.1405     57.19502     103.6489         6     0.978     0.459 -36.93   0
        50     35.5681    960.7063 307.8966504  +6.2645875     495.3916     833.5029      803.338     81.46628     162.0952     324.5453      1.733     3.45     945.9453     57.19502     87.95459         5     0.777     0.442  69.59   0
        51    928.0876    954.2560 307.5262311  +6.2971606     47855.25     69935.03     73213.81     81.33768     162.1597     324.6099      1.557     3.46     933.7801     57.19502     6494.054        66     1.560     1.117 -37.51   0
        52    333.4293    955.5469 307.7731372  +6.2767285     650.1767     956.6123     318.0518     81.07988     162.4178     324.4163      1.530     5.12     945.7744     57.19502     120.3146         8     1.213     0.612 -33.24   0
        53      1.7274    953.6830 307.9109408  +6.2663479     2576.806     3173.323     3156.855     75.73969     135.2708     250.8248      1.221     3.15     946.3699     57.19502     468.3541        13     1.097     0.677 -62.00  24
        54    235.4829    952.6028 307.8139101  +6.2746553     1926.285     2762.893     2864.588     80.69162     161.9013     324.1581      1.586     3.35     945.3026     57.19502     341.0779        15     1.203     0.743 -39.25   0
        55    772.2468    951.7047 307.5910362  +6.2930103     541.5201      857.816     1083.314     81.20889     162.2243     324.6421      0.872     3.13      937.569     57.19502     155.3666         5     1.006     0.317 -67.11   3
        56    774.2508    945.8420 307.5904013  +6.2954978     7402.462     10497.41      11498.6     81.46628     162.2888     324.4808      1.513     3.56     937.3577     57.19502      1142.95        31     1.618     0.875 -42.78   2
        57    123.3758    951.5270 307.8604997  +6.2713314     754.7405     1019.739     1039.935     80.95067     162.0952     324.4163      1.351     3.75     945.3674     57.19502     128.4231         9     1.030     0.695 -25.44   0
        58    634.1586    950.7249 307.6484151  +6.2887972     1009.284     1416.362      1098.61     81.20888     162.2888     324.5131      1.283     3.77     940.0901     57.19502     225.1792         8     1.095     0.499 -30.08   0
        59    826.0421    947.9608 307.5688215  +6.2963533      2465.23     3235.995     3406.037     81.07987     162.3533     324.3518      1.398     3.70     936.2436     57.19502     378.0925        17     1.304     0.761 -32.69   0
        60    243.4421    945.0574 307.8108604  +6.2780379     1536.624     2216.329     2237.258     81.20888     162.2888     324.5131      1.476     3.65     945.5131     57.19502     230.3218        13     1.190     0.691 -45.88   0
        61    561.1371    945.2203 307.6789252  +6.2886256     788.8713      1053.19     1462.047     80.95066     162.2888     324.3518      1.352     4.32     942.2048     57.19502     170.8182         7     1.107     0.480 -24.09   0
        62    208.0997    944.5261 307.8255547  +6.2770699     957.5369     1241.138     1683.491     80.82124     162.4178     324.4163      1.522     4.69     945.4405     57.19502     145.1917        10     1.193     0.667 -17.88   0
        63     68.6921    942.9815 307.8834968  +6.2730201     2956.204     4341.995     4706.927     81.20888     162.0306     324.3518      1.524     3.76     945.8694     57.19502     464.6874        19     1.366     0.765 -42.99   0
        64    962.3644    941.0662 307.5124394  +6.3037499     7364.036     10829.99     11517.96     81.20888     162.2888     324.5453      1.593     3.66     931.3602     57.19502      1022.43        29     1.442     0.940 -38.64   0
        65    218.6733    936.7290 307.8214278  +6.2806443     698.6677     1028.127     1180.677     81.59467     162.4178     324.5131      1.587     4.12     945.6663     57.19502     115.3294         7     0.896     0.641 -65.42   0
        66    644.3957    936.0000 307.6446602  +6.2952194     795.8298     1263.311     1180.575     80.56179      161.772     324.1904      1.467     4.44     939.3438     57.19502     105.1208         6     1.107     0.507   9.24   2
        67    936.1290    932.8369 307.5236115  +6.3062725     2310.741     3218.973     3374.078     81.20888     162.2888     324.5131      1.483     3.70     932.4578     57.19502     336.9646        17     1.297     0.765 -38.06   0
        68    795.8181    929.2551 307.5820029  +6.3030670     1407.723     2220.054     2989.786     80.82124     162.2888     324.2549      1.652     4.97     936.1197     57.19502     222.2402        15     1.481     0.804 -33.95   0
        69    656.8994    928.6552 307.6397151  +6.2986703     5136.192     7053.255     7062.733     81.07987     162.2888     324.7711      1.461     3.44     939.0227     57.19502     749.2491        24     1.435     0.813 -40.54   0
        70    269.1033    928.7219 307.8007570  +6.2856442     4803.973     6913.549      6973.58     81.07987     162.4822     324.5453      1.521     3.43     945.7353     57.19502     728.1537        28     1.450     0.921 -38.55   0
        71   1006.0134    928.1625 307.4947455  +6.3105333     595.6594     1098.663     1288.776     80.82125     162.0952     324.1904      1.866     4.85     928.2573     57.19502     89.33691         7     1.495     0.446 -30.50   0
        72    479.1878    927.1237 307.7135680  +6.2933520     1236.373     1963.844      1975.57     80.95066     161.9013     324.2872      1.661     3.61     943.8754     57.19502      246.369        11     1.343     0.581 -37.18   0
        73     37.7763    926.1164 307.8969065  +6.2789426      2461.21     3573.474     3446.591     81.20888     162.0306     324.4163      1.544     3.68     946.3424     57.19502     360.6085        24     1.489     0.983 -47.84   0
        74    888.4007    925.2657 307.5436877  +6.3078058     963.1571     1376.318     1417.825     80.56179      161.966     324.2227      1.435     4.01     933.9718     57.19502      161.246        10     1.175     0.582 -36.52   0
        75    305.1840    922.5331 307.7859830  +6.2894108     910.2324     1631.682     1719.567     80.82125     162.1597      324.384      1.903     5.86     945.6296     57.19502     140.4346        12     1.336     0.811 -55.11   0
        76    980.4888    923.3950 307.5055061  +6.3116506     717.9472     1082.143     1556.146     80.82125      161.966     324.1904      1.515     3.47     929.6206     57.19502     127.8901         5     1.037     0.335 -21.29   0
        77    960.4140    922.2104 307.5138831  +6.3114702     843.7831     1249.299     1773.019     80.95067     162.0306     324.4163      1.741     5.23     930.7102     57.19502     126.9821         9     1.382     0.560 -34.69   0
