#   1 NUMBER                 Running object number                                     
#   2 X_IMAGE                Object position along x                                    [pixel]
#   3 Y_IMAGE                Object position along y                                    [pixel]
#   4 ALPHA_J2000            Right ascension of barycenter (J2000)                      [deg]
#   5 DELTA_J2000            Declination of barycenter (J2000)                          [deg]
#   6 FLUX_APER              Flux vector within fixed circular aperture(s)              [count]
#   9 FLUXERR_APER           RMS error vector for aperture flux(es)                     [count]
#  12 FLUX_RADIUS            Fraction-of-light radii                                    [pixel]
#  13 FWHM_IMAGE             FWHM assuming a gaussian core                              [pixel]
#  14 BACKGROUND             Background at centroid position                            [count]
#  15 THRESHOLD              Detection threshold above background                       [count]
#  16 FLUX_MAX               Peak flux above background                                 [count]
#  17 ISOAREA_IMAGE          Isophotal area above Analysis threshold                    [pixel**2]
#  18 A_IMAGE                Profile RMS along major axis                               [pixel]
#  19 B_IMAGE                Profile RMS along minor axis                               [pixel]
#  20 THETA_IMAGE            Position angle (CCW/x)                                     [deg]
#  21 FLAGS                  Extraction flags                                          
         1    696.7483     22.2390 307.6451280  +6.6899910     6935.042     11056.73     11800.32     77.85355      155.831     311.5381      1.693     3.57     824.3063     54.91912     1057.581        37     1.493     1.150 -42.09   0
         2     18.1047     17.2776 307.9273027  +6.6692222      7818.07     13118.29     13620.55     77.85355     156.0167     311.6001      1.788     3.80     832.8083     54.91912     1062.306        42     1.605     1.172 -35.65   0
         3    417.2280     17.7015 307.7614377  +6.6824859       5881.3     9311.756     9633.649     78.22458     155.5831     311.5381      1.711     3.91     827.5476     54.91912      835.559        35     1.598     1.065 -31.08   0
         4    492.1880     15.0480 307.7303774  +6.6860993     852.6887     1263.524     1355.996     77.48075     155.7071     311.2592      1.621     4.57       823.67     54.91912      139.834         9     1.115     0.687 -83.31   0
         5    313.7725     12.6090 307.8046005  +6.6811105     11827.77     19633.83     21528.18     77.72948     155.6451     311.4452      1.820     3.72     833.0674     54.91912     1760.552        49     1.717     1.173 -30.30   0
         6     87.4494     13.0931 307.8986299  +6.6732888     2306.773      3959.04     4330.597     77.97742     155.7071      311.693      1.884     4.41     831.1945     54.91912     297.2553        26     1.760     0.939 -25.61   0
         7    408.3375     13.5522 307.7652722  +6.6839004     690.4985     1139.892     1284.705     77.97742     155.7071     311.6311      1.707     5.02     828.1722     54.91912      109.271         9     1.251     0.571 -32.56   0
         8     78.4483     11.9379 307.9024093  +6.6734622     1557.237     2420.674      2555.03     77.97742     155.7691     311.6311      1.592     3.94     831.3334     54.91912     232.9949        18     1.319     0.913 -37.23   0
         9    781.5718     11.7372 307.6102316  +6.6971679     770.4143     1173.428     991.1717     77.72948      155.831     311.5072      1.437     2.90      822.663     54.91912      127.554         6     0.682     0.648 -29.54   0
        10    379.7527     10.5872 307.7772508  +6.6841639     2173.029      3220.78     3441.152     77.48075     155.7071     311.3212      1.645     3.76     830.1247     54.91912     337.1473        19     1.334     0.849 -38.15   0
        11    974.8459      7.5744 307.5300516  +6.7053499     633.2346     704.5509     736.0945     77.72948     155.8929     307.7981      1.411     3.40     819.7037     54.91912     115.7446         5     1.122     0.299 -54.60  16
        12    640.7983      6.1181 307.6689219  +6.6947722     10087.89     16261.24     17732.75     77.48074     155.3969     296.4575      1.706     3.68     824.0471     54.91912     1502.749        46     1.635     1.164 -27.75  16
        13    805.1746      5.7822 307.6006233  +6.7004167     1541.918     2448.957     2611.221     77.72948     155.7071     293.4799      1.676     3.90     821.9611     54.91912     212.7183        18     1.178     1.062  -7.87  16
        14     58.6726      7.0340 307.9107929  +6.6748200     661.1899     796.6264     694.1603     77.97742     155.7691     304.3927      1.344     4.64      831.464     54.91912     93.94324         6     0.833     0.735  82.81  16
        15    518.4915      5.8000 307.7197588  +6.6908008     1181.387     2097.236     2362.171     77.35608     155.3347     293.5786      1.906     3.65     823.4534     54.91912     221.9854        11     1.212     0.620 -28.06  16
        16    240.9261      3.0676 307.8351940  +6.6825987     5977.371     10298.49      10911.9     78.22458     146.1798     260.8514      1.861     4.45     833.7064     54.91912      853.613        40     1.816     1.127 -27.27  24
        17    875.7619      3.6124 307.5713619  +6.7036740     1362.973     2032.474      1621.27     77.72948     150.9866     268.0414      1.597     4.17     821.9799     54.91912      212.072        14     1.249     0.779 -32.10  16
        18    632.0792      2.0481 307.6726824  +6.6961604     8258.641     11106.56     12006.47     75.58915     134.2006     245.8807      1.407     3.51      823.942     54.91912     1311.919        27     1.358     0.952 -14.81  24
        19    402.0032      2.0108 307.7682942  +6.6884529     7348.036      9918.66     10521.19     75.20512     133.3348     245.1731      1.402     3.50      828.583     54.91912     1074.332        26     1.410     0.925  -9.02  24
        20    662.1605      1.6526 307.6601949  +6.6973321     5769.611     7953.741     8963.418     71.92519     128.7687     239.6388      1.474     3.99      823.942     54.91912      1085.11        27     1.751     0.769  -4.32  24
        21    944.2637      1.8929 307.5429517  +6.7066740     520.3016     730.0597     1230.791     74.30134     132.0254     243.4745      1.699     4.91     821.1302     54.91912     82.31158         7     1.176     0.580 -35.82  24
        22    717.3151      1.4087 307.6372825  +6.6992809     1090.106     1202.596     1121.181     68.76962     124.8876     235.7406      1.046     2.43     823.6035     54.91912     269.4045         8     0.884     0.601   4.97  24
        23    100.5461    987.1429 307.8602195  +6.2715543     532.0722     1129.186     858.6609     78.22458      155.831     311.5691      2.157     6.98     853.8878     54.91912     79.46454         8     1.220     1.120  23.12   0
        24    351.1093   1023.3229 307.7549612  +6.2650438     1455.996     2023.107     2130.872     71.92519     129.0681     240.1216      1.480     3.97     856.2562     54.91912     245.9832        13     1.252     0.675 -12.47  24
        25    610.4111    987.1059 307.6485130  +6.2886983     827.2341     1137.214     1143.043     77.85355      155.521     311.3522      1.382     3.25     856.0649     54.91912     149.1093         7     0.941     0.587 -37.84   0
        26    750.8871    982.1144 307.5903495  +6.2954635     6177.084     10495.89      12440.5     77.85355     156.0167     311.6311      1.896     3.75     854.8568     54.91912     793.7321        41     1.656     1.213 -39.80   0
        27    802.4869    984.0062 307.5688594  +6.2964088     2063.417     3565.895     3936.796     77.60522      155.521     311.3212      1.885     4.29     853.0292     54.91912     266.9579        22     1.496     0.915 -39.33   0
        28    536.6992    981.5313 307.6793086  +6.2885290     768.4922      992.084      1030.26      78.1011     155.9548     311.5691      1.609     3.88     856.7866     54.91912     136.4188         6     1.022     0.423 -53.17   0
        29    220.0672    981.0461 307.8107989  +6.2780946     1352.224     2236.485     2217.359      78.1011     155.7691     311.6001      1.815     4.31     855.5381     54.91912     167.2899        17     1.256     0.965 -24.53   0
        30     45.1099    979.2015 307.8835056  +6.2729658     2494.573     4106.068      4115.17     77.35608     155.3969     311.3212      1.716     3.98     852.9238     54.91912     310.6996        23     1.435     0.965 -40.94   0
        31    938.9802    977.2075 307.5124088  +6.3037784     5900.762     10103.12     10833.21     77.72948     155.5831     311.3832      1.830     3.86     851.4048     54.91912     791.9198        39     1.605     1.230 -29.63   0
        32    620.4124    971.7705 307.6448762  +6.2953655     632.5989       1233.9     1181.564     77.60522     155.5831     311.4762      1.865     3.91     855.6622     54.91912      109.512         8     0.929     0.652 -70.55   0
        33    912.8304    968.7739 307.5235505  +6.3063871     1692.285     3139.835     3525.559     77.60522     155.6451     311.4142      2.088     7.29     851.7815     54.91912     217.3781        24     1.675     1.008 -35.17   0
        34    771.9456    965.4958 307.5821634  +6.3030302      1203.24     1734.659       1659.5     77.97742      155.831     311.7859      1.479     3.55     853.6636     54.91912      192.246        13     1.167     0.805 -55.17   0
        35    633.5474    964.6884 307.6396602  +6.2987299     4331.526     6653.137     7049.814      78.1011     155.7071      311.693      1.721     3.98     855.3804     54.91912     644.6221        29     1.528     0.999 -30.87   0
        36    245.6779    964.7982 307.8007137  +6.2856647     3850.367     6420.559     7573.474     77.48075     155.2726     311.3832      1.856     3.89     855.7668     54.91912     532.5516        30     1.514     1.129 -31.58   0
        37    981.9313    964.2347 307.4950081  +6.3105694      598.259     1152.897     1278.043     77.97742     155.8929      311.662      1.862     4.22     849.2785     54.91912      97.2215         5     1.315     0.386  -8.03   0
        38    455.7410    962.9161 307.7135525  +6.2934993      1066.18     1731.195     1597.655      78.1011     155.8929     311.6311      1.623     5.42     856.2907     54.91912     163.5898        13     1.295     0.918 -19.26   0
        39     14.1397    962.4558 307.8969315  +6.2788362     2146.071     3304.846     3265.692     78.22458      155.831     311.6001      1.652     3.60     852.2407     54.91912     295.7804        18     1.206     0.938  -8.43   0
        40    864.8417    961.8038 307.5437119  +6.3076614      750.327      1163.22      945.502     77.48074      155.521     311.3522      1.461     5.08     852.3506     54.91912     111.9973         9     1.123     0.651 -39.55   0
        41    989.4592    957.6940 307.4921013  +6.3135215     783.6487     1629.848     2556.641     77.97742      155.831      311.662      2.523     5.87     848.9305     54.91912     113.7579        11     1.298     0.748  70.90   0
        42    957.2825    958.5728 307.5054336  +6.3120842     625.7032     896.6025       627.78     77.97742     155.6451     311.5072      1.440     5.28     850.1624     54.91912     77.06897         8     1.432     0.550 -44.63   0
        43    937.3726    958.6091 307.5137002  +6.3114042     653.0917     944.4433     428.5326     77.72948     155.6451     311.4452      1.703     6.51     850.9253     54.91912     91.36401        11     1.452     0.819 -21.68   0
        44    558.0215    957.3416 307.6712692  +6.2992321      1719.22     2609.901     2274.418     77.72948     155.7071     311.3832      1.592     3.98     855.7733     54.91912     228.4454        18     1.368     0.874 -38.64   0
        45    281.9445    958.3944 307.7858710  +6.2895283     732.1334     1210.936     1636.349     77.60522     155.6451     311.2592      1.810     4.94     856.5596     54.91912     158.9634         8     1.553     0.444 -17.75   0
        46    597.3916    953.7822 307.6550407  +6.3020216      1136.69     1816.744     1299.731     77.85355     155.5831     311.4142      1.583     3.88     855.4379     54.91912     158.8067        13     1.112     0.846 -72.90   0
        47     46.6702    953.9005 307.8837139  +6.2834650      663.947     931.7866     794.9233     77.97742     155.9548     311.6001      1.399     3.46     852.6174     54.91912      112.663         5     0.988     0.350 -45.79   0
        48     41.3243    953.1150 307.8859602  +6.2836092     519.9522     881.0436     1303.836     78.22458     156.1404     311.6311      1.924     4.19      852.519     54.91912     75.27679         6     0.771     0.649 -34.03   0
        49    277.2706    951.3192 307.7880506  +6.2922925     1352.149     2267.812      2458.39     78.34787     156.1404     311.6001      1.851     5.55     856.2171     54.91912     175.0032        17     1.624     0.817 -29.26   0
        50    744.6011    947.4618 307.5941243  +6.3095616     818.1165     1574.239     1879.123     77.48075     155.6451     311.2592      1.948     6.85     853.7374     54.91912     123.3678        13     1.712     0.768 -41.52   0
        51    544.9109    949.3790 307.6769814  +6.3020802     575.8719     738.8252     660.4086     77.97742     155.6451     311.4452      1.624     4.46     855.5667     54.91912      92.9093         6     0.885     0.640 -36.62   0
        52    881.7912    944.0505 307.5372694  +6.3155585     6305.152     10817.69     11287.42     77.60522     155.7071     311.2592      1.819     3.90     851.8399     54.91912     892.7725        39     1.613     1.183 -39.62   0
        53    417.7464    941.0822 307.7300653  +6.3012391     1834.319     3075.413     3577.824      78.1011      155.831     311.6311      1.794     4.82     855.8184     54.91912     253.8398        24     1.618     1.037 -24.20   0
        54    319.3623    939.4313 307.7709740  +6.2986159     8862.186     14152.29     14767.45     77.72948     155.5831     311.4142      1.736     3.70     855.9843     54.91912     1293.397        42     1.658     1.117 -34.58   0
        55    239.4467    938.4128 307.8041922  +6.2963496     6582.014     10702.65     11717.77     77.48075     155.6451     311.3522      1.779     3.99     854.7734     54.91912     934.0152        39     1.633     1.108 -34.06   0
        56    567.5355    933.3411 307.6681266  +6.3094610     1077.218      1828.02     2378.023     78.22458     155.7691     311.6001      2.111     5.45     854.9561     54.91912      166.354        12     1.295     0.836 -52.32   0
        57    750.9138    932.8321 307.5919945  +6.3158136     757.8833     1269.126     1101.602      78.1011     155.6451     311.5381      1.837     4.54     853.1281     54.91912     103.6845         6     0.975     0.599 -27.38   0
        58    897.3660    929.1305 307.5313025  +6.3222397     1081.376     1518.388     1888.305     77.97742      155.831     311.6311      1.704     4.05     851.1754     54.91912     167.2843        16     1.197     0.928 -67.19   0
        59    853.6396    928.1431 307.5494937  +6.3211859     701.8594     1085.374     878.0823      78.1011     155.8929     311.6001      1.452     4.04     852.1904     54.91912     116.5606         7     1.051     0.508  22.26   0
        60    964.3432    925.4703 307.5036116  +6.3259885     717.6709     1119.075     1684.051     78.22458      155.831     311.5381      1.835     4.73     849.1219     54.91912     99.13452         7     1.045     0.608 -19.88   0
        61    826.8652    922.1032 307.5608151  +6.3227846     618.5829     858.4567     709.8152      78.1011     155.9548     311.6001      1.373     4.90     852.2053     54.91912     119.4265         8     1.242     0.548 -65.16   0
        62    733.7928    922.3925 307.5994552  +6.3195513     1522.363     2587.776     2844.535     77.48075     155.6451     311.4452      1.881     3.66     853.1012     54.91912      207.998        16     1.155     0.920 -19.68   0
        63    556.9415    922.7391 307.6728828  +6.3134835     761.2983      1125.66     701.7312      78.1011     155.7691     311.6001      1.733     4.20     854.7393     54.91912     124.3082         8     0.978     0.753   1.89   0
        64    965.2811    918.0352 307.5034715  +6.3290899     1185.182     2244.816     2655.156     77.97742     155.8929     311.5691      2.152     4.21     848.8428     54.91912     164.1099        15     1.114     0.966   1.60   0
        65    597.3842    919.0175 307.6562139  +6.3163759     726.4703     988.6066     1046.569     77.85355      155.521     311.5072      1.396     2.85      854.566     54.91912      136.694         5     0.757     0.572   2.52   0
        66    518.5818    918.2711 307.6889623  +6.3140419     1085.887     1693.584     2035.415     77.60522     155.7071     311.5072      1.857     4.62        854.8     54.91912     140.8549        13     1.195     0.784 -53.24   0
        67    652.1761    915.4796 307.6335800  +6.3196727     2505.831     4183.043      4237.52     77.72948     155.5831     311.5381      1.795     3.76     853.9233     54.91912     373.3772        25     1.442     1.047 -26.79   0
        68     48.9094    911.7169 307.8842117  +6.3009576     2730.254     4478.984     4587.883     77.85355     156.0786      311.662      1.720     3.82     851.7047     54.91912     375.8488        29     1.533     1.091 -45.09   0
        69    812.8341    912.4926 307.5669645  +6.3262836     736.7946     1109.772     1472.221     78.22458     155.7071     311.6311      1.723     5.58     852.1317     54.91912     103.0993        10     0.986     0.889 -40.23   0
        70     66.6259    910.9699 307.8768805  +6.3018630     1656.576     2865.066     2976.346     77.60522     155.6451     311.4142      1.760     4.00     852.0262     54.91912     266.1646        20     1.341     1.047 -50.53   0
        71    930.3075    910.6411 307.5182431  +6.3309749     653.8351     1024.774     749.4265     78.22458     155.7691      311.662      1.493     4.76     849.7388     54.91912     104.4424         8     1.238     0.520  68.86   0
        72    192.5168    910.4146 307.8246251  +6.3063312      2092.03     3237.881     3135.457     77.72948     155.5831     311.4142      1.707     4.47     853.9442     54.91912     295.5106        20     1.498     0.861 -40.05   0
        73    331.3817    906.9849 307.7670781  +6.3124169     805.9377     1335.708     1640.369     77.85355      155.521     311.4762      1.900     6.59     855.5894     54.91912     114.6191        12     1.340     0.909   7.51   0
        74    647.0063    904.6015 307.6360928  +6.3239912     6671.541     10839.21     11644.64     77.48074      155.521     311.3832      1.753     3.42      853.722     54.91912      1025.78        42     1.667     1.125 -36.55   0
        75    436.0504    902.2895 307.7237725  +6.3178712     557.7207     887.7261     1060.441      78.1011     155.6451      311.693      1.942     5.37     854.8352     54.91912     92.01208         6     1.080     0.756  78.58   0
        76      7.2460    902.6158 307.9018196  +6.3033112      1060.13     1752.928     1654.472     77.60522     155.7071     305.6899      1.790     5.42     850.4207     54.91912     194.8205        11     1.375     0.602 -35.84  16
        77    884.6569    900.8062 307.5375308  +6.3335104     2491.675     4209.731     4380.992     77.60522     155.7071     311.2902      1.735     4.57     850.7498     54.91912     303.0789        26     1.530     1.101 -22.90   0
