#   1 NUMBER                 Running object number                                     
#   2 X_IMAGE                Object position along x                                    [pixel]
#   3 Y_IMAGE                Object position along y                                    [pixel]
#   4 ALPHA_J2000            Right ascension of barycenter (J2000)                      [deg]
#   5 DELTA_J2000            Declination of barycenter (J2000)                          [deg]
#   6 FLUX_APER              Flux vector within fixed circular aperture(s)              [count]
#   9 FLUXERR_APER           RMS error vector for aperture flux(es)                     [count]
#  12 FLUX_RADIUS            Fraction-of-light radii                                    [pixel]
#  13 FWHM_IMAGE             FWHM assuming a gaussian core                              [pixel]
#  14 BACKGROUND             Background at centroid position                            [count]
#  15 THRESHOLD              Detection threshold above background                       [count]
#  16 FLUX_MAX               Peak flux above background                                 [count]
#  17 ISOAREA_IMAGE          Isophotal area above Analysis threshold                    [pixel**2]
#  18 A_IMAGE                Profile RMS along major axis                               [pixel]
#  19 B_IMAGE                Profile RMS along minor axis                               [pixel]
#  20 THETA_IMAGE            Position angle (CCW/x)                                     [deg]
#  21 FLAGS                  Extraction flags                                          
         1      6.6388     77.4166 307.9362453  +6.6320334     708644.3      1832892      2134647     84.17905     168.6268     326.1629      2.568    11.81     1017.291     59.47601     61943.59       397     2.648     1.664 -27.88  28
         2    266.1488     22.4178 307.8303360  +6.6634496     6265.171     13580.02     15573.78     84.04446     168.8281     337.1529      2.275     7.04     1006.252     59.47601     800.3857        46     2.370     1.049 -24.99   2
         3    445.4950     21.9953 307.7558725  +6.6696263     15477.67     32907.86     36370.47     84.31341     168.4253     337.1865      2.244     6.90     988.5752     59.47601     1943.615        60     2.253     1.139 -26.66   0
         4     31.5879     21.9991 307.9277536  +6.6557557     1514.754     3240.802     2867.508     84.17904     168.4253     337.2201      2.044     7.78     1012.586     59.47601     246.0906        26     2.212     0.816 -30.92   0
         5    696.9322     11.0574 307.6518203  +6.6825394      1280.25     2341.909     2460.413     84.71522     168.6939     337.3878      2.214     4.23     979.9135     59.47601     192.6624        11     1.157     0.655 -23.33   2
         6    944.2181     11.9122 307.5490931  +6.6904225     782.6042     1426.644     2051.006     84.31341     168.4925     337.2872      2.256     6.05     972.2686     59.47601     124.0751        11     1.465     0.703 -26.37   0
         7    183.5982      4.4943 307.8652196  +6.6680847     7036.279     15444.66     16903.08     84.04446     168.4253     302.1662      2.227     6.92     1007.108     59.47601     879.2273        47     2.182     1.094 -26.46  24
         8    527.7903      2.8061 307.7223405  +6.6803012     1857.793     4063.156     4517.421     84.04446     154.9849     278.2969      2.164     8.11     983.9601     59.47601     264.6307        27     2.172     0.846 -21.27  24
         9    927.5919      2.6890 307.5563063  +6.6936783     2458.893      3182.53     3582.426     84.04446      153.591     276.2556      1.381     3.27     973.5139     59.47601     447.0547        13     1.202     0.641 -40.88  19
        10    930.6891      1.6245 307.5550555  +6.6942210     2648.483      3465.52     3967.484     77.74768     138.7207     259.1735      1.275     3.30     973.2446     59.47601     482.2317        12     1.138     0.680 -43.15  27
        11    465.3487      1.7646 307.7483068  +6.6786445     999.9891     1748.127     1512.725     78.90385     140.8263     261.3482      1.843     6.66     987.3439     59.47601     189.2452        16     1.986     0.627 -15.20  24
        12    729.3184      1.4286 307.6386927  +6.6875956     1021.008     1556.194     1935.115     74.93033     135.5844     255.7441      1.740     5.15     977.9454     59.47601     172.2209        11     1.562     0.481  -4.55  24
        13    714.6620   1001.7245 307.6113139  +6.2740091     782.6633     1291.585     1731.511     84.84874      168.761     337.4214      1.533     5.89     1022.543     59.47601      170.072        10     1.606     0.609 -20.30   3
        14    587.2988   1015.3113 307.6637104  +6.2641518     48254.21     67528.93     72376.35      84.5815     169.2299     337.4214      1.450     2.55     1026.779     59.47601     8394.478        38     1.371     0.875 -52.32  19
        15    590.4890   1013.9989 307.6624306  +6.2648002     52183.23     67651.01     71427.11     83.77466     168.2908     337.1865      1.372     3.24     1026.767     59.47601     8561.717        41     1.355     0.913 -54.82   3
        16    585.3228   1022.3721 307.6642941  +6.2611699      96008.8     122411.8     124218.7     84.44756     153.0742     275.8046      1.266     2.59         1027     59.47601     17328.86        29     1.172     0.779 -52.17  19
        17    588.3932   1021.2941 307.6630561  +6.2617176     115448.9     150515.2     153977.9     84.17905     163.9295     291.6436      1.390     3.10     1026.996     59.47601      19255.9        42     1.309     0.900 -38.81  19
        18    405.4219   1023.8526 307.7388943  +6.2545516     358.2099     438.4016     479.0523      70.0909     130.8256     250.4215      1.421     4.04     1030.732     59.47601     88.05701         6     1.479     0.315  -6.43  24
        19    222.1776   1023.4839 307.8149418  +6.2485745     2051.552     2879.333     3112.682     75.83133     136.6655     257.0244      1.404     4.87     1032.002     59.47601     416.0374        15     1.505     0.628  -9.82  24
        20    719.2814    999.3859 307.6094751  +6.2751288     1940.789     2785.797      3531.85     84.17905     168.4925     337.2201      1.532     3.97     1022.326     59.47601     347.0699        14     1.285     0.742 -66.61   3
        21    722.5306    998.4452 307.6081582  +6.2756255     2262.932     3262.146     3676.287      84.5815     168.6939     337.4214      1.505     3.46     1022.184     59.47601     356.2886        15     1.175     0.875  -1.96   3
        22    245.6413   1000.8253 307.8059670  +6.2587172     1082.303     2085.806     2055.464     84.17904     168.6268     337.1865      1.961     7.44     1031.475     59.47601     173.0719        21     1.887     0.821 -25.57   0
        23    736.9346    997.9749 307.6021967  +6.2762996     780.3221     1376.175     1762.461     84.17904      168.761     337.2872      1.916     5.74     1021.827     59.47601     132.3212        13     1.788     0.520 -19.87   0
        24    367.8698    996.1829 307.7554045  +6.2647232      1430.83     2767.463     2571.092     84.04446     168.6268     337.3207      1.982     7.15       1029.5     59.47601     228.1758        21     2.067     0.714 -23.99   0
        25    979.8136    993.4928 307.5015572  +6.2862318     518.2562     615.5462     393.7919     84.31341     168.4925     337.2201      1.410     3.71      1014.31     59.47601     89.24719         5     1.049     0.377 -84.31   0
        26    753.0408    986.4642 307.5958978  +6.2815897     5405.025     7478.549     7945.808      84.5815     168.6939      337.522      1.405     4.51     1020.725     59.47601     882.8101        23     1.473     0.788 -44.11   3
        27    756.3365    985.2868 307.5945695  +6.2821858     4601.333     5936.077     6528.121      84.5815     168.8951      337.455      1.201     2.79     1020.576     59.47601     892.7859        16     1.147     0.794 -49.92   3
        28    548.3644    987.2736 307.6808053  +6.2744315     2782.721     3545.045     4334.599     84.44756      168.761     337.3878      1.350     2.59     1025.899     59.47601     449.8868        12     0.932     0.768 -59.59   3
        29    551.6665    985.7290 307.6794868  +6.2751796     2827.948     4056.683       4710.5      84.5815     168.8281     337.4214      1.610     3.77     1025.869     59.47601     458.4261        17     1.165     0.862 -37.69   3
        30    518.3720    988.2904 307.6932170  +6.2730105     785.8256     1130.641     1110.714     84.71523     168.4925     337.2872      1.287     4.10     1026.178     59.47601     144.0243         6     1.045     0.459 -46.51   3
        31    522.0095    986.9905 307.6917512  +6.2736687     921.8109      1124.36     1506.021     84.17905     168.5597     337.2872      1.456     4.91     1026.118     59.47601     180.6919         9     1.130     0.604 -33.05   3
        32    300.5000    984.9999 307.7837349  +6.2670883     11277.48     22459.36     25206.04     84.04446     168.3581      336.985      2.157     8.28     1030.807     59.47601      1706.96        48     2.336     0.920 -29.22   0
        33    426.0782    985.4672 307.7316099  +6.2710939     679.5602     1277.867     1356.049     84.71522     168.8281     337.3878      2.084     3.82     1028.561     59.47601     126.8516         6     1.250     0.335 -39.84   2
        34    816.1562    985.1215 307.5697512  +6.2842458     837.9238     1700.388     1468.334     84.44756      168.761      337.455      1.979     5.92     1018.517     59.47601     136.1921         9     1.599     0.616 -13.37   0
        35    271.9247    982.8222 307.7956653  +6.2670315      711.447     1293.403     1143.495     84.17904     168.6268     337.3543      1.854     5.43     1031.035     59.47601     132.5879         9     1.459     0.570 -18.49   0
        36    916.0714    979.2619 307.5284838  +6.2899899      6447.42     13386.63     14893.99     84.71522      168.761     337.4885      2.129     8.32     1015.556     59.47601     1093.309        41     2.114     0.914 -25.84   0
        37    545.3782    979.3024 307.6823114  +6.2776237     5177.402      6650.05     8171.596     84.44756     168.5597     337.2201      1.280     3.05      1025.75     59.47601     950.3323        17     1.071     0.812 -32.28   3
        38    548.7001    977.7382 307.6809853  +6.2783806     5970.999     7658.115     9016.635     84.31341      168.761      337.522      1.373     3.16     1025.709     59.47601     1096.008        19     1.065     0.908 -28.16   3
        39    887.4036    976.2806 307.5404800  +6.2902677     7668.098     9868.608     10888.06     84.04446     168.2908     337.1193      1.301     4.04     1016.222     59.47601      1433.09        17     1.155     0.733 -32.49   3
        40    891.0076    974.7807 307.5390344  +6.2910070     8753.917     12142.49     13149.64     84.17904     168.4925     337.2201      1.431     2.94     1016.091     59.47601     1478.004        28     1.201     1.048 -26.33   3
        41    600.5796    976.7095 307.6594913  +6.2805364     903.9019     1160.649     560.7374     84.44756     168.4925     337.2872      1.232     3.26     1025.391     59.47601     184.2341         7     0.937     0.504 -33.29   3
        42    603.9839    975.0161 307.6581353  +6.2813493     909.0189     1088.943     561.4105     84.31341     168.4253     337.3543      1.292     3.34     1025.292     59.47601     182.6608         8     0.960     0.689 -61.58   2
        43   1011.4250    974.9152 307.4890582  +6.2949544     3678.987     7776.152     8371.359      84.5815     168.4925     337.2536      2.151     7.16     1012.443     59.47601     541.3699        34     2.092     0.928 -20.73  16
        44    533.9690    974.4814 307.6872073  +6.2792339       3099.4     6299.437     7136.497     84.44756     168.6268     337.3878      2.212     8.09     1025.735     59.47601      516.704        30     1.928     0.950 -25.08   0
        45    641.5437    974.4608 307.6425676  +6.2828313     915.7087     1135.333     1566.907     84.71523      168.761      337.455      1.254     3.84     1023.956     59.47601     168.8284         9     1.055     0.618 -46.13   3
        46    645.0219    973.1869 307.6411669  +6.2834733     925.3635     1160.626     1416.626     84.31341     168.5597     337.3207      1.299     3.46     1023.807     59.47601     187.5425         9     1.068     0.626 -52.63   3
        47     66.8734    973.4189 307.8810662  +6.2640460     559.9276     845.0004     971.0104     84.17904     168.6939     337.3207      1.366     3.62      1031.15     59.47601     121.4551         5     1.319     0.286 -32.89   3
        48     70.3377    972.3159 307.8796658  +6.2646176     677.0195     875.7005     1011.583     84.71523     168.8281     337.3878      1.144     3.25     1031.117     59.47601      137.507         5     0.800     0.655  -3.19   2
        49    486.9566    970.9243 307.7068351  +6.2791333     1588.951     3409.642     4074.797     84.44756     168.8281      337.455      2.182     7.58     1026.003     59.47601     271.7238        22     2.085     0.771 -21.17   0
        50    919.6321    963.6853 307.5275258  +6.2965412     28579.54     35852.82     37859.21      84.5815     168.5597     337.3543      1.286     3.16     1015.004     59.47601     4658.041        31     1.260     0.830 -50.95   3
        51    922.6970    962.6213 307.5262894  +6.2970825     32692.48     47244.17     49876.46     84.44756     168.5597     337.2201      1.566     3.11     1014.892     59.47601     4950.201        32     1.322     0.918 -50.67   3
        52    226.8158    961.8315 307.8150883  +6.2741900     1169.957     1731.876     1508.926     84.17904     168.4925     337.3207      1.636     3.74      1030.52     59.47601     205.2419         8     0.986     0.625 -62.63   3
        53    230.5038    960.5435 307.8136012  +6.2748454     1253.794     1601.936     2788.648     84.44756     168.6939     337.6562      1.656     3.27     1030.496     59.47601     197.3499        11     0.924     0.888  84.54   2
        54    628.8328    959.1069 307.6483560  +6.2887482      609.264     522.4264     604.3022     84.71522     168.6268     337.4885      1.153     3.07     1023.883     59.47601     104.0446         6     0.738     0.572 -49.12   0
        55    817.5572    957.5093 307.5700920  +6.2956958     1560.058     2047.632     2056.689      84.5815      168.761      337.522      1.139     2.31     1017.589     59.47601     293.7299         7     0.766     0.600 -19.18   3
        56    820.5689    956.4520 307.5688774  +6.2962327     1706.807     2290.994     2339.477     84.44756     168.8951     337.3543      1.429     3.59     1017.448     59.47601     318.1216        10     1.032     0.654 -39.30   3
        57    767.5859    954.5628 307.5909279  +6.2952488     5310.944     10252.09     11791.51     84.17905     168.5597     337.1529      2.047     7.84     1018.957     59.47601     805.0218        33     2.064     0.834 -26.24   0
        58    238.3677    953.2759 307.8105821  +6.2781099     1110.165     1937.051     1908.655     84.44756      168.761     337.3543      1.983     5.15     1030.301     59.47601     179.0304        10     1.257     0.657 -36.54   2
        59    555.6998    953.5781 307.6788896  +6.2885917      767.398      1271.31     1176.286      84.5815     168.4925     337.1865      1.573     2.62     1025.112     59.47601     172.5673         6     0.794     0.527 -49.19   2
        60    201.4931    952.9618 307.8258941  +6.2770050     695.5953     1409.482     1519.708     84.71522     168.6939     337.4885      2.059     5.35     1030.276     59.47601     128.4971         8     1.795     0.450 -25.61   0
        61     61.8869    951.8073 307.8838624  +6.2728035     2027.419     4155.848     4171.005     84.04446     168.4253     337.1529      2.116     7.07      1030.92     59.47601     305.5176        22     2.025     0.692 -24.89   0
        62    953.9982    950.4793 307.5137047  +6.3031376     4143.859     5780.174     6376.525     83.90967     168.1562     337.1865      1.359     4.68     1013.308     59.47601     744.8796        17     1.414     0.650 -45.11   3
        63    957.3085    949.3037 307.5123701  +6.3037331     4300.112     5522.396      5412.05      84.5815     169.2968     337.3878      1.325     3.25     1013.146     59.47601     716.2383        17     1.173     0.792 -50.84   3
        64    929.5828    941.3912 307.5241401  +6.3060791     1655.066     3132.429     3128.843     84.31341     168.4925     337.2536      1.887     6.78     1014.006     59.47601     246.1733        19     1.811     0.712 -22.27   0
        65    787.0831    938.5167 307.5833728  +6.3025248     869.1177     1140.588     1005.646     84.31341     169.0291      337.522      1.229     3.14     1017.774     59.47601     188.3323         6     0.783     0.574 -46.74   3
        66    790.3857    937.2612 307.5820442  +6.3031533     1021.439     1451.717      1130.86     84.04446     168.6268     337.1865      1.639     3.37     1017.615     59.47601     173.2859         8     0.989     0.600 -28.16   2
        67    648.4786    937.9998 307.6409095  +6.2981200     2987.786     4021.119         3915     83.77466     168.0889     337.1529      1.384     3.01     1022.504     59.47601     554.8517        15     1.205     0.655 -42.91   3
        68    651.6451    936.7023 307.6396389  +6.2987614     3263.866     4261.369     4273.575      84.5815     168.6268     337.6226      1.328     2.41     1022.349     59.47601      536.621        13     0.990     0.745 -44.79   3
        69    260.3665    938.3242 307.8019557  +6.2850208     2595.989     3476.054     4305.461     84.44756      168.761     337.3878      1.465     3.26     1029.936     59.47601     413.5317        14     1.138     0.811 -56.26   3
        70    263.7240    936.7073 307.8006168  +6.2858009     3232.843     4285.367     4891.013     84.44756     168.8951     337.4214      1.423     3.15     1029.912     59.47601     564.2181        16     1.090     0.823 -10.38   3
        71    472.6999    935.6981 307.7139316  +6.2932046     901.7569     1587.228     1111.211      84.5815      169.163     337.2536      1.809     6.36      1025.21     59.47601     157.7618        14     1.803     0.629 -18.09   0
        72     29.5835    935.7139 307.8978082  +6.2783659     1235.167     1779.617     1761.832     84.17905     168.4925     337.3207      1.452     3.58      1030.82     59.47601     231.1625        10     1.167     0.711 -54.21   3
        73     32.9731    934.5088 307.8964422  +6.2789773     1483.739     2060.837     2191.962     84.71522     168.4925     337.2872      1.475     3.75     1030.794     59.47601     250.7229        11     1.162     0.640 -36.10   3
        74    880.4078    934.4468 307.5447794  +6.3073116     544.2446     810.4052     721.1072     84.04446     168.6268     337.0186      1.368     4.18      1015.32     59.47601     108.7415         6     1.050     0.521 -32.12   2
        75    883.9347    933.3127 307.5433536  +6.3078973     732.1891     1197.609     735.0743      84.5815     168.9621      337.455      1.726     3.34     1015.172     59.47601     160.9935         5     0.815     0.397  19.65   2
        76    954.8846    930.6808 307.5139971  +6.3113435     583.8699     692.0797      852.144     84.31341     169.0961     337.4885      1.243     3.88     1012.516     59.47601      116.643         5     1.258     0.343 -48.49   0
        77    573.3357    930.4098 307.6723468  +6.2987481     1098.147     1657.936     1956.771     84.04446     168.5597     337.2536      1.491     2.90     1024.169     59.47601     207.7513         7     0.933     0.494 -57.88   3
