#   1 NUMBER                 Running object number                                     
#   2 X_IMAGE                Object position along x                                    [pixel]
#   3 Y_IMAGE                Object position along y                                    [pixel]
#   4 ALPHA_J2000            Right ascension of barycenter (J2000)                      [deg]
#   5 DELTA_J2000            Declination of barycenter (J2000)                          [deg]
#   6 FLUX_APER              Flux vector within fixed circular aperture(s)              [count]
#   9 FLUXERR_APER           RMS error vector for aperture flux(es)                     [count]
#  12 FLUX_RADIUS            Fraction-of-light radii                                    [pixel]
#  13 FWHM_IMAGE             FWHM assuming a gaussian core                              [pixel]
#  14 BACKGROUND             Background at centroid position                            [count]
#  15 THRESHOLD              Detection threshold above background                       [count]
#  16 FLUX_MAX               Peak flux above background                                 [count]
#  17 ISOAREA_IMAGE          Isophotal area above Analysis threshold                    [pixel**2]
#  18 A_IMAGE                Profile RMS along major axis                               [pixel]
#  19 B_IMAGE                Profile RMS along minor axis                               [pixel]
#  20 THETA_IMAGE            Position angle (CCW/x)                                     [deg]
#  21 FLAGS                  Extraction flags                                          
         1     29.3809     79.5982 307.9360687  +6.6321112     726046.7      1342496      1436137     77.19984      154.338     309.1691      1.989     4.84     823.2664     54.54491     61839.72       431     2.081     1.772  78.52   4
         2    562.6973     28.5310 307.7162300  +6.6710743     6489.694     8058.492     7803.384     77.44609     154.9536     309.4461      1.297     2.86     815.6955     54.54491      1099.96        22     1.199     0.802  75.27   0
         3    649.3298     22.9320 307.6804256  +6.6762811     3762.952     5746.269     6498.699     77.56892     154.8922     309.4153      1.718     5.30     814.9047     54.54491     753.7687        25     2.040     0.708  73.21   0
         4    288.8073     24.4918 307.8301510  +6.6635718     11572.97     14618.72     15479.42     77.19984     154.4613     309.2614      1.333     2.82      821.223     54.54491     2041.093        31     1.305     0.874  78.01   0
         5    966.8674     14.3619 307.5487854  +6.6904088     1099.337     1758.454     2348.692     77.44609     154.7077     309.5384      1.832     5.46     812.5494     54.54491     190.0507        11     1.501     0.589  82.23   0
         6    718.1893     13.6990 307.6521258  +6.6823925     2307.697     2918.814     3398.239     77.32306     154.3997     309.2307      1.304     3.01     814.4832     54.54491     382.7465        13     1.131     0.630  77.73   0
         7    122.9526     14.4376 307.8993898  +6.6621571     808.7047     1059.012     604.7096     77.44609     154.7692     309.3538      1.451     3.41     819.2166     54.54491      134.478         8     1.109     0.492  64.05   0
         8    229.0696      9.6770 307.8554656  +6.6676847      934.462     1037.811     1025.937     77.69156     154.9536     309.4461      1.167     2.86     820.1199     54.54491     177.4485        10     0.940     0.671  87.05   0
         9    283.8060      8.7544 307.8327570  +6.6699014     968.6912     1189.464     1849.591     77.07642     154.5229     309.1075      1.389     2.63      820.956     54.54491     176.6314         8     0.869     0.607  86.71   0
        10    206.3292      6.6330 307.8650150  +6.6681784     13277.71     17029.52     17650.25     77.44609     154.7692     299.2165      1.330     2.85     819.7512     54.54491     2078.754        28     1.237     0.860  76.77  16
        11     19.7474      6.7701 307.9425215  +6.6618545     1134.287     1483.832     1031.005     77.32306     154.8922     300.1695      1.305     3.40     819.8373     54.54491     183.3131        11     1.123     0.636  86.61  16
        12    550.5079      4.6814 307.7220926  +6.6805135     3611.045     4453.476     4278.052     77.32306     155.0151     279.7808      1.276     2.95      815.313     54.54491     608.5064        18     1.151     0.749  73.52  16
        13    951.9346      4.0221 307.5553345  +6.6941807     4604.622     6362.116     6838.591     77.19984     152.9749     271.7366      1.408     3.24     812.1959     54.54491      768.899        23     1.261     0.841  81.04  24
        14    752.7775      2.7921 307.6381201  +6.6880500     2496.521     3270.596      3493.18     77.19984     141.9342     254.9996      1.285     3.00     813.7053     54.54491     470.5202        16     1.180     0.701  72.34  24
        15    488.6904      3.0524 307.7478296  +6.6791183     2140.327     2760.083     2827.568     77.56892     144.7898     259.0005      1.257     2.95     815.2849     54.54491     364.4539        13     1.122     0.680  78.00  24
        16    107.6347      2.8267 307.9061437  +6.6664361     444.5216     544.9763      377.857     77.07642     142.4698     255.5218      1.232     3.47     818.9672     54.54491     71.41284         5     0.783     0.445  73.39  16
        17   1016.7787      1.4565 307.5284785  +6.6973985      1280.61     1484.119     1396.169     68.99446     124.8018     234.0936      0.979     2.08     811.3513     54.54491     316.0481         8     0.819     0.587  -1.71  24
        18    848.0054      1.8823 307.5985860  +6.6916016     480.3946     625.5404     697.1258     73.27718     130.6894     241.2242      1.190     3.98     812.6486     54.54491     95.80933         5     0.855     0.529  61.09  24
        19    543.4098    989.9606 307.6920768  +6.2734772     1340.423      1662.61     1140.105      76.9528     154.5845     309.1999      1.476     3.89     847.8232     54.54491      193.157        14     1.045     0.989 -78.68   0
        20    991.7686   1023.1636 307.5048396  +6.2747163       627.44     1121.408     1698.922     73.01687     130.1053      240.671      2.092     5.36     841.6712     54.54491     90.50037         7     1.318     0.616   2.38  24
        21    821.2167   1020.8019 307.5757206  +6.2700131     6763.762     10447.61     10951.08     77.19984      153.472     273.6915      1.650     3.60     845.5217     54.54491     843.7869        34     1.430     1.120  66.98  24
        22    610.1729   1023.1874 307.6632513  +6.2619886     135206.1     160542.3       163014     72.75563     129.8123      240.394      1.234     3.09      848.628     54.54491     23276.71        45     1.210     0.909  12.76  27
        23    612.0653   1016.8057 307.6626789  +6.2646867     79053.26     116580.3       123292     77.07642     154.5229     308.5834      1.559     3.13      848.405     54.54491     11114.05        79     1.538     1.190  77.42  19
        24    777.8368    987.9209 307.5948257  +6.2821434     8661.248     12798.92     13092.47     77.44609     154.8307     309.4461      1.568     3.26     845.0916     54.54491     1119.139        32     1.388     1.061  72.82   0
        25    573.3010    988.4411 307.6797188  +6.2751032     4751.472     7045.039     7095.351     77.56892     154.6461     309.6614      1.569     3.49     847.7996     54.54491     630.5305        27     1.416     0.957  77.80   3
        26    570.4959    980.7928 307.6811389  +6.2781674     9426.044     13235.19      13876.4     77.32306     154.3997     309.2614      1.509     3.04     847.6258     54.54491     1294.203        35     1.392     1.012  79.96   2
        27    323.3606    987.3737 307.7835111  +6.2671848     16606.97     23551.95     24621.69     77.19984     154.5845     309.2922      1.528     2.99     846.8214     54.54491     2275.181        43     1.388     1.078  82.88   2
        28    327.7216    984.4160 307.7817999  +6.2685520     1159.293     1632.007     2148.135     77.19984     154.5229     309.2922      1.563     3.62     846.7244     54.54491     188.4338        11     1.106     0.717  72.66   3
        29     20.2697    988.4556 307.9092899  +6.2565742     789.5609     1167.217     1171.974     77.56892     154.6461     309.3846      1.371     3.36     841.0904     54.54491      142.632         6     1.112     0.341  58.53   0
        30    838.8575    986.9571 307.5695254  +6.2845750     1131.605     1834.395     1492.881     77.44609     154.7077     309.4769      1.570     4.36     844.9626     54.54491     161.1459        14     1.307     0.774  48.74   0
        31    939.1760    981.3969 307.5280636  +6.2902113     8519.488     14124.93     14950.02     77.19984     154.4613     309.2922      1.765     3.71     843.1997     54.54491     1037.553        44     1.516     1.307  73.33   0
        32    294.6080    984.6543 307.7955379  +6.2673447     1043.163     1409.291     1847.668     77.07642     154.6461     309.1691      1.604     4.81     846.7439     54.54491     142.3177        10     1.118     0.682  67.81   0
        33    912.7886    977.5673 307.5391459  +6.2909141     12058.64     20110.58     21750.67     77.07642     154.5229     309.2922      1.811     3.67     843.7611     54.54491     1403.898        54     1.565     1.387  69.57   0
        34     69.2401    980.5060 307.8892294  +6.2615005     556.6565      789.484     1264.359     77.69156     154.7077     309.5384      1.585     5.50     842.1531     54.54491      100.309         7     1.050     0.812  31.52   0
        35    625.6573    978.0371 307.6583315  +6.2811473     1617.726     2273.899     1788.143     77.56892     154.8307     309.4461      1.470     3.77     847.1594     54.54491     257.3826        16     1.221     0.827  89.32   0
        36     22.4258    980.0274 307.9086781  +6.2601263     748.5771     1010.091     900.5814     77.07642     154.5845     309.2922      1.546     3.95     840.8122     54.54491     117.0165         9     0.989     0.668  36.53   0
        37    556.8377    976.5913 307.6869494  +6.2794458     4663.996     6573.557      7064.69     76.82898     154.5229     309.1999      1.501     3.10     847.5265     54.54491     652.4072        25     1.248     0.943  72.72   0
        38    666.6753    976.0500 307.6413697  +6.2833369      1534.27      2131.04     2117.191     77.56892     154.8307     309.4461      1.539     3.52     846.2098     54.54491     244.0837        15     1.136     0.837  88.78   0
        39     91.8223    975.7114 307.8800165  +6.2642380     908.5416     1299.703     648.2017     77.56892     154.5845      309.323      1.419     5.50     842.5953     54.54491     128.6867        11     1.172     0.764 -59.86   0
        40    447.9639    987.7096 307.7317743  +6.2712160     1105.012      1334.58     972.6755     77.69156     154.7077     309.4769      1.362     3.19     846.9147     54.54491     173.9321        11     0.985     0.724 -71.84   0
        41    510.0623    972.9849 307.7064881  +6.2793717     2409.849     3408.607     3562.401     77.07642     154.7077     309.2614      1.497     3.31     846.9298     54.54491     352.8011        18     1.257     0.900 -87.35   0
        42    944.5235    965.0738 307.5263871  +6.2971289     44109.59     69673.38     73103.59       77.814     155.0151     309.4769      1.737     3.54      842.774     54.54491     5319.334        68     1.617     1.247  72.94   0
        43     17.2697    965.0254 307.9113226  +6.2661469     3450.538     5159.506     5268.016     77.19984     154.6461     309.3846      1.566     3.38     840.0464     54.54491      504.475        24     1.335     0.993  71.19   0
        44    251.6390    963.4266 307.8140867  +6.2746694     2144.663     2896.902     2765.194     77.19984     154.5845     309.2922      1.502     3.29     845.2936     54.54491     312.1401        17     1.072     0.990  78.68   0
        45    139.7531    962.7154 307.8605563  +6.2712118     611.4852     1021.009     732.0942     77.56892     154.7692     309.4769      1.655     2.95     843.1644     54.54491     116.6948         6     0.853     0.636  18.68   0
        46    650.7137    961.6369 307.6484773  +6.2887551     1027.659     1321.484     1124.426     77.56892     154.7077     309.4461      1.375     4.33     846.4467     54.54491     144.4937         9     0.998     0.662  73.76   0
        47    842.5584    959.0117 307.5689205  +6.2962365     2221.125     3431.437      3350.24      76.9528     154.5845     309.1691      1.625     3.63     844.4473     54.54491     278.0024        19     1.241     0.931  58.71   0
        48    790.6718    956.7350 307.5905374  +6.2954474     7259.111     10818.68     12016.74     77.56892     154.7692     309.4769      1.622     3.22     844.6727     54.54491     929.7297        37     1.518     1.077  85.39   0
        49    577.5764    956.4425 307.6790134  +6.2884576     1005.076      1293.76     1545.203     77.19984     154.6461     309.2614      1.628     3.65     847.0051     54.54491     181.8685         9     1.025     0.606  76.64   0
        50    260.1396    955.9778 307.8108077  +6.2780297     1754.424      2292.68     2399.765     77.19984     154.7077     309.3538      1.421     3.44     845.2167     54.54491     242.6843        14     1.085     0.848  59.08   0
        51    224.5360    955.2850 307.8256108  +6.2771226     994.9739      1392.36     1254.682     77.69156     154.8922     309.4461      1.456     3.94     844.5669     54.54491     148.9443        10     1.078     0.703 -89.57   0
        52     85.0167    954.1450 307.8835658  +6.2729136      3076.36     4519.651     4209.756     77.07642     154.7077     309.1999      1.533     3.50     841.5419     54.54491     398.8235        21     1.288     0.908  81.02   0
        53    978.9245    951.8047 307.5125469  +6.3037524      6579.57     10887.42     10826.61     77.19984     154.2763      309.323      1.750     3.59      841.903     54.54491     801.6031        38     1.484     1.232  79.35   0
        54    234.8617    948.2064 307.8215617  +6.2803912     769.1822     1168.881     631.5378      76.9528     154.5845     309.1999      1.420     4.85     844.5359     54.54491     102.1331         8     0.976     0.683  28.25   0
        55    661.4406    946.0096 307.6445460  +6.2955654     842.8964     1142.156     1176.032      76.9528     154.5845     309.1691      1.681     3.94     846.2037     54.54491     125.9031        11     1.041     0.822 -88.55   0
        56    952.7773    943.4485 307.5236805  +6.3063325     2265.439     3616.382     3847.119     77.19984     154.7692     309.3538      1.749     4.08     842.2953     54.54491     284.4355        22     1.275     1.111  62.44   0
        57     10.4088    941.9000 307.9149478  +6.2754641     1111.418     1739.293     1884.198     77.32306     154.3997     309.2922      1.631     4.08     838.8799     54.54491     148.7853        15     1.188     0.971 -38.06   0
        58    812.0687    939.8464 307.5822175  +6.3031337     1544.308     1928.987     1871.069     77.56892     154.7077     309.4153      1.417     3.18     844.2668     54.54491     219.1625        14     1.009     0.894 -68.90   0
        59    673.4077    939.5405 307.6397938  +6.2986357     5096.839     7072.617     6968.828      76.9528     154.6461     309.1691      1.493     3.04     846.0761     54.54491     675.8834        26     1.293     0.992  67.35   0
        60    285.5732    939.6752 307.8007960  +6.2856126     4924.088     6771.907     7080.951     77.44609     154.7077     309.4153      1.485     3.07     845.1255     54.54491     739.5822        24     1.264     0.908  78.05   0
        61   1022.5103    939.3556 307.4948659  +6.3103423     765.4961     1220.727     1122.417     77.56892     138.6085     250.8971      1.808     5.28     841.1674     54.54491      91.2287         9     1.140     0.691  58.41  24
        62    495.5550    938.1218 307.7136766  +6.2932810     1365.018     1885.066     1937.809     77.44609     154.7692     309.4461      1.456     3.97     845.7388     54.54491     204.3239        16     1.293     0.811 -82.83   0
        63     54.1659    937.2255 307.8969407  +6.2788634     2409.523     3428.845     3733.411      76.9528     154.5229     309.1999      1.550     3.36     839.9655     54.54491     315.7852        22     1.240     1.004 -82.80   0
        64    905.0408    935.6632 307.5437583  +6.3079579     962.5474     1440.815     1522.254     77.56892     154.7077     309.5384      1.697     4.72      843.055     54.54491     110.3802        11     1.027     0.767 -79.76   0
        65    997.2635    934.2900 307.5055162  +6.3115941     512.2892     870.3258     507.6898     77.56892     154.8922     309.5076      1.726     6.07     841.5734     54.54491      70.0423         7     1.210     0.855  45.84   0
        66    321.3871    933.1210 307.7861481  +6.2895182     908.7503     1165.949     1199.661     77.19984     154.4613     309.2307      1.421     3.90     845.0275     54.54491     148.7714         8     1.095     0.487  89.52   0
        67    976.4913    933.0485 307.5141815  +6.3114157     897.3848      1468.62     1717.005     77.56892     154.6461     309.5999      1.862     4.72     841.8562     54.54491     109.6315        11     0.946     0.909 -51.11   0
        68    598.0732    932.0555 307.6713191  +6.2992112     1915.541     2650.902      2672.88     77.44609     154.6461     309.3538      1.475     3.45     846.4092     54.54491     313.3466        13     1.111     0.699  85.97   0
        69    637.2800    928.3658 307.6551656  +6.3020437     1499.991     1848.297     2079.808     77.44609     154.8307     309.4769      1.379     3.42     846.2146     54.54491     234.5798        15     1.160     0.847  59.55   0
        70     86.9316    928.7670 307.8836232  +6.2834555     845.9969     1198.866     1599.769     77.44609     154.7692     309.4769      1.256     2.94     840.6261     54.54491     174.3547         8     0.993     0.506  56.76   0
        71    317.1090    926.1925 307.7881563  +6.2922356     1608.301     2011.985     2068.736     77.19984     154.4613     309.2614      1.374     3.79     844.8503     54.54491     244.1298        12     1.136     0.684  78.91   0
        72    584.7134    924.7128 307.6771109  +6.3017966      694.935     939.1265     585.1353     77.32306     154.9536     309.5384      1.374     3.77     846.2812     54.54491     107.7568         6     1.047     0.389 -76.32   0
        73    784.2832    922.1932 307.5943417  +6.3094963     1086.898     1467.323     1732.884     77.19984     154.4613      309.323      1.400     4.03     844.3276     54.54491     174.2956        12     1.179     0.695  71.69   0
        74    310.4930    922.0420 307.7910419  +6.2937276     1739.899     1865.552     1760.785     77.69156     154.7077     309.5384      0.680     0.24     844.7821     54.54491     751.5232         5     0.504     0.334  -9.38   0
        75    921.5568    918.6874 307.5374669  +6.3155169     7426.425     11216.99     11513.69     77.56892     154.6461     309.4769      1.658     3.36     842.4803     54.54491     928.0818        34     1.478     1.113  76.09   0
        76    159.5074    920.2509 307.8537812  +6.2894067     497.3769      565.592     278.4381     77.44609     154.6461     309.6306      1.357     4.30     843.0057     54.54491     75.84332         6     1.114     0.473  80.84   0
        77    457.4109    915.9650 307.7302533  +6.3011536     2524.564      3505.25     3587.416     77.07642     154.5845     309.2307      1.455     3.11     845.0878     54.54491     352.1005        17     1.146     0.858  78.16   0
