#   1 NUMBER                 Running object number                                     
#   2 X_IMAGE                Object position along x                                    [pixel]
#   3 Y_IMAGE                Object position along y                                    [pixel]
#   4 ALPHA_J2000            Right ascension of barycenter (J2000)                      [deg]
#   5 DELTA_J2000            Declination of barycenter (J2000)                          [deg]
#   6 FLUX_APER              Flux vector within fixed circular aperture(s)              [count]
#   9 FLUXERR_APER           RMS error vector for aperture flux(es)                     [count]
#  12 FLUX_RADIUS            Fraction-of-light radii                                    [pixel]
#  13 FWHM_IMAGE             FWHM assuming a gaussian core                              [pixel]
#  14 BACKGROUND             Background at centroid position                            [count]
#  15 THRESHOLD              Detection threshold above background                       [count]
#  16 FLUX_MAX               Peak flux above background                                 [count]
#  17 ISOAREA_IMAGE          Isophotal area above Analysis threshold                    [pixel**2]
#  18 A_IMAGE                Profile RMS along major axis                               [pixel]
#  19 B_IMAGE                Profile RMS along minor axis                               [pixel]
#  20 THETA_IMAGE            Position angle (CCW/x)                                     [deg]
#  21 FLAGS                  Extraction flags                                          
         1    190.6895     21.5991 307.8650906  +6.6681085     11541.84     16628.53     17316.94     77.41028     155.4436     311.5393      1.539     2.98      830.938      54.9576     1663.884        40     1.415     1.066  69.63   0
         2    936.3820     19.2491 307.5553400  +6.6940481     4184.318     5981.312     6466.541     77.65958     156.0022     311.6013      1.520     3.07     825.8188      54.9576     600.3336        25     1.278     0.976  78.12   0
         3    473.1940     18.1968 307.7478305  +6.6789954     1911.599     2511.095     2246.379     77.53503       155.63     311.6634      1.397     2.95     829.1774      54.9576     301.3937        15     1.072     0.853  78.08   0
         4   1001.1781     15.4052 307.5285449  +6.6977955     2070.758     3279.163     3178.438     77.78394     155.6921     311.6013      1.645     3.95     821.5121      54.9576      305.031        22     1.444     0.936  73.60   0
         5    720.5693     12.1566 307.6452496  +6.6897695     7858.819     10984.66     11683.93     77.78394     155.8782     311.6634      1.460     2.94     825.8416      54.9576     1156.554        31     1.353     1.019  80.38   0
         6    640.8142     11.3223 307.6784161  +6.6874465     3989.867     5513.138     5387.639     77.78394       155.63     311.6013      1.437     3.11     826.2289      54.9576     615.1927        23     1.339     0.861  73.99   0
         7    342.7764     10.7353 307.8022682  +6.6777015     903.4509     1172.711     1599.383     77.78394     155.9402     311.6944      1.589     4.58     833.8008      54.9576     169.1978         9     1.166     0.539  75.26   0
         8    440.9305      7.5467 307.7615938  +6.6823104     6784.294     9322.475     9524.764     78.03205     155.8162     307.8568      1.464     3.04     829.8145      54.9576     1013.381        30     1.363     0.976  74.95  16
         9    396.4876      9.3702 307.7799980  +6.6800672     897.0729     1366.224     792.2341     78.27938     155.6921     311.6944      1.618     4.37     831.4512      54.9576     118.8754         7     0.937     0.688 -43.58   0
        10     41.7917      7.1563 307.9274398  +6.6690616     9178.012      13222.3     13926.36     77.65958     155.7542     305.1765      1.513     2.99     827.9053      54.9576     1391.835        36     1.376     1.044  70.35  16
        11    687.7910      6.0403 307.6590744  +6.6911985     929.2815     1238.098     1108.697     77.53503     155.7542     296.0129      1.350     4.46     826.0133      54.9576      155.957         8     1.319     0.429  52.61  16
        12    337.4805      2.7332 307.8047381  +6.6808272     13923.93     18975.22     20071.44     78.27938     142.7375     256.1755      1.504     3.44     833.8008      54.9576     1943.686        38     1.341     1.133 -88.14  24
        13    516.6544      4.5533 307.7302317  +6.6860840     925.2012     1121.072     1044.908     78.15582     155.9402     280.2471      1.268     4.04     827.6169      54.9576     166.7642         7     0.993     0.471  61.73  16
        14    432.6269      3.0934 307.7651937  +6.6838704     907.1679     1297.701     1760.458     78.27938     146.2822     261.1822      1.479     4.72     829.9754      54.9576      140.696         9     1.131     0.559  75.12  24
        15    404.0225      1.8538 307.7771203  +6.6834228     1571.216     1907.637     1656.907     73.70058     131.5313     242.7708      1.281     2.81     831.0141      54.9576     374.7442        13     1.081     0.859 -80.61  24
        16    111.0027      2.8728 307.8988296  +6.6731591     2808.121     4036.918      4426.92     77.65958     143.9512     257.9052      1.514     3.23     829.7319      54.9576     432.1143        19     1.181     0.909  68.72  24
        17    102.4265      1.9909 307.9024225  +6.6732346     1481.625     1818.036     1904.649     74.87154     133.1381     244.9901      1.275     3.12     829.5524      54.9576     248.7925        10     0.895     0.782  82.28  24
        18    806.0504      1.6998 307.6100822  +6.6969427     760.6456     1012.383     1128.093      72.3773     129.3081     240.6114      1.245     2.69     825.7679      54.9576     167.7635         8     0.836     0.615  47.17  24
        19     82.0228    999.8076 307.8772420  +6.2606339     469.4553     794.9648     923.6527     77.65958     155.7542     311.6013      1.702     5.54     853.3758      54.9576     77.27783         6     1.443     0.600 -64.52   0
        20    761.4811   1023.3264 307.5943713  +6.2736892     1008.406     1345.301     1284.436     72.24364     129.1586     240.2496      1.324     3.38      858.168      54.9576     161.0383        10     0.959     0.718  -0.20  24
        21    923.4392    996.6465 307.5280224  +6.2901077     7893.568     13669.25     14536.75     78.03205     155.9402     311.6324      1.872     3.92     855.6298      54.9576     881.4036        47     1.677     1.315  66.17   0
        22    896.9976    992.7607 307.5391304  +6.2908303     11078.64     19185.09     21161.45     77.28532     155.6921     311.5083      1.865     3.67     855.8165      54.9576     1393.628        53     1.605     1.375  74.34   0
        23   1018.8458    992.1587 307.4885606  +6.2951399     4200.737     7735.963     7761.677     78.03205     155.9402     297.0884      1.954     4.20     852.0504      54.9576       443.39        35     1.535     1.267  72.44  16
        24    609.7741    993.2807 307.6583624  +6.2810234     1397.697     1942.738     2099.216     78.03205     155.7542     311.8184      1.471     3.82     858.5559      54.9576      216.777        15     1.146     0.939 -28.48   0
        25    541.0778    991.6548 307.6869376  +6.2793965     4363.447     6642.271     7364.722     78.27938     155.9402     311.7874      1.616     3.07     859.9522      54.9576      598.281        30     1.340     1.139  79.68   0
        26    650.8914    991.2145 307.6413608  +6.2832513     1331.515     2042.711     2108.219      77.9081     155.7542     311.6013      1.584     3.98     858.3223      54.9576     192.4859        13     1.222     0.727 -88.99   0
        27     76.1189    990.5409 307.8800052  +6.2642609     849.2856     1385.461     1659.957     78.27938     156.0022     311.7874      1.735     5.98     853.1633      54.9576     105.6683        10     1.294     0.777  79.45   0
        28    494.3519    988.1104 307.7064557  +6.2792957     2262.354     3405.591     3215.599     78.15582     155.8162     311.9424      1.591     3.00     859.7762      54.9576     328.8286        20     1.180     0.969 -89.12   0
        29    928.7635    980.2917 307.5263584  +6.2970372      40759.4     68081.95     73577.61     78.27938     155.8782     311.8184      1.829     3.72     854.9531      54.9576     5015.646        81     1.720     1.394  73.11   0
        30    333.9009    982.1197 307.7732705  +6.2763925      577.781     936.2543     362.9211     78.03205     156.3116     311.8494      1.682     5.04     858.3898      54.9576     79.98285         6     1.050     0.683 -76.87   0
        31      1.9879    979.9892 307.9111356  +6.2661238     2890.154     4045.578     3962.487     74.74234     133.1381     244.9112      1.435     3.31     851.9667      54.9576     450.0326        21     1.339     0.916 -85.38  24
        32    236.2665    978.4432 307.8139278  +6.2746346     1831.489     2672.064     2798.345     78.15582     155.8782     311.8184      1.535     3.42     857.7665      54.9576     270.0687        16     1.172     0.847  64.31   0
        33    774.8949    972.0184 307.5905198  +6.2953191     6453.602     10416.73     11362.93     78.03205     155.7542     311.6634      1.737     3.54     856.6984      54.9576     898.5142        39     1.756     1.148  88.39   0
        34    635.3763    976.7658 307.6482867  +6.2886975     924.1351     1411.932     1058.781     77.65958     155.7542     311.5703      1.489     3.03      858.091      54.9576     155.6656        10     1.007     0.713   8.16   0
        35    826.7811    974.1200 307.5689069  +6.2961835     2233.748     3424.554      3509.81     77.78394       155.63     311.6944      1.641     3.69     855.8387      54.9576      288.502        22     1.338     0.971  67.03   0
        36    244.2168    971.0554 307.8108759  +6.2779513     1500.365     2406.302     2253.681     77.65958     155.8782     311.5393      1.734     3.93     857.4471      54.9576     192.9095        16     1.254     0.806  57.35   0
        37    561.9662    971.0037 307.6789582  +6.2886209     978.2607     1291.059     789.1826     77.41027     155.8162     311.5703      1.388     4.61     858.7729      54.9576     155.7211         9     1.014     0.776  39.88   0
        38    208.7960    970.6467 307.8255948  +6.2769310     811.4605     1358.319     1047.533     77.53503     155.6921     311.4773      1.756     4.06      856.419      54.9576     111.4727         9     0.926     0.819  59.86   0
        39    963.0991    966.9339 307.5125489  +6.3036964     6106.706     10255.88     10592.01     78.15582     156.0641     311.7874      1.792     3.65     853.3088      54.9576     717.3833        38     1.487     1.251  64.95   0
        40     69.2664    968.8387 307.8835815  +6.2729896     2934.404     4205.099      4282.55     78.03205     155.8782     311.8804      1.522     3.23     852.7623      54.9576     418.5253        21     1.224     0.951 -89.14   0
        41    219.1430    962.6752 307.8215675  +6.2805693     488.0947     699.3753     669.6394     78.15582     155.8782     311.6944      1.315     4.08     856.4127      54.9576     81.90454         6     0.752     0.635  72.38   0
        42    936.9604    958.7937 307.5236737  +6.3061858     1986.095      3429.07     3598.419     77.41027       155.63     311.5393      1.850     4.71     853.9395      54.9576     255.1982        23     1.451     1.102  79.25   0
        43    657.6345    954.5943 307.6397886  +6.2985948     4683.768     6935.373     7258.172     77.41028     155.7542     311.5703      1.611     3.08     857.5269      54.9576     618.2528        29     1.423     1.002  78.67   0
        44    269.7513    954.7935 307.8008221  +6.2855216     4433.729     6817.453     7189.782     77.65958     155.7542     311.4152      1.619     3.15     857.1119      54.9576     610.0429        32     1.384     1.127  69.76   0
        45    796.4568    954.6566 307.5821487  +6.3032066     1304.465     1710.102     1845.316     78.27938     155.9402     311.8494      1.464     3.02     856.0603      54.9576     199.8367        12     0.912     0.846  81.01   0
        46     38.4849    952.3386 307.8969167  +6.2787661     2251.101     3176.031     4100.558     78.27938     156.0641     311.8184      1.631     3.24     852.1166      54.9576     292.7565        21     1.187     1.088 -83.00   0
        47    479.8498    953.1046 307.7136518  +6.2932616     1248.893     1846.624     1915.151     78.03205     155.8162     311.9424      1.430     4.28     858.2357      54.9576     193.6678        12     1.234     0.648  57.99   0
        48    889.2950    950.8264 307.5437307  +6.3078857     969.2484     1490.053      1650.49     78.27938     155.6921     311.6634      1.573     3.86     854.3077      54.9576     179.6042         9     1.135     0.582  32.11   0
        49    960.7546    947.8456 307.5141602  +6.3114987     642.1407     905.9171     742.3724     78.15582     155.9402     311.7874      1.712     5.37     852.7593      54.9576     98.92444         7     1.213     0.672  84.32   0
        50    582.2855    947.2060 307.6713203  +6.2991253     1737.076     2759.746     2561.596     77.65958       155.63     311.5083      1.669     3.73     857.7156      54.9576     256.1417        17     1.230     0.931  70.00   0
        51    306.1329    948.1826 307.7859400  +6.2894713     965.8405     1541.521     1844.186     77.65958     155.8782     311.6944      1.649     4.03     857.3011      54.9576      133.925        11     0.980     0.816  33.98   0
        52   1013.2402    946.1154 307.4924257  +6.3139619     692.4056     1161.296     1422.868     78.15582     155.8782     311.7564      2.229     4.91     850.9692      54.9576     108.1163         7     1.124     0.607 -65.42   0
        53    621.5566    943.4841 307.6551401  +6.3019753     1448.036     2078.269     2033.545     78.15582     155.8782     311.7874      1.592     3.33     857.3943      54.9576     196.2577        17     1.156     0.919  39.10   0
        54     71.5230    944.1724 307.8834762  +6.2832481     684.2556     1196.615     1020.374     78.03205     155.8782     311.7564      1.620     4.08     852.4606      54.9576     108.6309         7     1.046     0.455  77.29   0
        55    301.5792    941.2628 307.7880633  +6.2921753     1575.455     2332.418     2748.384     77.78394     155.9402     311.6634      1.564     3.66      857.077      54.9576     250.5573        17     1.185     0.972 -89.55   0
        56    569.3137    939.3022 307.6769711  +6.3019542       759.52     920.1626     1530.955     78.15582     156.3734     311.8494      1.601     5.28     857.5186      54.9576     106.4259         8     1.006     0.782 -71.02   0
        57    768.4096    937.3615 307.5943727  +6.3094103     932.8198     1332.996     1057.899     77.53503     155.7542     311.5083      1.604     4.40     856.1782      54.9576     128.5963         9     0.952     0.747 -78.35   0
        58    905.8789    933.8580 307.5374123  +6.3154440     6818.127     10901.24      10974.3     78.15582     155.8782     311.7564      1.691     3.32     853.5187      54.9576     868.8975        36     1.439     1.209  78.29   0
        59    143.6248    935.2189 307.8538443  +6.2893676     653.5411     902.3348     705.9009     77.78394     155.7542     311.7254      1.493     4.64     853.3345      54.9576      100.774         6     0.902     0.684  83.65   0
        60    441.5855    931.1240 307.7302766  +6.3010543     2266.545     3204.882     3010.658     77.65958     155.6921     311.6324      1.481     4.21     857.2007      54.9576     332.9109        18     1.293     0.882 -89.72   0
        61    343.2892    929.4153 307.7711448  +6.2984651     10059.79     14710.52     15293.86      77.9081     155.7542     311.6324      1.571     2.87     856.6928      54.9576     1472.636        38     1.400     1.097  82.21   0
        62    610.6299    930.8404 307.6601008  +6.3068297     464.1339     567.5239     191.7755     77.65958     155.6921     311.6634      1.013     3.33     857.1628      54.9576     89.58661         5     0.742     0.447  71.96   0
        63    263.4782    928.4116 307.8043141  +6.2962022     7642.462     11203.64     11998.29     77.78394     155.5679     311.6634      1.590     2.93     855.7459      54.9576     1080.699        35     1.396     1.127  74.79   0
        64    181.4317    927.5394 307.8384068  +6.2938078     540.5806     687.7456     618.1091      77.9081     156.0022     311.7254      1.678     4.11     853.7751      54.9576     92.31653         5     0.989     0.489 -84.73   0
        65    775.8514    922.4185 307.5917831  +6.3158278     651.5417     949.7513     582.0143     77.65958     156.0022     311.5393      1.481     3.42      855.869      54.9576     113.5953         5     1.183     0.286  55.18   0
        66    591.2617    922.6303 307.6684177  +6.3095712     1246.237     1908.433      1949.09      77.9081     155.9402     311.7254      1.501     3.83     857.0383      54.9576     185.7382        12     1.074     0.804  65.38   0
        67    921.6529    919.1890 307.5313533  +6.3220259     1030.741     1684.346       1808.5     77.53503     155.8782     311.5393      1.824     4.45     852.9199      54.9576     148.0809        12     1.184     0.917  50.78   0
        68    877.9049    917.6325 307.5495700  +6.3212096     796.8218     1300.468     727.3093     78.27938     155.8162     311.8804      1.716     6.63     853.4159      54.9576     105.3757        11     1.475     0.835  77.49   0
        69    154.1808    918.7680 307.8500159  +6.2965135     587.5833      946.063     697.6293     77.65958     155.7542     311.6634      1.456     3.97     853.3253      54.9576     98.40973         6     0.768     0.587 -51.72   0
        70    420.3876    917.1350 307.7395476  +6.3061191     656.4051     867.8416     1474.929     77.65958     155.7542     311.6944      1.454     3.35     856.6898      54.9576     114.4344         5     0.757     0.429  68.28   0
        71    925.2885    914.9733 307.5299846  +6.3238876     424.9189     807.7549     1643.696     78.27938     155.6921     311.6634      3.319     3.48     852.7643      54.9576     103.5772         5     1.000     0.528 -50.45   1
        72    850.9721    912.7806 307.5609150  +6.3223141     597.1665     917.0998     522.7552     77.78394     155.7542     311.7254      1.543     4.19     853.9735      54.9576     97.04785         6     1.148     0.436  27.86   0
        73    757.6429    911.8636 307.5996968  +6.3195772      1671.63     2274.808     2237.821     78.15582     155.8782     311.8184      1.457     3.34     855.8721      54.9576     251.2113        18     1.175     0.949  65.41   0
        74    581.9156    912.1439 307.6726499  +6.3135878     739.0875      956.188     885.1736     78.15582     155.9402     311.9114      1.464     3.63     856.8578      54.9576     102.5251         7     0.850     0.656 -55.92   0
        75    989.4461    907.9196 307.5035811  +6.3289381     1119.342     2099.664     3076.343     78.15582     155.9402     311.7874      2.984     6.12     850.7596      54.9576      154.133        18     1.705     0.886  86.05   0
        76    622.2737    908.3310 307.6560211  +6.3165117     956.2075     1369.884     1306.232     78.27938     156.0641     311.7564      1.441     3.38     856.7466      54.9576     175.5253        10     0.981     0.748  70.59   0
        77    542.8823    907.6911 307.6890058  +6.3141199     1221.125     1763.733     1347.218      77.9081     156.1879     311.8494      1.472     4.12     856.8047      54.9576     171.0892        13     1.134     0.885  60.20   0
