#   1 NUMBER                 Running object number                                     
#   2 X_IMAGE                Object position along x                                    [pixel]
#   3 Y_IMAGE                Object position along y                                    [pixel]
#   4 ALPHA_J2000            Right ascension of barycenter (J2000)                      [deg]
#   5 DELTA_J2000            Declination of barycenter (J2000)                          [deg]
#   6 FLUX_APER              Flux vector within fixed circular aperture(s)              [count]
#   9 FLUXERR_APER           RMS error vector for aperture flux(es)                     [count]
#  12 FLUX_RADIUS            Fraction-of-light radii                                    [pixel]
#  13 FWHM_IMAGE             FWHM assuming a gaussian core                              [pixel]
#  14 BACKGROUND             Background at centroid position                            [count]
#  15 THRESHOLD              Detection threshold above background                       [count]
#  16 FLUX_MAX               Peak flux above background                                 [count]
#  17 ISOAREA_IMAGE          Isophotal area above Analysis threshold                    [pixel**2]
#  18 A_IMAGE                Profile RMS along major axis                               [pixel]
#  19 B_IMAGE                Profile RMS along minor axis                               [pixel]
#  20 THETA_IMAGE            Position angle (CCW/x)                                     [deg]
#  21 FLAGS                  Extraction flags                                          
         1    614.5972     26.3338 307.6804636  +6.6762230     3366.598     5628.369     6622.435     77.52758     155.8658     312.0425      1.895     5.83     825.4702     55.04088     515.2444        31     2.128     0.852  67.79   0
         2    433.3824     27.2699 307.7557240  +6.6697535     24900.21     35235.84     36536.01     77.77727     156.0523     312.1978      1.507     3.12     829.1063     55.04088     3757.859        48     1.450     1.066  56.93   0
         3    683.3482     16.9710 307.6522133  +6.6823935     2066.092     2849.348     3036.604     78.02615     156.3006     312.1667      1.435     3.19     825.1064     55.04088     323.8209        14     1.152     0.726  59.58   0
         4    194.5236     12.5289 307.8554616  +6.6678042     871.5886     1418.645     1489.146     78.52157     156.4246     312.2599      1.763     3.29     833.9896     55.04088     160.7982         9     1.055     0.612  29.60   0
         5    248.9448     11.7941 307.8328761  +6.6699401     897.8578     1210.951     1333.959     77.77727     155.9902     311.9492      1.437     3.53     835.4083     55.04088     138.8297         8     0.867     0.745 -69.65   0
         6    171.4949      9.5699 307.8651293  +6.6682501     11915.77     16690.29     17776.28       78.398      155.928     312.2288      1.556     3.04     832.8329     55.04088     1893.579        40     1.457     1.044  61.48  16
         7    917.1193      7.5508 307.5553973  +6.6941078     4696.607     6385.873     6350.135     78.27425     156.2386     308.4176      1.419     3.10     823.3419     55.04088     734.4756        24     1.329     0.854  49.90  16
         8    515.7384      7.7325 307.7221655  +6.6805860     3320.834     4898.501     5387.068     78.27425     156.1144     309.4845      1.530     2.88     825.2373     55.04088     577.2031        24     1.325     0.902  60.36  16
         9    717.9734      6.2709 307.6381868  +6.6879716     2296.705     3177.835     3636.523     77.90181     156.0523     298.7093      1.459     3.10     824.5196     55.04088      360.742        16     1.126     0.866  62.15  16
        10    453.9919      6.3209 307.7478680  +6.6790952     1993.218     2529.949     2295.614     77.90181     155.6791     299.0012      1.373     3.47     827.3538     55.04088     285.1124        15     1.190     0.783  60.52  16
        11    981.9097      3.7433 307.5286039  +6.6978451     2192.471      3351.84     3380.309      78.1503      152.343     270.6131      1.592     3.63     817.1242     55.04088     313.5088        21     1.348     0.941  72.76  24
        12    776.7771      3.0110 307.6138633  +6.6912869      503.804      734.812     993.9935     77.90181     145.6411      260.501      1.568     3.85     823.5917     55.04088     73.40588         5     0.830     0.512  36.72  16
        13    701.6054      1.4061 307.6451515  +6.6894318     4172.812     4655.825      4737.22      68.6402      125.087     236.0169      0.902     1.60     824.4114     55.04088     1255.135        10     0.796     0.578  -1.60  24
        14    621.7511      1.1949 307.6783381  +6.6868422     958.5779      1189.38         1280     65.90212     121.7884     232.4577      0.910     1.71     824.5307     55.04088     328.8516         5     0.649     0.395  -3.58  24
        15    355.6487   1001.4386 307.7551429  +6.2649238      1991.34     2865.878     2939.754     78.27425     156.2386     312.1357      1.528     3.28     859.1089     55.04088     341.4677        19     1.398     0.859  61.35   0
        16    884.2418   1021.3479 307.5350215  +6.2744160     1483.567     2350.801     2115.541     78.27425      151.833     269.3924      1.725     4.54     855.4453     55.04088      207.672        18     1.406     0.855  67.78  24
        17    785.6422   1023.2066 307.5758946  +6.2703516     5180.474       6525.7     7087.331     73.01998     130.5479     242.1398      1.297     3.62     856.2966     55.04088      1013.05        20     1.304     0.755  21.57  24
        18    573.9565   1024.0000 307.6637516  +6.2629348     5448.243     7341.461      8180.32     63.04524     118.6434     229.1394      1.270     4.19     860.1536     55.04088     1734.353        11     1.614     0.310   4.14  27
        19    576.8212   1020.0029 307.6626968  +6.2646812     77835.61     114998.4     121787.8     77.90181     155.8658     285.6362      1.546     3.17     859.9993     55.04088     11980.76        89     1.572     1.290  56.20  18
        20    966.0673    999.4153 307.5017849  +6.2862057       699.73     1049.763      833.772     77.77727     156.0523     312.1667      1.585     4.97     852.5692     55.04088     99.47809         7     0.939     0.842 -29.68   0
        21    694.1290    998.7688 307.6147090  +6.2773789     573.2943     713.2917     1074.644      78.1503     156.1765     312.1978      1.374     3.37     857.6292     55.04088     94.92834         5     0.978     0.336  42.18   0
        22    537.9673    991.7491 307.6797784  +6.2750442     4646.525     6879.237     7598.919      78.1503     156.2386     312.1978      1.574     3.16     859.3881     55.04088     686.2344        30     1.360     1.072  76.41   0
        23    742.5341    991.1063 307.5948700  +6.2821631     8361.347     12353.37     13091.81     78.27425     156.3626     312.2599      1.585     3.30     856.1909     55.04088     1170.708        34     1.444     1.042  52.91   0
        24    508.3628    992.7736 307.6920346  +6.2736282     1219.379     1596.136     1438.025     77.90181     155.9902     312.0735      1.393     3.17     859.4166     55.04088      189.637        11     0.949     0.794  28.92   0
        25    288.0886    990.4178 307.7835623  +6.2672036     16445.62     23489.82     24253.04     78.02615      155.928     312.1667      1.511     2.97     858.7455     55.04088     2386.092        47     1.389     1.138  58.02   2
        26    292.4190    987.5779 307.7818604  +6.2685218     1017.652     1505.814     1956.954     78.02615     156.1144     312.1978      1.711     4.87      858.689     55.04088     135.3187        11     1.413     0.697  58.56   3
        27    803.9390    990.5968 307.5693932  +6.2844281      1217.35     1589.409     1321.584     77.65252      155.928     311.9803      1.413     3.38     855.2988     55.04088     191.2213        13     1.070     0.824  44.82   0
        28    412.6078    990.9702 307.7318490  +6.2711591     1033.098     1315.378     1276.133     77.77727     155.9902     312.0425      1.397     3.12     859.1194     55.04088     186.7627         6     0.810     0.483  83.60   0
        29    259.5436    988.1613 307.7954889  +6.2671755     1022.991     1550.975     906.3923     78.27425     156.2386     312.2599      1.469     4.22     858.4913     55.04088     151.6054        10     1.143     0.749 -88.67   0
        30    903.9288    984.6265 307.5280796  +6.2902362     9021.022     14000.41     14454.86     77.90181     156.0523     312.1978      1.650     3.31      854.189     55.04088     1187.171        37     1.448     1.137  53.27   0
        31    535.2418    983.8701 307.6811752  +6.2782059      9106.69     13049.54     14019.78      78.1503     156.1765      312.322      1.518     3.06     859.1595     55.04088     1328.459        35     1.356     1.113  48.07   0
        32    877.4828    980.8253 307.5391871  +6.2909218     12752.43     19657.55     20898.86     78.27425      155.928     312.2599      1.680     3.24     854.4108     55.04088     1677.863        51     1.511     1.246  50.45   0
        33    999.2144    980.2825 307.4886640  +6.2952124     4759.985      7972.39     8439.154     77.90181      155.928     312.0735      1.806     3.64     850.7794     55.04088     591.9974        38     1.554     1.224  60.54   0
        34    590.3259    981.0989 307.6583992  +6.2811970     1631.978     2348.354     2356.095     77.77727     156.3006     312.2288      1.501     3.72     858.4712     55.04088     253.0247        14     1.170     0.755  54.41   0
        35    521.6580    979.7089 307.6869548  +6.2794685     4640.563     6769.578     7561.551      78.1503     156.1144      312.353      1.627     3.13     859.0452     55.04088     726.3986        28     1.352     1.013  52.05   2
        36    631.3337    979.1768 307.6414385  +6.2833649     1458.861     2048.279     2090.219     77.90181     156.1765     312.1978      1.443     3.44     857.9102     55.04088     212.7584        14     1.132     0.770  62.82   0
        37     56.5567    978.1574 307.8800957  +6.2644733     975.5339     1375.195     1460.768     78.02615     156.1765     312.1046      1.409     3.31     854.0925     55.04088     160.3143         9     0.969     0.653  59.67   0
        38    474.8312    976.1593 307.7065153  +6.2793630     2358.722     3346.651     3054.138     77.77727     156.0523     312.1357      1.456     3.37     858.9286     55.04088     365.9955        16     1.269     0.776  58.80   0
        39    909.2549    968.3282 307.5264149  +6.2971437     45601.98     69104.64     72806.16      78.1503     156.0523     312.2288      1.642     3.24     853.7228     55.04088     6031.169        71     1.574     1.230  52.97   0
        40    315.2193    970.1006 307.7729844  +6.2765042     554.6265     883.0175     1021.535     78.27425     156.0523     312.0425      1.728     5.04     858.1204     55.04088     81.04309         6     1.079     0.666  82.77   0
        41    216.5885    966.6973 307.8140465  +6.2745929     1886.126     2745.896     2295.047     78.02615      155.928     312.0735      1.476     3.74     857.2064     55.04088     322.7205        19     1.187     1.065 -76.87   0
        42    104.6348    965.5927 307.8605613  +6.2712806     826.8593      1321.51     803.7972     77.77727     155.9902     312.0425      1.638     3.43     854.7913     55.04088     128.1883         7     0.828     0.681  34.27   0
        43    755.3976    960.0962 307.5905710  +6.2953976     7140.977     10491.84     12030.18     77.90181     155.8658     311.9492      1.640     3.07     855.4561     55.04088     1131.218        37     1.558     1.112  79.47   0
        44    615.5292    964.8108 307.6484834  +6.2887670     830.2272     1259.043     776.6216     77.77727     155.8036     312.1046      1.401     4.04     857.4965     55.04088     130.6021         7     0.976     0.478  80.20   0
        45    807.2006    962.0486 307.5689975  +6.2963246     2427.933     3438.135      3718.25     77.65252     155.8036     311.8249      1.494     3.09     854.5049     55.04088     386.0671        19     1.220     0.877  57.73   0
        46    224.8875    959.0864 307.8108581  +6.2780144     1679.269     2201.219      2367.58     78.02615     156.4246      312.384      1.324     2.94      857.112     55.04088     287.1349        14     1.086     0.789  64.52   0
        47    542.0489    959.0682 307.6791840  +6.2886747     887.2369     1273.785     1009.071     78.27425     156.1144     312.2599      1.414     4.14     858.4453     55.04088     128.3916         7     0.930     0.526  48.47   0
        48    189.5973    958.5008 307.8255288  +6.2770689     896.4424     1445.028     1303.337     78.02615      155.928     311.9492      1.696     4.80     856.2716     55.04088     136.1219         9     0.996     0.869  85.86   0
        49    943.5901    955.0924 307.5126031  +6.3037559     6938.221     10571.52     11107.88     77.90181     155.8036     312.0425      1.618     3.16     852.6276     55.04088     1010.116        38     1.479     1.144  58.21   0
        50     49.8544    956.9432 307.8835956  +6.2730063     3048.504     4313.311     4753.644       78.398     156.2386     312.2909      1.516     2.99     853.7316     55.04088     419.9951        21     1.124     1.043  30.09   0
        51    200.1239    951.3673 307.8213996  +6.2803684     681.5918     1147.849     854.8362      78.1503     156.1765     312.1978      1.977     3.81     856.2852     55.04088     122.3613         8     1.042     0.576 -58.37   0
        52    625.9071    949.6178 307.6446858  +6.2953878     881.5182     1326.251     1260.914      78.1503      155.928     312.1357      1.479     4.48     856.8023     55.04088     153.7419        11     1.113     0.843  73.79   0
        53    917.4797    946.9133 307.5237183  +6.3062607         2264     3366.154     2998.711     78.02615     156.4866      312.384      1.570     3.22     853.1751     55.04088     330.4404        19     1.133     0.994  46.53   0
        54    776.9220    943.2234 307.5822011  +6.3030845      1355.65      1915.45     1953.988     77.90181     155.9902     312.1978      1.532     3.46     854.6315     55.04088     208.3635        12     1.104     0.820  43.68   0
        55    638.0446    942.5677 307.6398836  +6.2987054     4830.229     6837.421     6804.102     78.02615     156.2386     312.1357      1.529     3.23      856.423     55.04088     692.5104        25     1.280     0.977  55.80   0
        56    250.2670    942.8353 307.8008703  +6.2855779     4946.732     6934.231     7203.636      78.1503     156.2386      312.322      1.478     2.88     856.7892     55.04088     758.3257        22     1.182     0.946  53.09   0
        57    987.7743    942.2950 307.4946869  +6.3105155     807.5058     1361.966     1491.313       78.398      155.928     312.1357      1.680     5.80     850.5045     55.04088     111.2874         9     1.277     0.741  44.24   0
        58     19.0064    940.2459 307.8969670  +6.2788606     2258.569     3525.976     3503.577     77.77727      155.928     311.9182      1.633     2.93     853.2343     55.04088     366.4737        22     1.358     0.987  71.11   0
        59    460.4128    941.2764 307.7136765  +6.2932819         1375     1844.533     1698.617     77.90181     155.8036     312.0735      1.410     2.83     858.0704     55.04088     242.5223        12     0.991     0.789  46.96   0
        60     92.1231    941.2905 307.8665772  +6.2808930     1102.846     1126.183     1336.424      78.1503     156.4246     312.2909      0.690     0.62     854.0259     55.04088     660.4576         5     0.710     0.328  29.90   0
        61    870.3862    939.4596 307.5435215  +6.3077644     1024.311     1580.451     1768.428     77.65253     156.1144     311.9803      1.602     4.56     853.2216     55.04088     184.0817        11     1.165     0.708  46.42   0
        62    993.9937    934.8591 307.4923538  +6.3137935     858.9399     1583.437     1406.191     77.65252     156.0523     312.0114      2.039     6.41      850.114     55.04088      117.847        13     1.570     0.736 -80.51   0
        63    941.6819    936.2129 307.5140284  +6.3114875     668.0588     693.1821     827.6602     77.90181      155.928     312.1046      1.367     4.11     852.3284     55.04088     112.4448         8     0.993     0.601  22.21   0
        64    562.7898    935.2583 307.6713742  +6.2992011     2002.764     2673.754     1944.588     77.65252     156.0523     311.9803      1.442     3.03     857.3595     55.04088     303.9659        14     1.044     0.831  52.40   0
        65    286.5039    936.1375 307.7860521  +6.2895618     781.0829     1156.638     1396.311     78.02615     156.3006      312.322      1.811     4.00     857.0203     55.04088     144.7247         7     0.943     0.582  37.48   0
        66    601.9915    931.5242 307.6552238  +6.3020570     1310.792     1947.791     2056.747     77.90181     155.6791     312.0425      1.499     3.32     856.3737     55.04088     243.7482        12     1.174     0.640  73.68   0
        67     51.8655    932.1174 307.8836005  +6.2833240     810.7424     1124.812     1645.836     78.52156     156.4246      312.322      1.540     5.05     853.4973     55.04088     123.7709         8     0.923     0.783  19.39   0
        68    282.0131    929.2025 307.7881506  +6.2922741     1588.129     2265.569     2290.744     77.90181     155.8658     312.1046      1.466     3.33     856.7277     55.04088     244.2784        13     1.044     0.832 -74.84   0
        69    549.5800    927.4703 307.6771208  +6.3019737     693.2802     856.2357     1209.096     77.90181     156.0523     312.1978      1.439     3.80      857.411     55.04088     123.1583         8     1.007     0.597  46.11   0
        70    748.8333    925.7193 307.5944513  +6.3093720     938.6674     1439.146      1496.17      78.1503     156.1144     312.2599      1.598     4.11     854.9834     55.04088     167.4045        11     1.157     0.645  85.67   0
        71    886.3033    921.9528 307.5375001  +6.3155250     7507.792     10965.77     11114.53     78.27425     156.0523     312.4151      1.535     3.26     852.7573     55.04088      1006.86        31     1.372     1.045  60.14   0
        72    124.4993    923.7494 307.8537290  +6.2892256     669.3109     1024.976     677.6028     78.27425     156.1765     312.4151      1.341     2.58     854.3676     55.04088     132.2357         5     0.712     0.474 -72.53   0
        73    422.5098    919.3447 307.7301522  +6.3010648     2451.901     3122.756     3136.338      78.1503     156.0523      312.384      1.379     3.11      857.651     55.04088     338.5578        15     1.045     0.853  45.86   0
        74    591.6300    919.0845 307.6599444  +6.3068460     520.9112     816.7859     686.9889     78.27425     155.9902     312.1357      1.465     3.84     856.3308     55.04088     79.80005         5     0.877     0.482 -88.54   0
        75    323.7910    917.4268 307.7712028  +6.2985405     10563.16     14785.66     15657.03     77.90181     155.9902     312.1357      1.495     2.96     856.5786     55.04088     1656.605        31     1.314     1.003  54.83   0
        76    243.9625    916.3656 307.8043814  +6.2962947      7750.47     11130.13     11608.02     78.02615     155.9902     312.0425      1.503     2.97     856.0446     55.04088     1141.795        32     1.342     1.029  57.20   0
        77    162.5796    914.2302 307.8382412  +6.2944380     359.5526      486.481      72.7234     77.77727     155.9902     312.1667      1.153     3.11     855.2471     55.04088     88.79962         5     0.715     0.475 -75.51   0
