#   1 NUMBER                 Running object number                                     
#   2 X_IMAGE                Object position along x                                    [pixel]
#   3 Y_IMAGE                Object position along y                                    [pixel]
#   4 ALPHA_J2000            Right ascension of barycenter (J2000)                      [deg]
#   5 DELTA_J2000            Declination of barycenter (J2000)                          [deg]
#   6 FLUX_APER              Flux vector within fixed circular aperture(s)              [count]
#   9 FLUXERR_APER           RMS error vector for aperture flux(es)                     [count]
#  12 FLUX_RADIUS            Fraction-of-light radii                                    [pixel]
#  13 FWHM_IMAGE             FWHM assuming a gaussian core                              [pixel]
#  14 BACKGROUND             Background at centroid position                            [count]
#  15 THRESHOLD              Detection threshold above background                       [count]
#  16 FLUX_MAX               Peak flux above background                                 [count]
#  17 ISOAREA_IMAGE          Isophotal area above Analysis threshold                    [pixel**2]
#  18 A_IMAGE                Profile RMS along major axis                               [pixel]
#  19 B_IMAGE                Profile RMS along minor axis                               [pixel]
#  20 THETA_IMAGE            Position angle (CCW/x)                                     [deg]
#  21 FLAGS                  Extraction flags                                          
         1    173.4807     13.4837 307.8650409  +6.6681682     11491.19     16832.17     17498.72     78.07175     156.2674      312.008      1.605     3.57     835.7036     54.98556     1455.325        38     1.448     1.053 -73.52   0
         2    919.0825     11.2869 307.5553465  +6.6941012     4359.497      6220.18     6080.757     77.94772     156.2054      312.008      1.507     3.46     825.9296     54.98556     623.4916        25     1.352     0.923 -69.34   0
         3    517.6662     11.7730 307.7221071  +6.6804510     3010.906     4378.247     4402.672     77.82351     155.8954      311.884      1.541     3.53     827.4463     54.98556      420.394        23     1.343     0.943 -59.40   0
         4    455.9198     10.2358 307.7478120  +6.6790117     1913.813     2889.941     3020.539     78.07175     156.0815      311.977      1.602     3.95      828.305     54.98556     268.6529        21     1.407     0.969 -65.17   0
         5    719.8789      9.8801 307.6381582  +6.6880146     2134.377     2976.742     2878.634     78.44263     156.2674      312.101      1.488     3.67     826.6608     54.98556     315.5579        16     1.255     0.782 -79.71   0
         6    983.8458      7.6838 307.5285593  +6.6977532     2125.191     3173.442     3397.428     78.19557     156.0195     308.9543      1.692     3.59      822.208     54.98556     306.9955        16     1.286     0.730 -76.93  16
         7    778.9498      7.0090 307.6137123  +6.6911783     484.8235     589.1725     688.9139     77.69909     155.8954     304.3161      1.297     3.66     825.7442     54.98556     73.26923         5     0.628     0.613   1.45  16
         8    703.2421      4.0631 307.6452660  +6.6898582     7645.938     11442.96     11736.08     78.19557     154.3362     274.5316      1.569     3.73     826.6982     54.98556     1031.647        32     1.407     1.031 -72.24  24
         9    623.3426      3.3695 307.6784853  +6.6874659     4066.683     5984.377     6139.872     78.07175     149.1072     265.1741      1.600     3.73        826.9     54.98556     575.8087        24     1.395     0.923 -68.15  24
        10    325.4616      3.1170 307.8022517  +6.6775642     947.5097     1626.425     1625.487      78.3192     146.7527     261.7959      1.875     4.87     836.6979     54.98556     115.8099        14     1.309     0.814 -67.01  24
        11    379.3875      1.6570 307.7798972  +6.6799805     660.0197     809.1542     691.8374       71.608     128.6991     239.5654      1.281     4.23     833.8215     54.98556     100.3217         7     0.971     0.525 -28.51  24
        12     23.9076      1.2838 307.9275914  +6.6681601     1997.448     2341.721     2513.711     67.28938     123.5598     234.0913      0.990     1.91     833.6771     54.98556      642.471        10     1.006     0.503  -5.44  24
        13    423.1361      1.2620 307.7617349  +6.6816142     2290.933     2637.903      2761.26     67.14545     123.0104     233.6362      1.037     2.32     829.3225     54.98556     641.7479         9     1.001     0.440   0.25  24
        14    540.0491    995.5308 307.6796826  +6.2751262     4434.876     6729.706       6906.3     78.19557     155.9575      311.977      1.632     3.82     862.2458     54.98556     612.4592        25     1.415     0.970 -72.66   0
        15    885.9964   1023.5632 307.5351248  +6.2751382     818.1689     836.6183     883.2802     68.99318     125.2706     236.1077      1.066     3.43     857.2842     54.98556     208.8928         8     1.070     0.539 -19.86  24
        16    744.5815   1022.2018 307.5938773  +6.2709699     651.8732      1127.84     982.2816     77.82351     142.9455     257.0597      2.029     6.09     861.1795     54.98556     79.59552        10     1.334     0.780  67.45  25
        17    711.6678   1020.3170 307.6076043  +6.2706460     7475.384     11724.16     12220.56     78.31921     156.2674     281.9724      1.690     3.49     861.7455     54.98556     1006.552        37     1.505     1.133 -67.42  24
        18    578.8830   1022.9765 307.6626381  +6.2650993     62243.25     76798.47     79533.42     75.55264     133.7856     245.8242      1.341     3.57     862.9693     54.98556     10291.86        54     1.284     1.054  -2.10  24
        19    426.4791   1020.5413 307.7259867  +6.2609911     4136.294     6197.028     6312.294     78.31921     156.0195      279.318      1.662     3.61     863.1973     54.98556      570.215        29     1.508     1.010 -70.51  24
        20    290.2770    994.2267 307.7834138  +6.2672769     15772.46     24055.21     25469.57     78.07175     155.9575      311.915      1.664     3.72     861.0472     54.98556     2200.843        55     1.771     1.152 -48.57   0
        21    805.7482    994.4101 307.5694173  +6.2844888     1169.653     1638.533     1291.361     77.57447     155.8954     311.6978      1.503     4.13     857.7783     54.98556     160.1793        11     1.057     0.784 -80.00   0
        22    414.9441    994.5245 307.7316515  +6.2713429     1134.492     1368.938      1134.12     78.19557     155.9575      311.884      1.478     5.34     861.9586     54.98556      147.213        14     1.193     0.891 -37.51   0
        23    261.7487    991.9344 307.7953339  +6.2672638     871.6572     1182.476     1383.274     78.19557     155.9575      311.946      1.485     4.67     860.4612     54.98556     116.8963         9     1.098     0.648 -53.14   0
        24    905.8703    988.5145 307.5280492  +6.2902703     8694.558     14019.25     15045.88      78.3192     156.2674      311.977      1.754     3.79     855.8942     54.98556     997.2253        42     1.528     1.195 -71.54   0
        25    624.2389    990.3292 307.6449071  +6.2800959     466.1176     801.4697     682.0316     78.07175     156.0195      312.008      1.553     5.14     861.3163     54.98556     72.99182         5     1.044     0.716 -77.17   0
        26    537.2518    987.7573 307.6811054  +6.2782411     8749.054     13082.69     13617.99     78.19557     156.0195      311.977      1.604     3.62     861.9119     54.98556     1200.343        33     1.425     1.045 -62.16   0
        27    879.4563    984.6759 307.5391438  +6.2909719     12279.08     20061.95     21717.87     78.19557     155.9575     311.8529      1.797     3.73      856.564     54.98556     1460.636        53     1.603     1.294 -58.35   0
        28   1001.2548    984.2214 307.4885935  +6.2952287     4417.165     7911.412     7662.595     77.69909     156.0195     311.7599      1.905     4.03     854.1435     54.98556     547.5161        37     1.647     1.222 -72.61   0
        29    592.2238    985.0456 307.6583755  +6.2812038     1277.094     2048.725     1739.163     77.82351     156.0195     311.8219      1.673     4.62     861.4434     54.98556       151.89        14     1.203     0.813 -70.95   0
        30    633.2215    983.1516 307.6414193  +6.2833597      1496.02     2160.147     1820.266     77.82351     156.0195     311.8219      1.517     4.13     860.9473     54.98556      231.368        16     1.404     0.793 -66.48   0
        31    523.7262    983.5894 307.6868606  +6.2795079     4400.594     6628.772     7475.056     77.69909      155.647     311.8219      1.695     3.63     861.7509     54.98556     573.4767        30     1.403     1.218 -44.66   0
        32     58.4533    982.2844 307.8800505  +6.2644032     906.2131     1502.303     1475.379     78.19557     156.0195      312.101      1.442     3.72     856.7648     54.98556     171.1022         7     1.233     0.405 -55.32   0
        33    476.8370    980.0801 307.7064442  +6.2793831     2296.879      3093.72     2859.285     78.07175     156.0815      311.915      1.457     3.54      861.594     54.98556     303.6772        17     1.279     0.821 -67.66   0
        34    911.2292    972.2296 307.5263704  +6.2971717     42793.37     68461.89     72874.45     77.69909     155.7713     311.6978      1.716     3.64     855.4783     54.98556     5401.113        76     1.623     1.311 -71.08   0
        35    512.3098    975.2611 307.6918802  +6.2825626     494.3235     624.7114     733.6498     78.19557     156.1435      312.008      1.260     3.85     861.3922     54.98556     99.82642         5     0.991     0.430  -5.86   0
        36    218.4243    970.5281 307.8140411  +6.2746424     1777.043     2821.881     3025.935     77.82351     155.8954      311.915      1.734     3.93     859.0952     54.98556     260.6055        17     1.223     0.923 -37.96   0
        37    617.2421    968.4999 307.6485456  +6.2888722     881.4044     1404.294     885.0901     78.19557     155.8954      312.163      1.629     4.78     860.6234     54.98556      141.574        10     1.239     0.587 -70.33   0
        38    106.6906    969.5356 307.8604575  +6.2712906     611.4742     1000.082     825.5612     78.07175     156.2054      312.008      1.897     3.55     857.2554     54.98556     125.1837         5     1.162     0.380 -76.13   0
        39    809.1375    966.0030 307.5689635  +6.2963284     2491.412     3964.756     4403.665     77.57447     155.7713     311.6978      1.717     3.73     857.3107     54.98556     338.5443        21     1.344     0.976 -72.86   0
        40    757.4058    963.8693 307.5905119  +6.2954782     7011.217     10819.16     11910.59     77.69909      155.647     311.7909      1.674     3.56     858.6694     54.98556     885.7217        36     1.628     1.048 -69.07   0
        41    226.7280    963.0203 307.8108474  +6.2780208     1459.211     2214.468     2505.958     77.82351     155.8954      311.915      1.558     3.99     859.0684     54.98556     190.5312        15     1.297     0.809 -75.76   0
        42    544.4298    962.9523 307.6789600  +6.2887210     883.0154     1290.595     1207.603     77.82351     156.0815     311.8529      1.555     3.40     860.8596     54.98556     148.8165         6     0.789     0.483 -80.09   0
        43    191.5554    962.7660 307.8254571  +6.2769422     931.0868     1435.909     1411.951     77.82351     155.9575     311.8529      1.666     5.81     858.4614     54.98556     164.7511        13     1.547     0.704 -26.46   0
        44     51.7661    960.8464 307.8835512  +6.2730268     2796.419     4203.873     4206.592     77.82351     156.0195      311.884      1.538     3.34     856.3339     54.98556     451.1083        22     1.331     0.982 -59.40   0
        45    945.5587    958.9819 307.5125621  +6.3037872     6794.564     11044.51     11227.27     77.69909     155.8334     311.7288      1.737     3.61     854.4927     54.98556     850.0812        39     1.539     1.158 -67.30   0
        46    201.7381    955.0215 307.8214914  +6.2804816     670.1879     971.3667     929.9926     77.82351     156.0195     311.8529      1.548     4.99     858.4922     54.98556     119.6015         8     1.120     0.630 -60.26   0
        47    628.0385    953.4631 307.6445691  +6.2954411     692.5776     798.1513     512.1484     78.19557     155.9575      312.008      1.466     4.63     859.8994     54.98556     99.47473         8     1.164     0.522 -65.70   0
        48    919.4761    950.6159 307.5236711  +6.3063692     2229.451     3519.848     3503.789     77.69909     155.7713     311.8219      1.724     4.12     855.0016     54.98556     261.9744        22     1.301     1.070 -74.68   0
        49    778.8224    946.8919 307.5821906  +6.3032030     1382.826     2004.827     1772.327     78.19557     155.8334     311.7909      1.666     4.44     857.6514     54.98556     181.7904        14     1.289     0.776 -75.73   0
        50    640.0788    946.6226 307.6398004  +6.2986682     4750.682      6868.34     7033.592      77.8235     155.7092      311.915      1.552     3.49     859.4505     54.98556     663.5709        26     1.357     0.968 -58.32   0
        51    252.2684    946.6426 307.8007975  +6.2856403     4679.922     6854.479     7352.455     78.19557     155.9575      312.039      1.592     3.53     859.0105     54.98556     648.0109        26     1.370     0.985 -68.64   0
        52    989.3909    945.9388 307.4948013  +6.3106354     664.2873     1032.091     958.4724     77.57447     155.8954     311.7288      1.650     5.83     852.9664     54.98556     89.65411        10     1.153     0.829  67.48   0
        53    462.4344    944.7503 307.7136129  +6.2934832     1198.397     1711.768      1789.22     78.07175     156.0195      311.884      1.512     3.28     860.0776     54.98556     177.8285        11     1.010     0.730 -64.99   0
        54     20.8613    944.1058 307.8969464  +6.2788951     2247.669     3355.343     3463.952     78.07175     156.0815      311.977      1.548     3.60     855.5082     54.98556     310.9347        20     1.246     0.921 -67.14   0
        55    871.9275    943.2078 307.5436601  +6.3078379     1048.537     1647.258     1462.458     77.82351     155.5226     311.8529      1.686     5.34     855.6012     54.98556     129.0671        16     1.286     0.990 -56.70   0
        56    943.5544    940.1044 307.5140268  +6.3115128     667.5952     858.5125     945.2677     78.19557     155.9575      312.101      1.383     4.61     854.2198     54.98556     115.5443         8     1.226     0.556 -35.81   0
        57    287.8935    940.0471 307.7862308  +6.2895608     883.2234     1425.111     2313.489     78.07175     155.9575       312.07      1.970     5.29     859.2694     54.98556     122.0989         9     1.144     0.690 -69.20   0
        58    995.3601    939.1830 307.4925494  +6.3136235      789.236     1304.545     1477.381     77.82351     155.8334     311.7288      1.823     5.25     852.5197     54.98556     112.7458         8     1.410     0.553 -65.45   0
        59    964.3651    940.1612 307.5053849  +6.3121846     525.1787     725.8556     618.4685     77.94772     155.8954     311.7599      1.425     3.44      853.568     54.98556      70.1228         5     0.780     0.438  71.90   0
        60    564.6166    939.0900 307.6713823  +6.2992479     1694.021     2554.112     3069.262     77.94772     155.7713     311.8529      1.704     4.02     859.8224     54.98556     228.7848        18     1.187     1.025 -64.91   0
        61    603.9922    935.5350 307.6551548  +6.3020356     1232.464     1553.396     1140.092     77.69909     155.7713     311.8219      1.365     3.46     859.6687     54.98556     229.3367        11     1.145     0.608 -66.19   0
        62     53.4715    936.4936 307.8836666  +6.2831363     642.3994     1059.122     1685.725     78.07175     156.0815      311.977      1.554     3.59     855.9302     54.98556     119.7943         6     0.940     0.394 -68.98   0
        63     47.7670    936.3575 307.8860392  +6.2830002     441.7808     671.4965      1032.32     77.94772     156.0195     311.7909      1.810     3.28     855.8383     54.98556     82.33331         5     0.743     0.444 -17.59   0
        64    551.7552    932.4346 307.6769457  +6.3015639     641.5394     914.5975     646.3433     77.94772     155.9575     311.8219      1.538     6.93     859.5511     54.98556     88.47217        10     1.787     0.753 -74.31   0
        65    283.8341    933.1526 307.7881486  +6.2922702     1449.151     2311.638     3168.566     77.94772     156.0195      311.884      1.777     4.27     858.9946     54.98556     227.5206        16     1.406     0.721 -58.68   0
        66    750.9718    929.4231 307.5943397  +6.3094818     1036.081      1430.52     1478.746     77.69909     155.8954     311.7909      1.429     3.90     857.6208     54.98556     147.0347         8     0.887     0.708 -87.92   0
        67    888.2770    925.9389 307.5374514  +6.3155130     7214.005     11195.71     10972.27     78.44263     156.0815      311.915      1.658     3.51     854.9798     54.98556     894.5441        38     1.497     1.140 -66.79   0
        68    126.0124    927.3925 307.8538605  +6.2893368     609.4417     752.8789     898.8765     77.82351     155.8334     311.8529      1.251     2.72     857.0977     54.98556     121.2537         5     0.771     0.527  88.63   0
        69    424.0691    922.9537 307.7302744  +6.3011924     2265.481     3396.993     3929.762     78.19557     155.9575      311.946      1.566     3.45     858.9058     54.98556     387.9631        20     1.241     0.972 -60.75   0
        70    325.8255    921.3131 307.7711155  +6.2985689     10142.13     14893.44     15656.07     78.31921     155.8334     311.8219      1.572     3.50     859.2692     54.98556     1450.532        40     1.439     1.100 -66.52   0
        71    245.8896    920.2075 307.8043377  +6.2963374     7572.941     11425.99      11452.6     77.69909     155.7092     311.6978      1.612     3.57     858.4208     54.98556     1115.946        31     1.431     1.006 -74.91   0
        72    758.2408    914.7076 307.5918159  +6.3157995     762.7004     1098.653     1365.195     78.31921     155.9575      312.039      1.796     5.56      857.264     54.98556      112.896        11     1.330     0.655 -56.55   0
        73    573.8838    914.7126 307.6683550  +6.3096213     1384.224      1858.29     1843.624     77.94772     156.2054      311.977      1.385     4.37     859.0449     54.98556     194.0984        10     0.971     0.729 -55.80   0
        74    904.0740    911.0031 307.5313937  +6.3222064     946.3051      1156.81     1297.827     77.69909     155.5226     311.8219      1.374     5.25     854.3846     54.98556     119.0781        10     1.153     0.675 -69.59   0
        75    860.5428    909.8030 307.5495072  +6.3212465     700.5145     1189.052      1046.66     77.57447     155.8334     311.6667      1.455     4.42     855.1744     54.98556     123.2305         7     1.135     0.489 -84.80   0
        76    137.4212    909.2347 307.8497378  +6.2972160     509.4384     718.5419      1001.66     77.69909     155.8334     311.6978      1.661     4.30      856.978     54.98556     83.28687         5     1.056     0.500   3.53   2
        77    402.7693    908.7484 307.7395957  +6.3063407      578.402     649.7776     800.2198     78.07175     156.1435      311.884      1.369     4.64     858.7953     54.98556     94.44855         8     0.972     0.630 -82.40   0
